ENTRY            30071   20080215   20080530   20080530       3125
SUBENT        30071001   20080215   20080530   20080530       3125
BIB                 10         18
INSTITUTE  (3SAFPEL)
REFERENCE  (J,ZP,245,36,197107)VDG,TOF,cfd optical mod,graphs only
           (P,INDC-282,5,1968)  superseded by ZP 245.Brief,no data
           (P,INDC(SAF)-2,1970)superseded by ZP 245.Brief,no data
           (P,INDC(SEC)-18,170,1971)spsded by ZP 245.Brief,no data
AUTHOR     (E.Barnard,J.A.M.De Villiers,D.Reitmann,I.W.Tepel)
TITLE      Total and scattering cross-sections of Sc-45
FACILITY   (VDG) 3 MeV Van de Graaff with bunching and terminal
           pulsing
INC-SOURCE (P-LI7) Li-7(p,n) reaction.Ave proton current,10 mu-amp
           (P-T)  T(p,n) reaction
DETECTOR   (SCIN)  10-cm diameter plastic scintillator for neuts
           placed inside a large shielding tank and protected from
           the neutron source by a collimator and shadow bar.
PART-DET   (N) neutrons
STATUS     (TABLE) data from priv com Barnard 11/1970
HISTORY    (19701204C)
           (20080305A) BIB section updated
ENDBIB              18
NOCOMMON             0          0
ENDSUBENT           21
SUBENT        30071002   20080215   20080530   20080530       3125
BIB                  8         22
REACTION   (21-SC-45(N,TOT),,SIG)
SAMPLE     Metal- solid cylinder of Sc metal 3.0cm diam.2.0cm high
METHOD     (TOF) time-of-flight to select n-energies with
           flight paths from 4-7 meters. Pulse rate was 1 MHz and
           pulse length 2 nanosec, sigma from transmission
ANALYSIS   Between 400 and 800 keV channels were summed over 2-keV
           energy intervals. Above 800 keV, over 5-keV intervals.
COMMENT    Transmission through Fe was used for energy calibration
CORRECTION Corrections were made for
           1) detector background
           2) dead time losses
           3) room scattering and in scattering
           4) scattering from oxygen. Oxygen content was
              determined as 3.8+-1.0 atomic percent by neutron
              elastic scattering, neutron activation and chemical
              methods. Data were corrected using oxygen total
              cross section data of R.O.Lane et al.,Ann.Phys.12,
              135(1961) = BNL325 (2) Suppl2.
ERR-ANALYS (DATA-ERR) is standard deviation derived from counting
           statistics and uncertainties in oxygen content and
           cross section.
HISTORY    (20080215S) Dataset was restored.
ENDBIB              22
NOCOMMON             0          0
DATA                 3        524
EN         DATA       DATA-ERR
KEV        B          B
 200.2     2.68       0.30
 201.0     2.96       0.21
 202.0     3.59       0.24
 202.9     3.72       0.21
 204.0     4.06       0.21
 205.0     3.07       0.23
 206.0     3.16       0.20
 206.9     3.71       0.23
 207.9     3.84       0.20
 209.1     4.36       0.20
 210.1     4.63       0.23
 210.9     4.39       0.23
 212.0     3.07       0.19
 213.0     3.05       0.21
 214.0     2.55       0.18
 215.1     3.79       0.21
 215.9     4.26       0.21
 217.0     4.67       0.19
 218.1     4.96       0.21
 219.0     5.21       0.21
 219.9     5.07       0.21
 221.0     4.49       0.18
 222.1     3.17       0.20
 223.0     2.72       0.19
 224.0     2.43       0.19
 224.9     3.49       0.19
 225.9     4.88       0.20
 227.0     5.46       0.17
 228.1     5.14       0.19
 229.1     4.60       0.19
 230.1     4.39       0.19
 231.1     4.91       0.19
 232.1     5.13       0.19
 233.1     4.39       0.18
 234.1     4.33       0.18
 235.1     4.04       0.18
 236.1     3.75       0.18
 237.0     3.33       0.21
 237.9     3.35       0.17
 238.9     3.27       0.17
 240.0     4.06       0.17
 241.0     4.27       0.17
 242.1     5.36       0.18
 243.1     5.94       0.18
 244.0     5.49       0.22
 244.9     5.32       0.17
 246.0     4.08       0.17
 247.1     3.90       0.16
 248.0     3.73       0.20
 249.0     3.22       0.16
 250.1     2.73       0.16
 251.0     2.40       0.19
 252.0     2.38       0.15
 253.1     1.97       0.15
 254.1     2.24       0.18
 255.0     2.09       0.15
 256.0     2.60       0.19
 257.0     3.05       0.15
 257.9     4.60       0.19
 258.9     5.44       0.16
 260.1     5.69       0.16
 261.1     5.36       0.19
 262.1     4.31       0.15
 263.1     3.91       0.19
 264.1     3.18       0.15
 265.1     3.05       0.18
 265.9     2.86       0.18
 267.0     3.09       0.15
 268.0     3.52       0.18
 269.0     3.87       0.15
 270.1     3.82       0.18
 270.9     4.00       0.18
 272.0     3.90       0.15
 273.0     3.51       0.17
 273.9     3.46       0.17
 275.0     3.59       0.14
 276.0     3.74       0.17
 276.9     3.80       0.17
 278.0     3.92       0.14
 279.1     4.49       0.18
 280.0     4.31       0.17
 280.9     4.53       0.18
 282.0     4.31       0.14
 283.1     4.04       0.17
 284.0     3.74       0.17
 284.9     3.75       0.17
 286.0     3.47       0.14
 287.2     3.80       0.17
 288.1     3.70       0.17
 289.0     3.74       0.17
 290.0     3.29       0.16
 290.9     3.00       0.16
 291.8     2.66       0.16
 293.0     2.29       0.13
 294.2     2.24       0.16
 295.2     2.43       0.16
 296.1     2.70       0.16
 297.1     2.69       0.16
 298.1     3.08       0.16
 299.0     2.69       0.16
 300.0     2.76       0.16
 301.0     2.60       0.16
 302.0     2.37       0.15
 303.0     2.45       0.15
 304.0     2.18       0.15
 305.0     2.32       0.15
 306.0     2.58       0.15
 307.0     2.99       0.15
 308.0     3.43       0.15
 309.0     3.73       0.15
 310.1     3.74       0.15
 311.1     3.30       0.15
 312.1     3.22       0.15
 313.2     3.15       0.15
 314.2     2.92       0.15
 315.0     2.81       0.21
 315.8     2.55       0.15
 316.9     2.58       0.14
 318.0     2.45       0.14
 319.0     2.62       0.14
 320.1     2.65       0.14
 321.2     2.61       0.14
 322.0     2.61       0.20
 322.8     2.73       0.14
 323.9     2.83       0.14
 325.0     2.69       0.14
 326.1     2.75       0.14
 327.0     2.74       0.20
 327.8     3.26       0.14
 328.9     3.30       0.14
 330.1     3.18       0.14
 331.2     3.00       0.14
 332.1     2.80       0.19
 332.9     2.67       0.13
 334.1     2.72       0.13
 334.9     2.59       0.19
 335.8     2.66       0.13
 337.0     2.73       0.13
 338.1     2.41       0.13
 339.0     2.31       0.18
 339.9     1.69       0.13
 341.1     1.56       0.13
 342.0     1.54       0.18
 342.9     1.36       0.12
 344.1     1.73       0.12
 345.0     1.81       0.17
 345.9     2.06       0.12
 347.1     2.24       0.12
 348.0     2.74       0.17
 349.0     2.92       0.13
 350.2     3.21       0.13
 351.1     3.55       0.17
 352.1     3.44       0.13
 353.0     3.63       0.17
 353.9     3.58       0.12
 354.9     3.54       0.17
 355.8     3.69       0.12
 357.1     3.53       0.12
 358.1     3.40       0.17
 359.0     3.68       0.12
 360.0     3.91       0.17
 361.0     4.04       0.12
 361.9     4.12       0.16
 362.9     4.35       0.12
 363.9     4.03       0.16
 364.9     4.45       0.12
 365.9     3.84       0.16
 366.9     4.04       0.12
 367.8     3.88       0.16
 368.9     3.89       0.11
 369.9     3.77       0.16
 370.9     3.46       0.11
 371.9     3.13       0.15
 372.9     3.12       0.11
 373.9     3.29       0.15
 374.9     3.33       0.11
 376.0     3.13       0.15
 377.0     3.09       0.11
 378.0     2.98       0.15
 379.1     3.14       0.11
 380.1     3.04       0.14
 380.8     2.76       0.14
 381.9     2.64       0.10
 383.0     2.69       0.14
 384.0     2.53       0.10
 385.1     2.43       0.14
 385.8     2.29       0.14
 386.9     2.25       0.10
 388.0     2.38       0.14
 389.0     2.35       0.10
 390.1     2.59       0.13
 390.9     2.64       0.13
 392.0     2.64       0.10
 393.1     3.04       0.13
 393.8     3.23       0.13
 394.9     3.12       0.10
 396.0     3.40       0.13
 396.8     3.35       0.13
 397.9     3.21       0.10
 399.0     3.25       0.13
 400.0     3.30       0.13
 401.2     3.24       0.10
 403.0     3.06       0.09
 405.1     2.88       0.09
 407.0     2.55       0.11
 409.0     2.35       0.10
 411.0     2.25       0.11
 413.1     2.31       0.11
 415.0     2.34       0.12
 416.9     2.35       0.12
 418.9     2.53       0.13
 421.0     2.90       0.13
 423.0     3.06       0.14
 424.9     3.01       0.14
 427.1     3.11       0.15
 428.9     3.05       0.15
 430.8     3.17       0.17
 432.9     2.74       0.23
 434.9     3.00       0.22
 436.9     2.96       0.23
 438.9     2.84       0.22
 441.0     2.43       0.23
 443.0     2.28       0.21
 445.1     2.20       0.21
 446.9     2.13       0.21
 449.0     2.29       0.19
 451.1     2.49       0.20
 453.0     2.60       0.20
 454.9     2.55       0.19
 457.0     2.00       0.17
 459.2     1.99       0.18
 461.1     1.89       0.17
 463.0     2.28       0.17
 465.0     2.43       0.16
 467.0     2.39       0.16
 468.9     2.38       0.16
 470.9     2.61       0.13
 472.9     2.55       0.12
 474.9     2.29       0.11
 476.9     1.80       0.11
 479.0     1.98       0.10
 481.0     2.46       0.10
 483.1     2.64       0.10
 485.1     2.63       0.10
 486.9     2.79       0.10
 488.9     3.10       0.09
 491.0     2.96       0.09
 493.1     2.79       0.09
 495.0     2.73       0.10
 496.9     2.78       0.09
 499.1     2.95       0.09
 501.0     2.73       0.09
 502.9     2.80       0.08
 505.0     3.14       0.09
 506.9     3.37       0.09
 509.0     3.09       0.08
 511.0     2.94       0.09
 513.0     2.88       0.08
 515.0     2.97       0.09
 517.0     3.10       0.08
 519.0     2.89       0.08
 521.0     2.54       0.08
 523.1     2.57       0.08
 525.0     2.55       0.08
 527.0     2.47       0.08
 529.0     2.65       0.08
 530.9     2.56       0.08
 533.0     2.50       0.07
 535.0     2.27       0.08
 537.0     2.46       0.07
 539.1     2.23       0.07
 541.1     2.13       0.08
 542.9     2.01       0.08
 545.0     2.12       0.07
 547.1     2.45       0.07
 549.2     2.81       0.08
 551.1     2.97       0.07
 553.0     2.77       0.07
 554.9     2.69       0.07
 556.8     2.55       0.07
 558.9     2.40       0.07
 561.0     2.49       0.07
 563.1     2.65       0.07
 565.2     2.83       0.07
 567.2     2.94       0.07
 569.2     2.59       0.07
 571.2     2.59       0.07
 573.2     2.63       0.07
 575.2     2.51       0.07
 577.1     2.44       0.08
 579.0     2.51       0.07
 581.0     2.28       0.07
 582.9     2.44       0.08
 584.8     2.30       0.07
 586.9     2.41       0.07
 589.0     2.42       0.07
 591.1     2.85       0.07
 593.2     2.77       0.07
 595.2     2.92       0.08
 596.9     2.97       0.08
 598.9     2.84       0.07
 601.0     2.99       0.07
 603.0     3.14       0.08
 604.8     3.01       0.08
 606.8     2.86       0.07
 609.0     2.59       0.07
 611.1     2.60       0.08
 612.9     2.53       0.08
 615.0     2.76       0.07
 617.0     2.75       0.08
 618.9     2.68       0.08
 621.0     2.61       0.07
 623.1     2.78       0.08
 625.0     3.02       0.08
 627.1     3.00       0.07
 629.0     3.00       0.09
 630.7     2.95       0.08
 633.2     3.10       0.09
 635.1     3.22       0.12
 637.1     3.41       0.10
 639.1     3.18       0.11
 641.1     2.75       0.09
 643.0     2.82       0.12
 645.0     2.70       0.09
 647.1     2.79       0.11
 649.1     2.71       0.10
 651.1     2.75       0.12
 653.1     2.82       0.10
 655.2     2.69       0.12
 656.8     2.71       0.12
 658.9     2.75       0.10
 661.0     2.88       0.12
 663.0     2.89       0.10
 665.1     3.12       0.12
 666.8     2.85       0.12
 668.9     2.90       0.10
 671.0     2.54       0.12
 672.7     2.59       0.12
 674.9     2.56       0.10
 677.0     2.34       0.12
 678.8     2.43       0.12
 680.9     2.61       0.10
 683.1     2.56       0.12
 684.9     2.70       0.12
 687.0     2.76       0.10
 689.3     3.05       0.12
 691.0     2.79       0.12
 692.8     2.99       0.12
 695.0     3.03       0.10
 697.3     3.22       0.12
 699.1     3.07       0.12
 701.0     3.23       0.10
 702.8     2.97       0.10
 704.9     3.13       0.09
 707.1     3.20       0.09
 709.2     3.18       0.10
 711.1     3.39       0.10
 712.9     3.29       0.10
 714.8     3.53       0.10
 717.0     3.36       0.08
 719.0     3.31       0.09
 721.1     3.32       0.09
 723.3     3.17       0.09
 725.2     3.16       0.09
 727.1     2.93       0.09
 729.0     2.84       0.09
 731.0     2.78       0.09
 732.9     2.94       0.09
 734.9     3.00       0.09
 736.8     2.97       0.09
 738.8     3.13       0.09
 740.7     3.26       0.09
 742.7     3.29       0.09
 744.7     3.31       0.09
 746.7     2.97       0.09
 748.7     3.05       0.09
 750.6     2.82       0.10
 752.8     2.65       0.12
 754.8     2.53       0.12
 756.9     2.75       0.12
 758.9     2.90       0.12
 761.0     2.67       0.12
 763.0     2.36       0.12
 765.1     2.67       0.12
 767.2     2.60       0.12
 769.2     2.51       0.12
 771.3     2.50       0.12
 773.4     2.61       0.12
 775.0     2.86       0.17
 776.6     2.68       0.12
 778.7     2.94       0.12
 780.8     2.98       0.12
 783.0     3.00       0.12
 785.1     2.71       0.12
 787.3     2.67       0.12
 789.5     2.97       0.12
 791.1     2.85       0.17
 792.7     3.19       0.12
 794.9     3.16       0.12
 797.1     3.09       0.12
 799.3     3.06       0.12
 802.1     2.68       0.10
 806.0     2.60       0.09
 811.0     2.70       0.08
 816.1     2.66       0.09
 820.7     2.47       0.09
 825.9     2.50       0.08
 831.2     2.66       0.09
 835.9     2.22       0.08
 840.6     2.38       0.09
 846.0     2.62       0.08
 851.5     2.62       0.09
 856.3     2.39       0.09
 861.3     2.64       0.09
 866.2     2.46       0.09
 871.2     2.66       0.09
 876.3     2.60       0.09
 881.4     2.70       0.09
 886.5     2.82       0.09
 891.1     3.16       0.10
 895.6     2.94       0.09
 900.9     2.74       0.09
 906.2     2.70       0.09
 910.9     2.71       0.10
 915.6     2.71       0.09
 921.1     2.66       0.09
 925.9     2.79       0.10
 930.7     2.65       0.09
 936.3     2.53       0.09
 941.2     2.68       0.10
 946.2     2.78       0.09
 951.2     2.92       0.10
 956.2     2.59       0.09
 961.3     2.47       0.11
 965.7     2.39       0.11
 971.2     2.50       0.09
 976.1     2.64       0.09
 980.6     2.79       0.10
 985.9     2.89       0.09
 991.2     2.97       0.10
 995.8     2.99       0.11
1000.9     2.91       0.11
1006.2     2.90       0.11
1011.3     2.88       0.12
1016.1     2.88       0.12
1020.9     2.83       0.12
1025.7     2.86       0.12
1030.6     3.07       0.12
1035.4     2.96       0.12
1040.3     2.84       0.12
1045.3     2.76       0.12
1050.3     2.78       0.12
1055.3     2.56       0.12
1060.3     2.52       0.12
1065.4     2.65       0.11
1070.5     2.61       0.11
1075.7     2.74       0.11
1080.9     2.79       0.11
1086.1     2.90       0.11
1091.4     2.73       0.11
1096.7     2.65       0.11
1101.1     3.02       0.13
1105.6     2.67       0.11
1111.0     2.64       0.11
1116.5     2.63       0.11
1121.0     2.92       0.13
1125.6     2.74       0.11
1131.2     2.70       0.11
1135.9     2.83       0.13
1140.6     2.88       0.11
1146.2     2.92       0.11
1151.0     3.09       0.13
1155.8     3.06       0.11
1161.6     2.67       0.11
1166.4     2.99       0.13
1171.3     2.60       0.10
1176.2     2.33       0.10
1181.2     2.64       0.09
1186.1     2.65       0.10
1191.1     2.74       0.09
1196.2     2.66       0.09
1200.7     2.68       0.10
1206.4     2.54       0.11
1211.5     2.50       0.14
1215.6     2.53       0.14
1220.8     2.45       0.11
1226.1     2.48       0.14
1231.3     2.52       0.11
1236.6     2.42       0.14
1240.9     2.38       0.14
1246.2     2.71       0.11
1251.6     2.59       0.14
1256.0     2.75       0.14
1260.3     2.72       0.14
1265.8     2.77       0.11
1271.4     2.57       0.14
1275.8     2.64       0.14
1280.3     2.92       0.14
1285.9     2.75       0.11
1291.5     2.62       0.14
1296.1     2.85       0.14
1300.7     2.63       0.14
1305.3     2.87       0.14
1311.0     2.74       0.12
1316.9     2.60       0.15
1321.6     2.58       0.15
1326.3     2.70       0.15
1331.0     2.66       0.15
1335.8     2.75       0.15
1340.5     2.73       0.14
1345.4     2.67       0.14
1350.2     2.69       0.14
1355.1     2.74       0.14
1360.0     2.82       0.14
1364.9     2.62       0.14
1369.8     2.69       0.14
1374.8     2.88       0.14
1379.8     2.88       0.14
1384.8     3.10       0.14
1389.9     2.78       0.14
1394.9     2.87       0.14
1400.0     3.07       0.15
1405.2     2.77       0.15
1409.1     2.89       0.23
ENDDATA            526
ENDSUBENT          553
SUBENT        30071003   20080215   20080530   20080530       3125
BIB                 11         37
REACTION   (21-SC-45(N,SCT)21-SC-45,PAR,SIG)
INC-SPECT  Lithium targets were about 20 keV thick at threshold
SAMPLE     metal hollow right cylinder of Sc metal,2.54 cm
           outside diameter,2.54 cm long, 0.51 cm wall thickness
METHOD     (TOF) pulse rate was 3MHz, pulse length 2nanosec,flight
           path was 1 to 2 meters, target thickness about 20keV
           and target to sample distance was 15 cm.
DETECTOR   (LONGC) long counter as monitor.
ANALYSIS   Differential cross sections were measured at 15-degree
           intervals between 30 and 150 deg. Elastic scattering
           cross section and Legendre coefficients were derived
           from least-squares fit to Legendre-funct of 4th degree.
MONITOR    (6-C-0(N,EL)6-C-0,,SIG)
            Elastic scattering cross-section as given
           in ANL-5567. C-sample same outside dimensions as Sc
           sample but 0.16 cm wall thickness.
COMMENT    Neutrons scattered inelastically from the first excited
           level (12 keV) of Sc are included in the elastic
           scattering results.
CORRECTION Corrections were made for
           1) efficiency variation of monitor long counter,
           2) effect of second neutron group from Li-7(p,n)Be-7*,
           3) flux attenuation and multiple scattering in sample
           4) scattering from oxygen. Oxygen content was
              determined as 9.2+-1.7 atomic percent by neutron
              elastic scattering, neutron activation and chemical
              methods. Data were corrected using oxygen differen-
              tial scattering cross section data of Lane et al.,
              Argonne National Laboratory Report ANL-6172 (1960).
ERR-ANALYS (DATA-ERR) is standard deviation calculated from
           goodness-of-fit to Legendre function and uncertainties
           in oxygen content and cross sections.
           For the total elastic cross section an additional 5%
           uncertainty was included for systematic errors in
           detector efficiency calibration and carbon standard
           cross sections.
HISTORY    (20080215S) Dataset was restored.
ENDBIB              37
COMMON               2          3
E-LVL      E-LVL
KEV        KEV
 0.0        1.2000E+01
ENDCOMMON            3
DATA                 3         64
EN         DATA       DATA-ERR
KEV        B          B
 200.      4.80       0.28
 210.      4.74       0.40
 217.      4.97       0.28
 220.      4.84       0.27
 230.      4.73       0.33
 240.      5.02       0.27
 250.      5.17       0.31
 260.      3.76       0.24
 270.      4.40       0.23
 300.      3.21       0.18
 320.      3.01       0.17
 340.      2.75       0.15
 360.      3.14       0.17
 380.      3.48       0.19
 400.      2.89       0.18
 420.      2.54       0.21
 440.      2.32       0.32
 460.      2.26       0.24
 480.      2.44       0.18
 500.      2.79       0.17
 520.      3.03       0.17
 540.      2.60       0.15
 560.      2.72       0.15
 580.      2.76       0.15
 600.      2.96       0.17
 620.      2.95       0.17
 640.      3.07       0.17
 660.      2.79       0.16
 680.      2.64       0.15
 700.      2.84       0.15
 720.      2.88       0.11
 740.      2.93       0.15
 760.      2.64       0.14
 780.      2.83       0.15
 800.      2.89       0.15
 820.      2.67       0.14
 840.      2.98       0.18
 860.      2.29       0.13
 880.      2.44       0.14
 900.      2.57       0.15
 920.      2.56       0.14
 940.      2.77       0.15
 960.      2.58       0.16
 980.      2.78       0.19
1000.      2.88       0.21
1020.      2.56       0.19
1040.      2.44       0.17
1060.      2.25       0.16
1080.      2.49       0.18
1100.      2.51       0.21
1120.      2.49       0.16
1160.      2.80       0.21
1180.      2.83       0.17
1200.      2.72       0.15
1220.      2.96       0.20
1240.      2.67       0.15
1260.      2.94       0.16
1280.      2.87       0.16
1300.      3.12       0.18
1320.      3.11       0.21
1340.      3.48       0.20
1360.      3.10       0.17
1380.      2.80       0.16
1400.      2.90       0.21
ENDDATA             66
ENDSUBENT          112
SUBENT        30071004   20080215   20080530   20080530       3125
BIB                 11         35
REACTION   (21-SC-45(N,SCT)21-SC-45,PAR,DA,,LEG/RS)
           first  (l=1) Legendre coefficient, a(1), of the form
                4pi/sig d-sig/d-omega = 1 + sum(a(l)*p(l))
INC-SPECT  Lithium targets were about 20 keV thick at threshold
SAMPLE     metal hollow right cylinder of Sc metal,2.54 cm
           outside diameter,2.54 cm long, 0.51 cm wall thickness
METHOD     (TOF) pulse rate was 3MHz, pulse length 2nanosec,flight
           path was 1 to 2 meters, target thickness about 20keV
           and target to sample distance was 15 cm.
DETECTOR   (LONGC) long counter as monitor.
ANALYSIS   Differential cross sections were measured at 15-degree
           intervals between 30 and 150 deg. Elastic scattering
           cross section and Legendre coefficients were derived
           from least-squares fit to Legendre-funct of 4th degree.
MONITOR    (6-C-0(N,EL)6-C-0,,SIG)
            Elastic scattering cross-section as given
           in ANL-5567. C-sample same outside dimensions as Sc
           sample but 0.16 cm wall thickness.
COMMENT    Neutrons scattered inelastically from the first excited
           level (12 keV) of Sc are included in the elastic
           scattering results.
CORRECTION Corrections were made for
           1) efficiency variation of monitor long counter,
           2) effect of second neutron group from Li-7(p,n)Be-7*,
           3) flux attenuation and multiple scattering in sample
           4) scattering from oxygen. Oxygen content was
              determined as 9.2+-1.7 atomic percent by neutron
              elastic scattering, neutron activation and chemical
              methods. Data were corrected using oxygen differen-
              tial scattering cross section data of Lane et al.,
             Argonne National Laboratory report ANL-6172 (1960).
ERR-ANALYS (DATA-ERR) is standard deviation calculated from
           goodness-of-fit to Legendre function and uncertainties
           in oxygen content and cross sections.
HISTORY    (20080215S) Dataset was restored.
ENDBIB              35
COMMON               3          3
NUMBER     E-LVL      E-LVL
NO-DIM     KEV        KEV
 1.0000E+00 0.0        1.2000E+01
ENDCOMMON            3
DATA                 3         64
EN         DATA       DATA-ERR
KEV        NO-DIM     NO-DIM
 200.      0.06       0.07
 210.      0.24       0.13
 217.      0.00       0.06
 220.      0.23       0.05
 230.      0.23       0.11
 240.      0.16       0.04
 250.      0.28       0.08
 260.      0.15       0.08
 270.      0.20       0.03
 300.      0.41       0.04
 320.      0.45       0.04
 340.      0.41       0.04
 360.      0.22       0.02
 380.      0.35       0.03
 400.      0.41       0.03
 420.      0.56       0.06
 440.      0.47       0.11
 460.      0.47       0.14
 480.      0.49       0.08
 500.      0.44       0.06
 520.      0.57       0.05
 540.      0.63       0.06
 560.      0.55       0.05
 580.      0.56       0.05
 600.      0.43       0.06
 620.      0.44       0.05
 640.      0.49       0.04
 660.      0.52       0.05
 680.      0.45       0.05
 700.      0.44       0.04
 720.      0.55       0.04
 740.      0.61       0.04
 760.      0.71       0.05
 780.      0.66       0.05
 800.      0.65       0.04
 820.      0.79       0.05
 840.      0.77       0.09
 860.      0.62       0.04
 880.      0.55       0.05
 900.      0.74       0.06
 920.      0.76       0.05
 940.      0.61       0.04
 960.      0.67       0.05
 980.      0.56       0.07
1000.      0.60       0.08
1020.      0.51       0.06
1040.      0.72       0.06
1060.      0.68       0.07
1080.      0.55       0.11
1100.      0.80       0.18
1120.      0.64       0.09
1160.      0.57       0.14
1180.      0.46       0.08
1200.      0.73       0.06
1220.      0.58       0.12
1240.      0.37       0.06
1260.      0.61       0.06
1280.      0.59       0.05
1300.      0.85       0.07
1320.      0.99       0.10
1340.      0.92       0.08
1360.      0.88       0.07
1380.      0.82       0.08
1400.      0.89       0.13
ENDDATA             66
ENDSUBENT          110
SUBENT        30071005   20080215   20080530   20080530       3125
BIB                 11         35
REACTION   (21-SC-45(N,SCT)21-SC-45,PAR,DA,,LEG/RS)
           second (l=2) Legendre coefficient, a(l), of the form
                4pi/sig d-sig/d-omega = 1 + sum(a(l)*p(l))
INC-SPECT  Lithium targets were about 20 keV thick at threshold
SAMPLE     metal hollow right cylinder of Sc metal,2.54 cm
           outside diameter,2.54 cm long, 0.51 cm wall thickness
METHOD     (TOF) pulse rate was 3MHz, pulse length 2nanosec,flight
           path was 1 to 2 meters, target thickness about 20keV
           and target to sample distance was 15 cm.
DETECTOR   (LONGC) long counter as monitor.
ANALYSIS   Differential cross sections were measured at 15-degree
           intervals between 30 and 150 deg. Elastic scattering
           cross section and Legendre coefficients were derived
           from least-squares fit to Legendre-funct of 4th degree.
MONITOR    (6-C-0(N,EL)6-C-0,,SIG)
            Elastic scattering cross-section as given
           in ANL-5567. C-sample same outside dimensions as Sc
           sample but 0.16 cm wall thickness.
COMMENT    Neutrons scattered inelastically from the first excited
           level (12 keV) of Sc are included in the elastic
           scattering results.
CORRECTION Corrections were made for
           1) efficiency variation of monitor long counter,
           2) effect of second neutron group from Li-7(p,n)Be-7*,
           3) flux attenuation and multiple scattering in sample
           4) scattering from oxygen. Oxygen content was
              determined as 9.2+-1.7 atomic percent by neutron
              elastic scattering, neutron activation and chemical
              methods. Data were corrected using oxygen differen-
              tial scattering cross section data of Lane et al.,
              Argonne National Laboratory Report ANL-6172 (1960).
ERR-ANALYS (DATA-ERR) is standard deviation calculated from
           goodness-of-fit to Legendre function and uncertainties
           in oxygen content and cross sections.
HISTORY    (20080215S) Dataset was restored.
ENDBIB              35
COMMON               3          3
NUMBER     E-LVL      E-LVL
NO-DIM     KEV        KEV
 2.0000E+00 0.0        1.2000E+01
ENDCOMMON            3
DATA                 3         64
EN         DATA       DATA-ERR
KEV        NO-DIM     NO-DIM
 200.      0.36       0.11
 210.      -0.23      0.27
 217.      0.04       0.11
 220.      0.26       0.09
 230.      0.06       0.20
 240.      0.32       0.07
 250.      0.19       0.14
 260.      0.38       0.15
 270.      0.25       0.06
 300.      0.19       0.06
 320.      0.18       0.05
 340.      0.24       0.04
 360.      0.27       0.03
 380.      0.21       0.03
 400.      0.25       0.04
 420.      0.33       0.07
 440.      0.27       0.12
 460.      0.45       0.12
 480.      0.53       0.07
 500.      0.48       0.05
 520.      0.47       0.04
 540.      0.58       0.06
 560.      0.57       0.06
 580.      0.64       0.05
 600.      0.67       0.08
 620.      0.64       0.07
 640.      0.66       0.05
 660.      0.67       0.07
 680.      0.81       0.07
 700.      0.58       0.05
 720.      0.55       0.05
 740.      0.58       0.03
 760.      0.67       0.04
 780.      0.86       0.06
 800.      0.68       0.04
 820.      0.69       0.04
 840.      1.37       0.15
 860.      0.80       0.05
 880.      0.82       0.08
 900.      0.81       0.07
 920.      0.90       0.07
 940.      0.92       0.06
 960.      0.92       0.08
 980.      1.10       0.12
1000.      1.23       0.16
1020.      1.08       0.15
1040.      1.04       0.13
1060.      1.09       0.15
1080.      1.15       0.18
1100.      0.98       0.25
1120.      1.01       0.16
1160.      1.30       0.22
1180.      1.38       0.15
1200.      1.12       0.10
1220.      1.27       0.20
1240.      0.97       0.11
1260.      1.20       0.10
1280.      1.18       0.09
1300.      1.41       0.11
1320.      1.30       0.13
1340.      1.47       0.11
1360.      1.12       0.10
1380.      1.19       0.12
1400.      1.47       0.21
ENDDATA             66
ENDSUBENT          110
SUBENT        30071006   20080215   20080530   20080530       3125
BIB                 11         35
REACTION   (21-SC-45(N,SCT)21-SC-45,PAR,DA,,LEG/RS)
           third  (l=3) Legendre coefficient, a(l), of the form
                4pi/sig d-sig/d-omega = 1 + sum(a(l)*p(l))
INC-SPECT  Lithium targets were about 20 keV thick at threshold
SAMPLE     metal hollow right cylinder of Sc metal,2.54 cm
           outside diameter,2.54 cm long, 0.51 cm wall thickness
METHOD     (TOF) pulse rate was 3MHz, pulse length 2nanosec,flight
           path was 1 to 2 meters, target thickness about 20keV
           and target to sample distance was 15 cm.
DETECTOR   (LONGC) long counter as monitor.
ANALYSIS   Differential cross sections were measured at 15-degree
           intervals between 30 and 150 deg. Elastic scattering
           cross section and Legendre coefficients were derived
           from least-squares fit to Legendre-funct of 4th degree.
MONITOR    (6-C-0(N,EL)6-C-0,,SIG)
            Elastic scattering cross-section as given
           in ANL-5567. C-sample same outside dimensions as Sc
           sample but 0.16 cm wall thickness.
COMMENT    Neutrons scattered inelastically from the first excited
           level (12 keV) of Sc are included in the elastic
           scattering results.
CORRECTION Corrections were made for
           1) efficiency variation of monitor long counter,
           2) effect of second neutron group from Li-7(p,n)Be-7*,
           3) flux attenuation and multiple scattering in sample
           4) scattering from oxygen. Oxygen content was
              determined as 9.2+-1.7 atomic percent by neutron
              elastic scattering, neutron activation and chemical
              methods. Data were corrected using oxygen differen-
              tial scattering cross section data of Lane et al.,
              Argonne National Laboratory Report ANL-6172 (1960).
ERR-ANALYS (DATA-ERR) is standard deviation calculated from
           goodness-of-fit to Legendre function and uncertainties
           in oxygen content and cross sections.
HISTORY    (20080215S) Dataset was restored.
ENDBIB              35
COMMON               3          3
NUMBER     E-LVL      E-LVL
NO-DIM     KEV        KEV
 3.0000E+00 0.0        1.2000E+01
ENDCOMMON            3
DATA                 3         64
EN         DATA       DATA-ERR
KEV        NO-DIM     NO-DIM
 200.      -0.50      0.10
 210.      0.14       0.22
 217.      -0.28      0.10
 220.      -0.06      0.08
 230.      0.17       0.17
 240.      -0.03      0.06
 250.      0.07       0.11
 260.      -0.13      0.13
 270.      0.00       0.05
 300.      0.10       0.06
 320.      0.03       0.05
 340.      0.11       0.05
 360.      0.02       0.03
 380.      0.06       0.03
 400.      0.02       0.03
 420.      0.06       0.06
 440.      0.01       0.07
 460.      0.04       0.09
 480.      0.08       0.06
 500.      0.19       0.05
 520.      0.08       0.04
 540.      0.14       0.05
 560.      0.12       0.05
 580.      0.17       0.04
 600.      0.15       0.08
 620.      0.14       0.06
 640.      0.13       0.03
 660.      0.16       0.06
 680.      0.11       0.06
 700.      0.07       0.04
 720.      0.09       0.04
 740.      0.05       0.02
 760.      0.10       0.03
 780.      0.25       0.04
 800.      0.05       0.02
 820.      0.10       0.03
 840.      0.34       0.11
 860.      0.14       0.04
 880.      0.07       0.07
 900.      0.18       0.06
 920.      0.26       0.05
 940.      0.14       0.04
 960.      0.12       0.07
 980.      0.22       0.08
1000.      0.20       0.10
1020.      0.20       0.08
1040.      0.22       0.06
1060.      0.22       0.09
1080.      0.14       0.11
1100.      0.35       0.16
1120.      0.07       0.08
1160.      0.03       0.13
1180.      0.03       0.07
1200.      0.14       0.04
1220.      0.14       0.12
1240.      -0.13      0.09
1260.      0.15       0.07
1280.      0.11       0.06
1300.      0.31       0.06
1320.      0.41       0.09
1340.      0.54       0.07
1360.      0.30       0.07
1380.      0.17       0.09
1400.      0.39       0.17
ENDDATA             66
ENDSUBENT          110
SUBENT        30071007   20080215   20080530   20080530       3125
BIB                 11         35
REACTION   (21-SC-45(N,SCT)21-SC-45,PAR,DA,,LEG/RS)
           fourth (l=4) Legendre coefficient, a(l), of the form
                4pi/sig d-sig/d-omega = 1 + sum(a(l)*p(l))
INC-SPECT  Lithium targets were about 20 keV thick at threshold
SAMPLE     Metal hollow right cylinder of Sc metal,2.54 cm
           outside diameter,2.54 cm long, 0.51 cm wall thickness
METHOD     (TOF) pulse rate was 3MHz, pulse length 2nanosec,flight
           path was 1 to 2 meters, target thickness about 20keV
           and target to sample distance was 15 cm.
DETECTOR   (LONGC) long counter as monitor.
ANALYSIS   Differential cross sections were measured at 15-degree
           intervals between 30 and 150 deg. Elastic scattering
           cross section and Legendre coefficients were derived
           from least-squares fit to Legendre-funct of 4th degree.
MONITOR    (6-C-0(N,EL)6-C-0,,SIG)
            Elastic scattering cross-section as given
           in ANL-5567. C-sample same outside dimensions as Sc
           sample but 0.16 cm wall thickness.
COMMENT    Neutrons scattered inelastically from the first excited
           level (12 keV) of Sc are included in the elastic
           scattering results.
CORRECTION Corrections were made for
           1) efficiency variation of monitor long counter,
           2) effect of second neutron group from Li-7(p,n)Be-7*,
           3) flux attenuation and multiple scattering in sample
           4) scattering from oxygen. Oxygen content was
              determined as 9.2+-1.7 atomic percent by neutron
              elastic scattering, neutron activation and chemical
              methods. Data were corrected using oxygen differen-
              tial scattering cross section data of lane,et Al.,
              Argonne National Laboratory Report ANL-6172 (1960).
ERR-ANALYS (DATA-ERR) is standard deviation calculated from
           goodness-of-fit to Legendre function and uncertainties
           in oxygen content and cross sections.
HISTORY    (20080215S) Dataset was restored.
ENDBIB              35
COMMON               3          3
NUMBER     E-LVL      E-LVL
NO-DIM     KEV        KEV
 4.0000E+00 0.0        1.2000E+01
ENDCOMMON            3
DATA                 3         64
EN         DATA       DATA-ERR
KEV        NO-DIM     NO-DIM
 200.      0.21       0.12
 210.      -0.23      0.27
 217.      0.08       0.12
 220.      0.21       0.09
 230.      -0.03      0.20
 240.      0.22       0.07
 250.      0.07       0.13
 260.      0.18       0.15
 270.      0.06       0.06
 300.      -0.01      0.06
 320.      0.01       0.06
 340.      0.05       0.06
 360.      0.09       0.04
 380.      0.04       0.04
 400.      0.03       0.04
 420.      -0.01      0.06
 440.      0.02       0.07
 460.      -0.05      0.10
 480.      -0.11      0.06
 500.      0.07       0.05
 520.      0.06       0.04
 540.      0.16       0.06
 560.      0.15       0.06
 580.      0.11       0.05
 600.      0.16       0.10
 620.      0.16       0.07
 640.      0.09       0.04
 660.      0.19       0.07
 680.      0.25       0.07
 700.      0.07       0.04
 720.      0.04       0.04
 740.      0.02       0.02
 760.      0.03       0.03
 780.      0.19       0.05
 800.      0.05       0.03
 820.      0.03       0.03
 840.      0.39       0.13
 860.      0.13       0.04
 880.      -0.02      0.08
 900.      0.06       0.07
 920.      0.11       0.05
 940.      0.02       0.04
 960.      0.06       0.06
 980.      0.08       0.09
1000.      0.14       0.11
1020.      0.17       0.08
1040.      0.03       0.07
1060.      0.05       0.10
1080.      0.15       0.09
1100.      0.13       0.14
1120.      0.08       0.08
1160.      0.24       0.12
1180.      0.35       0.08
1200.      0.10       0.05
1220.      0.20       0.11
1240.      -0.19      0.13
1260.      0.13       0.08
1280.      0.06       0.07
1300.      0.31       0.07
1320.      0.22       0.11
1340.      0.45       0.08
1360.      0.10       0.09
1380.      0.03       0.11
1400.      0.35       0.20
ENDDATA             66
ENDSUBENT          110
SUBENT        30071008   20080215   20080530   20080530       3125
BIB                  7         19
REACTION   (21-SC-45(N,INL)21-SC-45,PAR,DA)
            scatt at 90 deg from 377 keV level
SAMPLE     Metal-  hollow right cylinder of Sc metal,2.54 cm diam,
           2.54 cm long, 0.51 cm wall thickness.
METHOD     (TOF)pulse rate 3MHz, pulse length 2 nanosec, Li target
           thickness 8 and 10 keV, flight path 1 and 1.5 meters,
           target to sample distance 10 cm, detector at 90 degrees
DETECTOR   (GELI) level energies and decay modes were studied with
           a Ge(Li) gamma-ray detector operated in time-gated mode
           no evidence for excitation of the 939 keV level was
           observed.
MONITOR    (6-C-0(N,EL)6-C-0,,SIG)
            Elastic scattering cross-section as given
           in anl-5567. C-sample same outside dimension as Sc
           sample but 0.16 cm wall thickness.
ERR-ANALYS (DATA-ERR) is standard deviation including statistical
           error in peak areas and 5% for detector
           efficiency calibration.
HISTORY    (20080215S) Dataset was restored.
ENDBIB              19
COMMON               3          3
E-LVL      E-LVL-ERR  ANG
KEV        KEV        ADEG
 3.7710E+02 4.0000E-01 9.0000E+01
ENDCOMMON            3
DATA                 3         50
EN         DATA       DATA-ERR
KEV        MB/SR      MB/SR
 560.       4.23      0.74
 570.       4.01      1.05
 580.       3.86      0.59
 590.       4.02      0.70
 600.       3.11      0.43
 610.       4.82      0.59
 617.       5.69      0.41
 630.       6.55      0.62
 640.       6.17      0.58
 650.       5.97      0.46
 660.       5.47      0.55
 672.       7.51      0.71
 680.       6.37      0.56
 690.       7.48      0.64
 700.       7.07      0.50
 710.       6.68      0.61
 722.       6.80      0.59
 730.       7.29      0.65
 740.       7.40      0.67
 750.       7.25      0.62
 762.       7.36      0.57
 772.       9.65      0.69
 782.       8.10      0.60
 792.       8.40      0.63
 802.       8.20      0.65
 812.       8.59      0.72
 822.       8.96      0.83
 832.       8.69      0.87
 842.      10.40      0.91
 852.       7.04      0.70
 862.       6.36      0.79
 870.       8.05      1.12
 882.       8.36      1.09
 892.       7.57      0.77
 902.       5.92      0.65
 912.       7.58      0.88
 922.       7.86      0.74
 932.       9.13      0.90
 942.       8.77      0.86
 952.       7.99      0.60
 962.       8.95      0.69
 972.       8.49      0.58
 982.       8.59      0.58
 992.       9.06      0.60
1002.      11.34      0.73
1012.      11.53      0.78
1022.       8.53      0.63
1032.      10.89      0.78
1042.      12.54      0.87
1052.      12.51      0.87
ENDDATA             52
ENDSUBENT           80
SUBENT        30071009   20080215   20080530   20080530       3125
BIB                  9         31
REACTION   (21-SC-45(N,INL)21-SC-45,PAR,DA)
            scatt at 90 deg from 543 keV lvl
INC-SOURCE (P-T) for the 543-keV level of Sc, control experiments
           were made with a T(p,n) neutron source to avoid second
           neutron groups from the Li-7(p,n)Be-7 reaction.
SAMPLE     metal-  hollow right cylinder of Sc metal,2.54 cm diam,
           2.54 cm long, 0.51 cm wall thickness.
METHOD     (TOF)pulse rate 3MHz, pulse length 2 nanosec, Li target
           thickness 8 and 10 keV, flight path 1 and 1.5 meters,
           target to sample distance 10 cm, detector at 90 degrees
DETECTOR   (GELI) level energies and decay modes were studied with
           a Ge(Li) gamma-ray detector operated in time-gated mode
           no evidence for excitation of the 939 keV level was
           observed.
MONITOR    (6-C-0(N,EL)6-C-0,,SIG)
            Elastic scattering cross-section as given
           in anl-5567. C-sample same outside dimension as Sc
           sample but 0.16 cm wall thickness.
CORRECTION Neutrons inelastically scattered from the 543 keV level
           of Sc could not be resolved from neutrons leaving the
           Be-7 nucleus in the first excited state and subsequent-
           ly scattered elastically from Sc. Correction was made
           using previously measured ratio of intensities for
           neutrons from the ground and 1st-excited states in Be-7
ERR-ANALYS (DATA-ERR) is standard deviation including statistical
           error in peak areas and 5% for detector
           efficiency calibration.
           For the 543-keV level the large error is due to
           uncertainty in correction for neutrons leaving Be-7 in
           1st-excited state. See correction.
HISTORY    (20080215S) Dataset was restored.
ENDBIB              31
COMMON               3          3
E-LVL      E-LVL-ERR  ANG
KEV        KEV        ADEG
 5.4320E+02 4.0000E-01 9.0000E+01
ENDCOMMON            3
DATA                 3         66
EN         DATA       DATA-ERR
KEV        MB/SR      MB/SR
 710.       9.70      1.48
 720.       7.63      0.81
 730.       9.93      1.69
 740.      13.61      1.77
 750.      11.35      2.18
 760.      11.48      2.41
 770.      10.83      2.18
 780.      11.33      2.30
 790.      11.68      2.49
 800.      11.36      2.37
 807.       6.05      2.17
 820.      11.67      2.41
 827.      10.40      2.61
 837.       9.86      2.08
 847.       9.86      1.90
 857.      12.44      1.79
 867.       9.08      1.76
 877.       9.48      1.89
 887.      10.10      2.11
 897.      10.69      2.35
 907.       9.52      2.14
 917.      12.77      2.08
 927.      11.37      2.08
 937.      12.87      2.17
 948.      10.83      2.10
 957.       8.71      1.92
 967.      10.24      1.77
 977.      10.12      1.72
 987.       9.24      1.74
 997.      10.74      1.82
1008.      10.71      2.18
1018.       8.67      1.98
1027.      10.81      1.97
1037.       9.20      1.84
1047.       9.73      1.88
1057.      12.87      1.96
1067.      10.46      1.94
1077.      14.85      2.05
1087.      12.91      2.08
1097.      15.42      2.15
1107.      12.90      2.20
1120.       6.96      2.23
1130.       9.23      2.27
1140.       9.38      2.28
1150.       7.66      2.14
1160.      11.40      2.25
1170.      11.78      2.20
1180.       7.98      2.27
1190.      12.36      2.18
1200.      10.96      2.46
1210.      10.34      2.34
1220.      13.12      2.37
1230.      11.58      2.32
1240.      15.64      2.33
1250.      12.38      2.27
1260.       7.73      2.16
1270.      17.61      2.39
1280.      16.64      2.44
1290.      14.58      2.50
1300.      12.41      2.48
1350.       7.49      2.11
1360.      19.50      2.51
1370.      16.56      2.57
1380.      13.21      2.49
1390.      15.29      2.62
1400.       4.30      2.33
ENDDATA             68
ENDSUBENT          108
SUBENT        30071010   20080215   20080530   20080530       3125
BIB                  7         19
REACTION   (21-SC-45(N,INL)21-SC-45,PAR,DA)
            scatt at 90 deg from 720 keV level
SAMPLE     Metal-  hollow right cylinder of Sc metal,2.54 cm diam,
           2.54 cm long, 0.51 cm wall thickness.
METHOD     (TOF)pulse rate 3MHz, pulse length 2 nanosec, Li target
           thickness 8 and 10 keV, flight path 1 and 1.5 meters,
           target to sample distance 10 cm, detector at 90 degrees
DETECTOR   (GELI) level energies and decay modes were studied with
           a Ge(Li) gamma-ray detector operated in time-gated mode
           no evidence for excitation of the 939 keV level was
           observed.
MONITOR    (6-C-0(N,EL)6-C-0,,SIG)
            Elastic scattering cross-section as given
           in ANL-5567. C-sample same outside dimension as Sc
           sample but 0.16 cm wall thickness.
ERR-ANALYS (DATA-ERR) is standard deviation including statistical
           error in peak areas and 5% for detector
           efficiency calibration.
HISTORY    (20080215S) Dataset was restored.
ENDBIB              19
COMMON               3          3
E-LVL      E-LVL-ERR  ANG
KEV        KEV        ADEG
 7.2030E+02 5.0000E-01 9.0000E+01
ENDCOMMON            3
DATA                 3         56
EN         DATA       DATA-ERR
KEV        MB/SR      MB/SR
 850.       5.00      2.45
 860.       6.73      1.91
 870.      11.30      1.40
 880.       7.34      1.00
 890.       4.55      0.84
 900.       7.07      1.20
 910.       8.66      1.13
 920.       7.72      1.06
 930.       7.75      0.99
 940.       7.06      1.18
 952.       6.55      0.63
 962.       8.77      0.71
 972.       9.64      0.69
 982.      13.32      0.91
 992.       8.96      0.69
1002.       8.79      0.72
1012.       8.43      0.63
1022.       8.47      0.65
1032.       9.53      0.72
1042.      10.88      0.81
1052.      11.03      0.82
1062.      13.28      0.94
1072.      12.45      0.91
1082.      10.87      0.85
1092.      13.30      0.93
1102.      12.86      0.89
1110.      11.74      1.30
1120.       9.94      1.22
1130.       8.77      1.09
1140.       7.05      1.07
1150.       8.32      0.64
1160.       8.82      0.67
1170.      10.81      0.93
1180.       9.74      0.75
1190.       9.57      0.68
1200.      10.35      0.88
1210.       9.69      0.70
1220.       8.06      0.63
1230.       9.29      0.73
1240.       8.64      0.66
1250.       6.97      0.98
1260.       9.14      1.02
1270.      12.22      1.18
1280.      13.14      1.29
1290.      14.69      1.37
1300.      16.34      1.10
1310.      12.25      0.89
1320.      13.35      0.98
1330.      17.29      1.21
1340.      19.35      1.38
1350.      16.29      1.15
1360.      19.67      1.34
1370.      15.89      1.25
1380.      11.09      0.92
1390.      12.46      1.08
1400.       8.93      0.89
ENDDATA             58
ENDSUBENT           86
SUBENT        30071011   20080215   20080530   20080530       3125
BIB                  7         19
REACTION   (21-SC-45(N,INL)21-SC-45,PAR,DA)
            scatt at 90 deg from 975 keV level
SAMPLE     Metal-  hollow right cylinder of Sc metal,2.54 cm diam,
           2.54 cm long, 0.51 cm wall thickness.
METHOD     (TOF)pulse rate 3MHz, pulse length 2 nanosec, Li target
           thickness 8 and 10 keV, flight path 1 and 1.5 meters,
           target to sample distance 10 cm, detector at 90 degrees
DETECTOR   (GELI) level energies and decay modes were studied with
           a Ge(Li) gamma-ray detector operated in time-gated mode
           no evidence for excitation of the 939 keV level was
           observed.
MONITOR    (6-C-0(N,EL)6-C-0,,SIG)
            Elastic scattering cross-section as given
           in anl-5567. C-sample same outside dimension as Sc
           sample but 0.16 Cm wall thickness.
ERR-ANALYS (DATA-ERR) is standard deviation including statistical
           error in peak areas and 5% for detector
           efficiency calibration.
HISTORY    (20080215S) Dataset was restored.
ENDBIB              19
COMMON               3          3
E-LVL      E-LVL-ERR  ANG
KEV        KEV        ADEG
 9.7490E+02 4.0000E-01 9.0000E+01
ENDCOMMON            3
DATA                 3         26
EN         DATA       DATA-ERR
KEV        MB/SR      MB/SR
1150.       3.04      0.55
1160.       3.42      0.50
1170.       2.76      0.53
1180.       2.79      0.54
1190.       3.86      0.49
1200.       5.01      0.62
1210.       6.00      0.67
1220.       4.69      0.52
1230.       3.55      0.35
1240.       6.82      0.72
1250.       6.59      1.18
1260.       4.52      1.11
1270.       6.10      1.01
1280.       9.10      1.24
1290.      11.09      1.35
1300.       9.21      0.88
1310.       7.44      0.84
1320.       8.58      0.86
1330.       6.24      0.92
1340.       8.24      0.89
1350.       7.97      0.70
1360.       8.17      0.66
1370.       8.41      0.86
1380.       9.59      0.97
1390.       8.29      0.89
1400.       8.27      0.87
ENDDATA             28
ENDSUBENT           56
ENDENTRY            11
