ENTRY            30078     850219
SUBENT        30078001     850219              20050926       0000
BIB                 16         31
INSTITUTE  (3ISLHFA)
REFERENCE  (J,PL/B,24,173,6702)
AUTHOR     (A.SUHAMI,R.FOX)
TITLE      NEUTRON-PROTON SMALL ANGLE SCATTERING
REACTION   (1-H-1(N,EL)1-H-1,,DA)
INC-SOURCE (D-T) TRITIUM TARGET
SAMPLE     LIQUID SCINTILLATOR NE213 CONTAINING HYDROGEN
            AND CARBON
METHOD     (TOF,COINC) FAST TIME-OF-FLIGHT TECHNIQUE,DETECTION OF
           RECOIL PROTONS AND SCATTERED NEUTRONS BY PULSE SHAPE
           DISCRIMINATION.
DETECTOR   (SCIN)LIQUID SCINTILLATOR NE213 AS TARGET AND
            DETECTOR IN COMBINATION WITH RCA 8575 PHOTOMULTIPLIER
            FOR RECOIL PROTON DETECTION
MONITOR    (1-H-1(N,EL)1-H-1,,DA)
            ARITHMETIC MEAN NORMALIZED TO 53 MB/STER
           CALCULATED FOR 0 DEGR. BY NAKAMURA IN J.PHYS.SOC.JAPAN,
           15,1359(1960).
PART-DET   (N,RCL) RECOIL PROTONS AND ENERGY SPECTRUM OF SCATTERED
           NEUTRONS.
COMMENT    REFERENCE QUOTES ENERGY 14.1 MEV BUT PRIV.COMM. GIVES
           14.2 MEV.
STATUS     LETTER SUHAMI TO NNCSC 67/03/19
HISTORY    (670802C) DATA FROM AUTHOR'S LETTER ENTERED IN
            DASTAR-00221
           (670804A) DASTAR PROOF COPY SENT TO AUTHOR
           (701209T) DASTAR-00221 CONVERTED TO EXFOR
           (790308U) ND-MINOR CHANGES-
CORRECTION CORRECTED FOR ANGULAR RESOL.,MULT.SCATTERING AND
           DETECTOR EFFICIENCY
ERR-ANALYS ONLY STATISTICAL ERRORS GIVEN.
ENDBIB              31
COMMON               4          3
EN         EN-RSL     ANG-RSL    MONIT
MEV        KEV        ADEG       MB/SR
 1.4200E+01 5.0000E+02 1.0000E+00 5.3000E+01
ENDCOMMON            3
ENDSUBENT           38
SUBENT        30078002     840503              20050926       0000
NOBIB                0          0
NOCOMMON             0          0
DATA                 3         15
ANG-CM     DATA       DATA-ERR
ADEG       MB/SR      MB/SR
 1.2000E+01 5.1300E+01 2.1000E+00
 1.4000E+01 5.7000E+01 2.2000E+00
 1.6000E+01 5.4100E+01 2.1000E+00
 1.8000E+01 4.9700E+01 2.0000E+00
 2.0000E+01 5.5400E+01 2.1000E+00
 2.2000E+01 5.0000E+01 2.0000E+00
 2.4000E+01 5.3000E+01 2.1000E+00
 2.6000E+01 5.2200E+01 2.1000E+00
 2.8000E+01 5.2200E+01 2.1000E+00
 3.0000E+01 5.3800E+01 2.1000E+00
 3.2000E+01 5.2300E+01 2.1000E+00
 3.4000E+01 5.6700E+01 2.2000E+00
 3.6000E+01 5.2200E+01 2.1000E+00
 3.8000E+01 5.3200E+01 2.1000E+00
 9.0000E+01 5.2300E+01 2.1000E+00
ENDDATA             17
ENDSUBENT           21
ENDENTRY             2
