ENTRY            F0909   20080505   20080710   20080516       F031
SUBENT        F0909001   20080505   20080710   20080516       F031
BIB                  7         25
TITLE      Neutron transfer reactions on 204Hg.
AUTHOR     (M.L.Andersen,S.A.Andersen,O.Nathan,K.M.Bisgard,
           K.Gregersen,Ole Hansen,S.Hinds,R.Chapman)
INSTITUTE  (2DENNBI,2DENAAU,1USALAS,2UK ALD)
           (2DENDEN)Physics Laboratory, Royal Veterinary and
           Agricultural University, Copenhagen,Denmark.
REFERENCE  (J,NP/A,153,17,1970)
MONITOR    Absolute reaction cross sections were determined by
           comparison of the (d,p) and (d,t) intensities with the
           yield of elastically scattered deuterons.
SAMPLE     Two different methods have been used to fabricate 204Hg
           targets. In the first method macromolecular
           electrospraying was used. The target was finally
           covered with a thin foil of formvar to reduce the
           evaporation of the target material. The target had a
           mercury thickness of about 340 mu-g/cm2. The mercuro
           nitrate solution used for the preparation of the
           sprayed targets had the following isotopic composition:
           68.6% 204Hg, 10.7% 202Hg, 4.4% 201Hg, 7.6% 200 Hg,
           5.5% 199Hg and 3.2% 198Hg.
           In the second method the Aarhus mass separator was used
           The targets had a mercury thickness of about 50mu-g/cm2
           deposited in a layer of 2Al3O about 125 mu-g/cm2 thick.
           The isotopic composition was 100% 204Hg.
HISTORY    (20080409C)
ENDBIB              25
NOCOMMON             0          0
ENDSUBENT           28
SUBENT        F0909002   20080505   20080710   20080516       F031
BIB                  5          9
REACTION   (80-HG-204(D,P)80-HG-205,PAR,DA)
FACILITY   (VDGT,2DENNBI)
DETECTOR   (MAGSP,PLATE) In the NBI experiments, the reaction
           products were analyzed at 90 and 125 degr. in a single-
           gap, magnetic spectrograph, with photographic detection
ERR-ANALYS The experimental cross sections have a relative
           uncertainty of +-10%. The absolute scale has an
           uncertainty of +-30%.
STATUS     (TABLE) Tbl.1 p. 21
ENDBIB               9
COMMON               2          3
EN         EN-RSL-FW
MEV        KEV
 12.11      12.
ENDCOMMON            3
DATA                 3          8
ANG-CM     E-LVL      DATA-CM
ADEG       MEV        MU-B/SR
        90.         0.       278.
        90.      0.376       120.
        90.      0.468       251.
        90.      1.853      1267.
       125.         0.       133.
       125.      0.376        75.
       125.      0.468       122.
       125.      1.853       738.
ENDDATA             10
ENDSUBENT           28
SUBENT        F0909003   20080505   20080710   20080516       F031
BIB                  5         10
REACTION   (80-HG-204(D,P)80-HG-205,PAR,DA,,REL)
FACILITY   (VDGT,2UK ALD)
DETECTOR   (MAGSP,PLATE)In the Aldermaston experiments, the
           reaction products were momentum analyzed in the
           multiangle spectrograph and detected in the
           photographic Ilford K2 emulsions.
ERR-ANALYS (ANG-ERR-D)  Angle digitizing error
           (ERR-DIG)    Data digitizing error
           (DATA-ERR)   Error from the graphic bars
STATUS     (CURVE)Fig.3
ENDBIB              10
COMMON               4          3
EN         EN-RSL     ANG-ERR-D  ERR-DIG
MEV        KEV        ADEG       PER-CENT
 12.96      25.        0.134      0.004
ENDCOMMON            3
DATA                 4         72
E-LVL      ANG-CM     DATA-CM    DATA-ERR
MEV        ADEG       ARB-UNITS  ARB-UNITS
         0.     35.528     397.37     32.707
         0.     42.772     644.33     46.932
         0.     50.702     503.77     41.464
         0.     57.944     574.74     36.468
         0.      65.53     627.53     45.708
         0.     73.116     521.76     33.106
         0.     80.701     373.61     27.214
         0.     87.941     297.29     24.469
         0.     93.113      284.5     26.135
         0.      100.7     256.02     25.986
         0.     107.59     203.72     22.658
         0.     115.52      144.6     17.501
         0.     123.11     123.44     16.162
         0.     130.69     92.362     11.407
         0.     137.94     73.494     11.843
         0.     145.52     60.042     11.538
      1.853      35.21     780.25     74.929
      1.853     42.026     1126.2      83.25
      1.853     57.377     1424.1     120.94
      1.853     65.226     1468.6     124.71
      1.853     72.738     1313.1     111.51
      1.853     79.896     1838.2     156.11
      1.853     87.069     1484.4     109.73
      1.853     92.531     1410.9     119.82
      1.853     100.04     1248.8     92.313
      1.853     107.22     998.19     84.767
      1.853     115.07     806.08     59.588
      1.853     130.09     720.89     53.291
      1.853      137.6     664.58     56.437
      1.853     145.46     494.67     42.008
      1.853     152.29     437.82      37.18
      1.853     160.14     387.51     28.646
      1.853     167.32     297.38     25.254
      1.853     174.82     346.55     25.618
      2.917     57.994     813.74     59.983
      2.917     72.727     954.56     79.515
      2.917     80.247     686.84     44.101
      2.917     88.105     440.26     36.674
      2.917     93.247     494.13     36.423
      2.917     100.78     472.54     34.832
      2.917     107.62     391.99     32.653
      2.917     115.49     339.94     25.058
      2.917     122.67     267.34     17.166
      2.917      130.2     223.74     18.638
      2.917      137.4     251.11     23.346
      2.917     145.62     279.31     25.969
      2.917     152.45     187.18     15.592
      2.917     159.63     148.52     15.258
      2.917      174.7     144.55     16.274
      2.952     58.077     2229.7     164.83
      2.952     72.702     2323.3      197.3
      2.952      80.19     1914.8     141.55
      2.952     88.027     1198.6     101.78
      2.952     93.123     1484.7     109.75
      2.952     100.27     1396.9     118.63
      2.952      108.1     1116.6     94.823
      2.952     114.91      856.9     63.345
      2.952     122.73     781.97     66.406
      2.952     130.22     618.73     52.543
      2.952     137.71     460.53     34.044
      2.952      145.2     451.33     38.327
      2.952     152.68     424.64     36.061
      2.952     160.17     297.33      21.98
      2.952      174.8     309.81     26.309
      3.576     58.579     6350.3      468.1
      3.576     73.355     6182.1     514.97
      3.576     100.84      3858.     211.38
      3.576     115.96     3286.9      273.8
      3.576     123.17     2751.3      202.8
      3.576     130.38      2585.     215.34
      3.576      145.5     2182.9     99.222
      3.576     160.28     2032.7     149.83
ENDDATA             74
ENDSUBENT           93
SUBENT        F0909004   20080505   20080710   20080516       F031
BIB                  5         10
REACTION   (80-HG-204(D,T)80-HG-203,PAR,DA,,REL)
FACILITY   (VDGT,2UK ALD)
DETECTOR   (MAGSP,PLATE)In the Aldermaston experiments, the
           reaction products were momentum analyzed in the
           multiangle spectrograph and detected in the
           photographic Ilford K2 emulsions.
ERR-ANALYS (ANG-ERR-D)  Angle digitizing error
           (ERR-DIG)    Data digitizing error
           (DATA-ERR)   Error from the graphic bars
STATUS     (CURVE)Fig.5
ENDBIB              10
COMMON               4          3
EN         EN-RSL     ANG-ERR-D  ERR-DIG
MEV        KEV        ADEG       PER-CENT
 12.        50.        0.177      0.005
ENDCOMMON            3
DATA                 4         67
E-LVL      ANG-CM     DATA-CM    DATA-ERR
MEV        ADEG       ARB-UNITS  ARB-UNITS
         0.     43.814     891.48     65.192
         0.     51.405      1854.     153.21
         0.     59.339     3119.9     228.15
         0.     67.273     4849.6     400.75
         0.      74.86     5734.4     419.34
         0.     82.447     6374.6     466.16
         0.     90.033     6430.8     531.42
         0.     95.206     6487.7     474.43
         0.     102.45      6603.     482.86
         0.     117.62     5939.3     434.33
         0.     132.45     5202.8     380.47
         0.     147.62      4361.     360.38
         0.     169.69     3786.5      276.9
         0.     176.93     3853.8     281.82
      0.048     43.242     610.89     50.482
      0.048     51.362     1037.6     75.879
      0.048     59.471     1994.2     164.79
      0.048     66.923     2889.8     211.32
      0.048     74.403     3021.3     249.67
      0.048     82.216      3390.      247.9
      0.048     90.033     3671.7      268.5
      0.048     94.798     3545.3     259.26
      0.048     101.95      3026.     250.06
      0.048     116.92     2872.4     210.05
      0.048      131.9     2474.4     180.94
      0.048     146.87     2328.1     170.25
      0.048     168.67     1609.2     148.42
      0.048     176.15     1682.5     123.04
      0.221     43.805     22.979     5.6224
      0.221      51.41     51.875     8.8545
      0.221     59.365     76.257     12.238
      0.221     66.629     95.755     13.438
      0.221     74.586     122.36      12.37
      0.221     81.505     143.25     14.482
      0.221     89.118     122.37     11.197
      0.221     94.655     116.11     12.863
      0.221     102.27     109.22     15.327
      0.221     116.45     120.27     15.683
      0.221     132.03     101.85     12.277
      0.221     146.91      88.54     11.546
      0.221      169.4     65.181     11.126
      0.221     176.67     59.719     10.808
      0.544      43.06     4.0166     1.9876
      0.544     58.685     12.985     3.9953
      0.544      73.64     24.182     5.2572
      0.544     88.941     30.636     6.4495
      0.544     101.52     41.264      7.526
      0.544     116.15     42.369      7.423
      0.544     130.43     48.748     7.4706
      0.544     146.08     42.757      6.868
      0.544      168.2     24.209     5.2631
      0.925     58.969      83.17     11.069
      0.925     73.372     228.18     21.301
      0.925     88.858     341.23     28.539
      0.925     101.23     557.84     41.285
      0.925     116.06     578.57     42.819
      0.925     130.89     568.77     42.094
      0.925     146.06     589.92     43.658
      0.925     167.79     498.48      27.42
      1.752     58.239     31.652     5.8943
      1.752     73.919     176.88     14.854
      1.752     88.973     246.51     20.701
      1.752      101.3     284.61     18.421
      1.752     116.36     346.77      29.12
      1.752     131.42     376.06     27.944
      1.752     146.15     328.91      24.44
      1.752     168.41     314.71      26.97
ENDDATA             69
ENDSUBENT           88
SUBENT        F0909005   20080505   20080710   20080516       F031
BIB                  5          9
REACTION   (80-HG-204(D,T)80-HG-203,PAR,DA)
FACILITY   (VDGT,2DENNBI)
DETECTOR   (MAGSP,PLATE) In the NBI experiments, the reaction
           products were analyzed at 90 and 125 degr in a single-
           gap, magnetic spectrograph, with photographic detection
ERR-ANALYS The experimental cross sections have a relative
           uncertainty of +-10%. The absolute scale has an
           uncertainty of +-30%.
STATUS     (TABLE) Tbl.2 p.24
ENDBIB               9
COMMON               2          3
EN         EN-RSL
MEV        KEV
 12.11      10.
ENDCOMMON            3
DATA                 3         27
ANG-CM     E-LVL      DATA-CM
ADEG       MEV        MU-B/SR
        90.      0.048      1097.
        90.      0.221       861.
        90.      0.544       175.
        90.      0.747        49.
        90.      0.765        48.
        90.      0.925        74.
        90.      1.023        60.
        90.      1.041       272.
        90.      1.109         6.
        90.      1.326         9.
        90.      1.462        24.
        90.       1.64        15.
        90.      1.752       109.
       125.         0.      1279.
       125.      0.048       615.
       125.      0.221       546.
       125.      0.544       159.
       125.      0.747        48.
       125.      0.765        34.
       125.      0.925       123.
       125.      1.023        51.
       125.      1.041       208.
       125.      1.109         6.
       125.      1.326         7.
       125.      1.462        23.
       125.       1.64        19.
       125.      1.752       129.
ENDDATA             29
ENDSUBENT           47
ENDENTRY             5
