ENTRY            F0924   20080410   20080710   20080516       F031
SUBENT        F0924001   20080410   20080710   20080516       F031
BIB                 11         17
TITLE      The reaction 20Ne(p,g)21Na.
AUTHOR     (C.Van Der Leun,W.L.Mouton)
INSTITUTE  (2NEDUTR)
REFERENCE  (J,PHY,30,333,1964)
FACILITY   (VDG) The 3.2 MeV Van de Graaff accelerator.
DETECTOR   (SCIN) The scintillation counter was placed at 55 degr.
           with respect to the proton beam, at a distance D=1 cm
           from the target.
           (NAICR) Gamma-rays were detected by two 10 cm*10 cm
           NaI crystal.
SAMPLE     The adsorbed 20Ne target.
METHOD     (GSPEC)
ERR-ANALYS (EN-ERR-DIG) Digitizing error
           (ERR-DIG)    Digitizing error
COMMENT    Data are given in relative units: number of counts per
           175 mu-C.
HISTORY    (20080410C)
ENDBIB              17
COMMON               2          3
ANG        EN-ERR-DIG
ADEG       MEV
  55.       0.002
ENDCOMMON            3
ENDSUBENT           24
SUBENT        F0924002   20080410   20080710   20080516       F031
BIB                  3          3
REACTION   (10-NE-20(P,G)11-NA-21,,DA,,REL)
EN-SEC     Gamma energy is in the range of 3 < Eg < 4.6 MeV.
STATUS     (CURVE) Fig.1  (lower)
ENDBIB               3
COMMON               1          3
ERR-DIG
ARB-UNITS
 6.645
ENDCOMMON            3
DATA                 2        198
EN         DATA
MEV        ARB-UNITS
     1.1206     10.799
     1.1283      19.25
     1.1332     3.9177
     1.1399      4.458
     1.1437     20.456
     1.1476      5.061
     1.1544     2.2595
     1.1562     6.0409
     1.1598 1.9604E+03
     1.1645 1.2622E+03
     1.1665     398.97
     1.1697     140.21
     1.1727     30.565
     1.1785     8.2232
     1.1843      7.771
     1.1901     7.3187
     1.1968     16.753
     1.2036      21.96
     1.2104     9.9604
     1.2143     21.131
       1.22     10.714
     1.2297     19.925
     1.2355     19.768
     1.2403     20.145
     1.2432     18.869
     1.2499     36.595
     1.2557     13.503
     1.2635     1.5903
     1.2703     16.759
      1.277     16.231
     1.2799     23.235
     1.2857    0.14335
     1.2914     31.988
     1.2972      32.44
     1.3021     14.272
     1.3098     13.669
     1.3146     33.797
     1.3214     2.9322
     1.3252     42.474
      1.332     11.609
     1.3358     35.455
     1.3407     20.136
     1.3455     4.8166
     1.3513     5.2688
     1.3552     13.418
       1.36     13.795
     1.3657     61.336
     1.3706     46.017
     1.3763     124.95
     1.3821      141.1
     1.3868     172.87
     1.3898     118.16
     1.3966     126.53
     1.4023     166.23
     1.4082     103.89
     1.4111     104.12
      1.415     73.029
     1.4217     73.556
     1.4266     26.844
     1.4313     137.09
     1.4362     106.08
     1.4378     365.22
     1.4409     216.33
     1.4458     91.137
     1.4526     91.664
     1.4574     99.889
     1.4661     77.023
     1.4709     85.248
     1.4767     109.25
     1.4816     78.229
     1.4855     54.987
     1.4932     79.134
     1.4999     79.661
     1.5066     135.13
     1.5114      135.5
     1.5154     57.323
     1.5212     73.472
     1.5269     97.468
     1.5328      58.68
     1.5356     90.298
     1.5404     114.22
     1.5472     99.051
      1.552     122.97
     1.5568      115.5
     1.5627     61.016
     1.5665      92.71
     1.5703     108.71
     1.5761     109.16
     1.5838      164.7
     1.5868     70.749
     1.5926     94.746
     1.5974     87.274
      1.601      61.33
     1.6065     77.342
     1.6142      93.52
     1.6207     164.21
      1.625     195.74
     1.6306     141.56
     1.6383     142.14
     1.6449     189.43
     1.6481     228.68
     1.6548     166.78
     1.6614     198.47
      1.668     152.17
     1.6711     300.61
     1.6778     246.51
     1.6855     262.69
     1.6943     263.35
     1.6976      263.6
     1.7065     217.46
     1.7131     217.96
     1.7176      140.3
     1.7231     187.51
     1.7285     250.32
     1.7339     297.53
     1.7394     282.34
     1.7461     220.44
     1.7527     244.34
     1.7572     221.27
     1.7626     260.68
     1.7704     175.47
     1.7747     300.59
     1.7814     238.69
     1.7891     215.87
     1.7923     278.52
     1.8001      216.7
       1.81     264.24
     1.8144     280.17
     1.8232     280.83
     1.8298     281.33
     1.8353     281.74
     1.8384     391.18
     1.8427     446.11
     1.8484     321.73
     1.8539     361.14
     1.8628     315.01
     1.8659     455.65
     1.8736     409.43
     1.8802     409.93
     1.8868     449.42
     1.8913     379.56
     1.8968     387.77
        1.9     466.01
     1.9078      419.8
     1.9132     467.01
     1.9188     436.22
     1.9242     491.23
     1.9309     452.73
     1.9351     546.66
     1.9428     570.63
      1.947     687.96
     1.9482      766.2
     1.9493 1.3434E+03
      1.953 2.6151E+03
     1.9573 1.9446E+03
     1.9627 1.2274E+03
     1.9633     876.38
     1.9712     728.77
     1.9735     666.54
     1.9768      635.6
     1.9857     597.26
     1.9912     628.87
     1.9978     629.37
     2.0066     653.43
      2.012     669.44
     2.0186     701.14
     2.0263     693.92
     2.0317     764.52
     2.0384     694.83
      2.045     703.12
     2.0527      719.3
     2.0581     789.91
     2.0637     735.73
     2.0692     767.34
     2.0737     720.87
     2.0814     721.45
     2.0891     729.83
     2.0956     761.53
     2.1022     769.82
     2.1055     809.07
     2.1121     809.56
     2.1207     966.21
     2.1249 1.0757E+03
     2.1281 1.1150E+03
     2.1326 1.0607E+03
     2.1382 1.0065E+03
     2.1406     913.11
      2.145     874.44
     2.1495     835.78
     2.1594     828.72
     2.1638     829.05
     2.1737      853.2
     2.1792     838.01
     2.1934     917.08
     2.2088     926.04
     2.2242      942.8
     2.2386     912.67
     2.2539     976.23
ENDDATA            200
ENDSUBENT          212
SUBENT        F0924003   20080410   20080710   20080516       F031
BIB                  2          2
REACTION   (10-NE-20(P,INL)10-NE-20,PAR,DA,G,REL)
STATUS     (CURVE) Fig.1  (upper)
ENDBIB               2
COMMON               2          3
E-LVL      ERR-DIG
MEV        ARB-UNITS
 1.634      217.74
ENDCOMMON            3
DATA                 2         59
EN         DATA
MEV        ARB-UNITS
     1.9179     833.04
     1.9242     684.58
     1.9305     692.74
     1.9347     698.19
      1.941     706.35
     1.9462     869.77
     1.9503 1.9715E+03
     1.9533 3.5418E+03
     1.9565 2.6062E+03
     1.9587 1.9824E+03
     1.9629 1.3614E+03
     1.9681     741.72
     1.9723 1.3736E+03
     1.9786 1.3818E+03
     1.9859 1.0781E+03
     1.9932 1.2442E+03
     2.0016 1.0985E+03
      2.011     954.11
     2.0204     966.36
     2.0267 1.1311E+03
      2.033     826.07
     2.0393     834.23
     2.0434     839.67
     2.0486 1.3163E+03
     2.0539 1.4797E+03
     2.0601 1.8011E+03
     2.0653 1.8079E+03
     2.0727 1.6608E+03
     2.0768 1.8229E+03
     2.0831 2.1443E+03
     2.0883 2.6210E+03
     2.0904 3.2501E+03
     2.0945 3.5688E+03
     2.0966 4.5112E+03
     2.0996 5.6116E+03
     2.1027 7.1819E+03
     2.1057 9.6918E+03
     2.1076 1.3297E+04
     2.1103 1.9566E+04
      2.113 2.7870E+04
     2.1144 3.8836E+04
     2.1161 4.6043E+04
     2.1202 4.7302E+04
     2.1227 4.0883E+04
     2.1242 3.3523E+04
     2.1277 2.6636E+04
     2.1322 2.1317E+04
     2.1356 1.7249E+04
     2.1388 1.4747E+04
     2.1464 1.0371E+04
     2.1528 8.5001E+03
     2.1602 7.2567E+03
     2.1655 6.6370E+03
     2.1739 6.1781E+03
     2.1822 6.0323E+03
     2.1948 6.2053E+03
     2.2094 6.2243E+03
     2.2219 6.8671E+03
     2.2365 7.0428E+03
ENDDATA             61
ENDSUBENT           72
ENDENTRY             3
