ENTRY            F0948   20220427   20220916   20220913       F089
SUBENT        F0948001   20220427   20220916   20220913       F089
BIB                  9         21
TITLE      Levels of 41Sc from the 40Ca(p,p)40Ca reaction
AUTHOR     (E.Koltay,L.Mesko,L.Vegh)
INSTITUTE  (3HUNDEB)
REFERENCE  (J,NP/A,249,173,1975)
           (J,IZV,38,2077,1974)
           (J,BAS,38,(10),56,1974) English transl. of IZV,38,2077
FACILITY   (VDG,3HUNDEB)
DETECTOR   (SIBAR) The scattered protons were detected
           simultaneously by four surface barrier detectors. The
           accuracy of the angular setting of the detectors was
           +- 0.5 degr. The overall energy resolution was better
           than 2 keV.
SAMPLE     The targets were prepared by evaporating natural Ca
           metal onto carbon backing of 20 mu-g/cm2 thickness. The
           Ca layer was exposed to air in order to be oxidized
           before bombardment. The thickness of the targets varied
           from 4 to 10 mu-g/cm2.
METHOD     (BCINT)
HISTORY    (20080604C)
           (20140311U) SD: Issue to ref. BAS,38 added.
           (20220427A) SD: Corrections in all Subents.
ENDBIB              21
NOCOMMON             0          0
ENDSUBENT           24
SUBENT        F0948002   20220427   20220916   20220913       F089
BIB                  3          4
REACTION   (20-CA-40(P,EL)20-CA-40,,DA)
STATUS     (CURVE) Fig. 1(a-e) from Nucl.Phys.,A249(1975)173
HISTORY    (20220427A) SD: The accuracy of data presentation
           has been revised.
ENDBIB               4
COMMON               2          3
EN-ERR-DIG ERR-DIG
MEV        MB/SR
 0.0003     0.7
ENDCOMMON            3
DATA                 3       2339
ANG        EN         DATA
ADEG       MEV        MB/SR
       88.6     2.3532      393.5
       88.6     2.3565      388.3
       88.6     2.3578      401.3
       88.6     2.3604      398.7
       88.6     2.3630      400.0
       88.6     2.3663      400.0
       88.6     2.3695      400.0
       88.6     2.3734      406.5
       88.6     2.3761      393.5
       88.6     2.3813      396.1
       88.6     2.3832      389.6
       88.6     2.3852      377.9
       88.6     2.3852      387.0
       88.6     2.3858      367.5
       88.6     2.3865      281.8
       88.6     2.3865      342.9
       88.6     2.3878      258.4
       88.6     2.3884      268.8
       88.6     2.3904      328.6
       88.6     2.3924      363.6
       88.6     2.3930      383.1
       88.6     2.3956      405.2
       88.6     2.3982      397.4
       88.6     2.4054      402.6
       88.6     2.4061      406.5
       88.6     2.4080      411.7
       88.6     2.4100      422.1
       88.6     2.4126      416.9
       88.6     2.4146      414.3
       88.6     2.4159      419.5
       88.6     2.4178      424.7
       88.6     2.4211      437.6
       88.6     2.4217      422.1
       88.6     2.4230      415.6
       88.6     2.4244      436.4
       88.6     2.4283      444.1
       88.6     2.4296      441.6
       88.6     2.4322      448.0
       88.6     2.4341      448.0
       88.6     2.4355      429.9
       88.6     2.4374      436.4
       88.6     2.4394      435.1
       88.6     2.4413      444.1
       88.6     2.4439      445.4
       88.6     2.4459      435.1
       88.6     2.4472      436.4
       88.6     2.4485      419.5
       88.6     2.4511      420.8
       88.6     2.4511      436.4
       88.6     2.4518      423.4
       88.6     2.4544      424.7
       88.6     2.4570      427.3
       88.6     2.4583      429.9
       88.6     2.4596      426.0
       88.6     2.4648      429.9
       88.6     2.4668      423.4
       88.6     2.4687      410.4
       88.6     2.4714      401.3
       88.6     2.4798      387.0
       88.6     2.4805      402.6
       88.6     2.4811      381.8
       88.6     2.4838      390.9
       88.6     2.4883      374.0
       88.6     2.4909      381.8
       88.6     2.5020      370.1
       88.6     2.5046      364.9
       88.6     2.5059      372.7
       88.6     2.5112      346.7
       88.6     2.5131      358.4
       88.6     2.5177      355.8
       88.6     2.5210      367.5
       88.6     2.5216      346.7
       88.6     2.6868      296.4
       88.6     2.6881      304.2
       88.6     2.6913      291.2
       88.6     2.6933      305.5
       88.6     2.6978      293.8
       88.6     2.6985      299.0
       88.6     2.7037      313.3
       88.6     2.7062      334.1
       88.6     2.7062      340.6
       88.6     2.7069      321.1
       88.6     2.7082      343.2
       88.6     2.7095      348.4
       88.6     2.7127      366.6
       88.6     2.7147      356.2
       88.6     2.7153      365.3
       88.6     2.7160      370.5
       88.6     2.7173      358.8
       88.6     2.7179      352.3
       88.6     2.7212      340.6
       88.6     2.7225      326.3
       88.6     2.7251      334.1
       88.6     2.7270      317.3
       88.6     2.7290      334.1
       88.6     2.7309      323.8
       88.6     2.7329      297.8
       88.6     2.7361      303.0
       88.6     2.7400      309.5
       88.6     2.7413      287.4
       88.6     2.7446      299.1
       88.6     2.7478      288.7
       88.6     2.7511      271.8
       88.6     2.7517      296.5
       88.6     2.7530      306.9
       88.6     2.7556      309.5
       88.6     2.7556      316.0
       88.6     2.7569      303.0
       88.6     2.7576      288.7
       88.6     2.7576      296.5
       88.6     2.7595      278.3
       88.6     2.7595      286.1
       88.6     2.7608      280.9
       88.6     2.7608      274.4
       88.6     2.7621      277.0
       88.6     2.7621      291.3
       88.6     3.4804      200.2
       88.6     3.4863      197.6
       88.6     3.4896      191.1
       88.6     3.4928      185.9
       88.6     3.4948      205.4
       88.6     3.4967      193.8
       88.6     3.4987      187.3
       88.6     3.5027      149.6
       88.6     3.5040      144.4
       88.6     3.5053      171.7
       88.6     3.5059      196.4
       88.6     3.5071      230.2
       88.6     3.5104      230.2
       88.6     3.5117      221.1
       88.6     3.5130      223.7
       88.6     3.5143      214.6
       88.6     3.5163      230.2
       88.6     3.5163      212.0
       88.6     3.5176      214.6
       88.6     3.5202      213.3
       88.6     3.5215      210.8
       88.6     3.5235      212.1
       88.6     3.5267      210.8
       88.6     3.5294      214.7
       88.6     3.5320      222.5
       88.6     3.5332      238.1
       88.6     3.5352      252.4
       88.6     3.5378      260.2
       88.6     3.5391      253.7
       88.6     3.5411      251.1
       88.6     3.5457      227.8
       88.6     3.5483      210.9
       88.6     3.5489      207.0
       88.6     3.5516      207.0
       88.6     3.5555      186.3
       88.6     3.5587      200.6
       88.6     3.5614      198.0
       88.6     3.5640      196.7
       88.6     3.5673      183.7
       88.6     3.5712      185.0
       88.6     3.5757      182.4
       88.6     3.5797      182.5
       88.6     3.5849      191.6
       88.6     3.5894      187.7
       88.6     3.5953      182.5
       88.6     3.5986      183.9
       88.6     3.6005      183.9
       88.6     3.6031      187.8
       88.6     3.6071      185.2
       88.6     3.6116      182.6
       88.6     3.6149      193.0
       88.6     3.6168      190.4
       88.6     3.6181      194.3
       88.6     3.6227      199.6
       88.6     3.6253      199.6
       88.6     3.6292      194.4
       88.6     3.6319      190.5
       88.6     3.6351      195.7
       88.6     3.6377      220.4
       88.6     3.6410      207.4
       88.6     3.6442      223.0
       88.6     3.6481      223.1
       88.6     3.6501      219.2
       88.6     3.6534      232.2
       88.6     3.6560      227.0
       88.6     3.6599      223.1
       88.6     3.6619      207.5
       88.6     3.6651      206.3
       88.6     3.6671      184.2
       88.6     3.6717      190.7
       88.6     3.6717      207.6
       88.6     3.6743      195.9
       88.6     3.6795      181.7
       88.6     3.6854      186.9
       88.6     3.7791      153.9
       88.6     3.7800      139.4
       88.6     3.7808      118.3
       88.6     3.7821       98.6
       88.6     3.7829       74.9
       88.6     3.7834       69.6
       88.6     3.7838       77.5
       88.6     3.7846       95.9
       88.6     3.7849       95.9
       88.6     3.7854      124.9
       88.6     3.7861      164.3
       88.6     3.7865      189.3
       88.6     3.7871      205.1
       88.6     3.7877      203.8
       88.6     3.7882      209.0
       88.6     3.7888      218.3
       88.6     3.7890      211.7
       88.6     3.7900      202.4
       88.6     3.7907      207.7
       88.6     3.8725       90.8
       88.6     3.8732       88.2
       88.6     3.8741       61.8
       88.6     3.8747       51.3
       88.6     3.8754       47.4
       88.6     3.8759       51.3
       88.6     3.8768      100.0
       88.6     3.8770      113.2
       88.6     3.8774      140.8
       88.6     3.8780      196.1
       88.6     3.8785      210.5
       88.6     3.8785      203.9
       88.6     3.8790      213.2
       88.6     3.8790      206.6
       88.6     3.8797      197.4
       88.6     3.8802      207.9
       88.6     3.8808      189.5
       88.6     3.9484      163.2
       88.6     3.9510      159.3
       88.6     3.9529      154.0
       88.6     3.9542      142.2
       88.6     3.9556      136.9
       88.6     3.9575      117.2
       88.6     3.9575      101.4
       88.6     3.9575      127.7
       88.6     3.9582      138.3
       88.6     3.9595      164.6
       88.6     3.9601      242.2
       88.6     3.9601      193.5
       88.6     3.9620      290.9
       88.6     3.9620      298.8
       88.6     3.9627      267.2
       88.6     3.9640      235.6
       88.6     3.9640      244.8
       88.6     3.9646      227.7
       88.6     3.9660      209.3
       88.6     3.9666      200.1
       88.6     3.9679      192.2
       88.6     3.9692      184.3
       88.6     3.9692      177.8
       88.6     3.9705      187.0
       88.6     3.9718      171.2
       88.6     3.9725      189.6
       88.6     3.9771      180.4
       88.6     3.9843      163.3
       88.6     3.9875      159.4
       88.6     3.9927      160.7
       88.6     3.9973      159.4
       88.6     4.0032      156.8
       88.6     4.0078      155.5
       88.6     4.0078      148.9
       88.6     4.0117      155.5
       88.6     4.0169      150.2
       88.6     4.0175      170.0
       88.6     4.0221      154.2
       88.6     4.0234      151.6
       88.6     4.0274      131.8
       88.6     4.0287      143.7
       88.6     4.0300      155.5
       88.6     4.0319      112.1
       88.6     4.0326      101.6
       88.6     4.0346       76.6
       88.6     4.0372       42.4
       88.6     4.0378       55.6
       88.6     4.0404      108.2
       88.6     4.0411      149.0
       88.6     4.0423      170.0
       88.6     4.0436      195.0
       88.6     4.0443      185.8
       88.6     4.0456      176.6
       88.6     4.0462      192.4
       88.6     4.0482      185.8
       88.6     4.0482      202.9
       88.6     4.0495      200.3
       88.6     4.0508      187.2
       88.6     4.0515      193.7
       88.6     4.0521      158.2
       88.6     4.0535      106.9
       88.6     4.0548      137.2
       88.6     4.0561      147.7
       88.6     4.0580      155.6
       88.6     4.0587      167.4
       88.6     4.0600      159.6
       88.6     4.0619      160.9
       88.6     4.0645      158.3
       88.6     4.0665      168.8
       88.6     4.0685      164.8
       88.6     4.0698      167.5
       88.6     4.0769      154.3
       88.6     4.0835      159.6
       88.6     4.0848      163.6
       88.6     4.0867      176.7
       88.6     4.0880      200.4
       88.6     4.0880      188.6
       88.6     4.0906      187.3
       88.6     4.0906      179.4
       88.6     4.0933      162.3
       88.6     4.0946      151.7
       88.6     4.0959      143.8
       88.6     4.0965      129.4
       88.6     4.0972       87.3
       88.6     4.0972      107.0
       88.6     4.0979       83.3
       88.6     4.1004      154.4
       88.6     4.1005      130.7
       88.6     4.1011      171.5
       88.6     4.1011      161.0
       88.6     4.1024      179.4
       88.6     4.1030      167.6
       88.6     4.1050      170.2
       88.6     4.1056      183.3
       88.6     4.1070      176.8
       88.6     4.1070      189.9
       88.6     4.1089      143.9
       88.6     4.1109      163.6
       88.6     4.1129      150.5
       88.6     4.1161      159.7
       88.6     4.1174      174.2
       88.6     4.1220      158.4
       88.6     4.1272      150.5
       88.6     4.1324      150.5
       88.6     4.1377      150.5
       88.6     4.1422      146.6
       88.6     4.1429      159.8
       88.6     4.1494      155.8
       88.6     4.1507      159.8
       88.6     4.1527      165.1
       88.6     4.1546      151.9
       88.6     4.1559      159.8
       88.6     4.1572      169.0
       88.6     4.1579      179.5
       88.6     4.1592      191.4
       88.6     4.1592      211.1
       88.6     4.1605      180.8
       88.6     4.1618      153.2
       88.6     4.1618      148.0
       88.6     4.1618      165.1
       88.6     4.1664      148.0
       88.6     4.1670      167.7
       88.6     4.1690      158.5
       88.6     4.1716      151.9
       88.6     4.1729      155.9
       88.6     4.1762      153.3
       88.6     4.3453      100.0
       88.6     4.3506       89.3
       88.6     4.3559       89.4
       88.6     4.3599       90.7
       88.6     4.3652       88.0
       88.6     4.3699       74.7
       88.6     4.3719       68.0
       88.6     4.3739       56.0
       88.6     4.3745       62.7
       88.6     4.3752       50.7
       88.6     4.3765       30.7
       88.6     4.3765       37.4
       88.6     4.3772       24.0
       88.6     4.3792       32.1
       88.6     4.3798       69.4
       88.6     4.3798       46.7
       88.6     4.3818       73.4
       88.6     4.3838       65.4
       88.6     4.3865       61.4
       88.6     4.3891       50.7
       88.6     4.3911       38.7
       88.6     4.3925       25.4
       88.6     4.3938       17.4
       88.6     4.3951       24.1
       88.6     4.3964       41.4
       88.6     4.3971       61.4
       88.6     4.3991       76.1
       88.6     4.3991      140.1
       88.6     4.3991       62.7
       88.6     4.4004      125.4
       88.6     4.4017      158.7
       88.6     4.4030      181.4
       88.6     4.4044      194.8
       88.6     4.4057      198.8
       88.6     4.4083      184.1
       88.6     4.4097      173.4
       88.6     4.4104      154.8
       88.6     4.4110      161.4
       88.6     4.4137      156.1
       88.6     4.4137      142.8
       88.6     4.4143      150.8
       88.6     4.4170      140.1
       88.6     4.4183      145.4
       88.6     4.4197      137.4
       88.6     4.4210      141.4
       88.6     4.4216      126.8
       88.6     4.4230      108.1
       88.6     4.4236       96.1
       88.6     4.4250       86.8
       88.6     4.4250       78.8
       88.6     4.4263       76.1
       88.6     4.4276       62.8
       88.6     4.4283       56.1
       88.6     4.4303       42.8
       88.6     4.4310       33.5
       88.6     4.4330       25.5
       88.6     4.4350       18.8
       88.6     4.4383       21.5
       88.6     4.4383       28.1
       88.6     4.4396       41.5
       88.6     4.4409       57.5
       88.6     4.4429       88.1
       88.6     4.4449      110.8
       88.6     4.4469      133.5
       88.6     4.4489      145.5
       88.6     4.4502      161.5
       88.6     4.4522      194.8
       88.6     4.4528      181.5
       88.6     4.4548      192.2
       88.6     4.4581      189.5
       88.6     4.4595      182.8
       88.6     4.4608      180.2
       88.6     4.4635      177.5
       88.6     4.4668      186.8
       88.6     4.4701      176.2
       88.6     4.4728      168.2
       88.6     4.4774      168.2
       88.6     4.4807      166.8
       88.6     4.4860      161.5
       88.6     4.4914      166.9
       88.6     4.4960      153.5
       88.6     4.4980      153.5
       88.6     4.5000      154.9
       88.6     4.5053      157.5
       88.6     4.5093      164.2
       88.6     4.5139      180.2
       88.6     4.5146      170.9
       88.6     4.5146      176.2
       88.6     4.5172      182.9
       88.6     4.5186      168.2
       88.6     4.5219      188.2
       88.6     4.5219      177.6
       88.6     4.5232      197.6
       88.6     4.5239      205.6
       88.6     4.5245      185.6
       88.6     4.5252      178.9
       88.6     4.5272      173.6
       88.6     4.5292      166.9
       88.6     4.5365      169.6
       88.6     4.5392      162.9
       88.6     4.5438      156.3
       88.6     4.5451      158.9
       88.6     4.5471      173.6
       88.6     4.5471      161.6
       88.6     4.5491      192.3
       88.6     4.5511      176.3
       88.6     4.5538      177.6
       88.6     4.5558      188.3
       88.6     4.5564      185.6
       88.6     4.5591      185.6
       88.6     4.5591      190.9
       88.6     4.5604      188.3
       88.6     4.5631      173.6
       88.6     4.5651      169.6
       88.6     4.5664      156.3
       88.6     4.5697      145.6
       88.6     4.5697      155.0
       88.6     4.5737      148.3
       88.6     4.5750      137.6
       88.6     4.5790      135.0
       88.6     4.5823      124.3
       88.6     4.5890      107.0
       88.6     4.5916      101.7
       88.6     4.5943       95.0
       88.6     4.5976       84.3
       88.6     4.5983       79.0
       88.6     4.5990       60.3
       88.6     4.6003       37.7
       88.6     4.6016       41.7
       88.6     4.6029       63.0
       88.6     4.6042      101.7
       88.6     4.6056      147.0
       88.6     4.6076      163.0
       88.6     4.6082      155.0
       88.6     4.6109      156.3
       88.6     4.6115      161.7
       88.6     4.6129      153.7
       88.6     4.6149      156.3
       88.6     4.6175      140.3
       88.6     4.6188      144.3
       88.6     4.6222      149.7
       88.6     4.6242      139.0
       88.6     4.6255      141.7
       88.6     4.6281      141.7
       88.6     4.6295      137.7
       88.6     4.6335      133.7
       88.6     4.6374      137.7
       88.6     4.6381      132.4
       88.6     4.6507      133.7
       88.6     4.6534      135.1
       88.6     4.6554      125.7
       88.6     4.6600      131.1
       88.6     4.6627      129.7
       88.6     4.6660      135.1
       88.6     4.6700      133.8
       88.6     4.6720      135.1
       88.6     4.6740      139.1
       88.6     4.6753      143.1
       88.6     4.6766      147.1
       88.6     4.6792      241.8
       88.6     4.6793      189.8
       88.6     4.6799      199.1
       88.6     4.6812      177.8
       88.6     4.6819      135.1
       88.6     4.6819      157.8
       88.6     4.6833      133.8
       88.6     4.6839      127.1
       88.6     4.6866      125.8
       88.6     4.6886      123.1
       88.6     4.6886      127.1
       88.6     4.6906      127.1
       88.6     4.6932      128.4
       88.6     4.6952      124.5
       88.6     4.6985      127.1
       88.6     4.7045      127.1
       88.6     4.7078      131.1
       88.6     4.7131      140.5
       88.6     4.7164      147.1
       88.6     4.7171      151.1
       88.6     4.7191      148.5
       88.6     4.7204      159.2
       88.6     4.7231      161.8
       88.6     4.7251      152.5
       88.6     4.7264      141.8
       88.6     4.7271      152.5
       88.6     4.7271      144.5
       88.6     4.7291      155.2
       88.6     4.7297      201.8
       88.6     4.7297      164.5
       88.6     4.7310      239.2
       88.6     4.7323      260.5
       88.6     4.7337      288.5
       88.6     4.7363      303.2
       88.6     4.7370      331.2
       88.6     4.7376      335.2
       88.6     4.7383      345.8
       88.6     4.7396      309.8
       88.6     4.7403      347.2
       88.6     4.7416      323.2
       88.6     4.7430      315.2
       88.6     4.7436      271.2
       88.6     4.7436      304.5
       88.6     4.7450      231.2
       88.6     4.7470      212.5
       88.6     4.7483      209.8
       88.6     4.7490      189.8
       88.6     4.7510      180.5
       88.6     4.7523      169.9
       88.6     4.7530      159.2
       88.6     4.7550      152.5
       88.6     4.7569      152.5
       88.6     4.7589      149.9
       88.6     4.7623      136.5
       88.6     4.7643      133.9
       88.6     4.7676      133.9
       88.6     4.7696      128.5
       88.6     4.7722      128.6
       88.6     4.7742      124.5
       88.6     4.7762      121.9
       88.6     4.7775      124.5
       88.6     4.7795      123.2
       88.6     4.7829      129.9
       88.6     4.7835      136.6
       88.6     4.7855      143.2
       88.6     4.7868      156.6
       88.6     4.7875      147.2
       88.6     4.7882      140.6
       88.6     4.7888      135.2
       88.6     4.7902      116.6
       88.6     4.7915      120.6
       88.6     4.7935      123.2
       88.6     4.7941      119.2
       88.6     4.7948      108.6
       88.6     4.7961      111.2
       88.6     4.7981      108.6
       88.6     4.7981      100.6
       88.6     4.8015      101.9
       88.6     4.8034      100.6
       88.6     4.8054      105.9
       88.6     4.8081      105.9
       88.6     4.8174      109.9
       88.6     4.8187      105.9
       88.6     4.8234      110.0
       88.6     4.8267      106.0
      124.1     2.3532      151.3
      124.1     2.3597      148.7
      124.1     2.3623      142.7
      124.1     2.3662      141.4
      124.1     2.3694      140.7
      124.1     2.3733      134.7
      124.1     2.3753      137.4
      124.1     2.3779      135.4
      124.1     2.3792      124.0
      124.1     2.3798      131.4
      124.1     2.3811      124.7
      124.1     2.3824      117.4
      124.1     2.3837      114.0
      124.1     2.3844      104.7
      124.1     2.3850       96.0
      124.1     2.3850      102.0
      124.1     2.3870       84.0
      124.1     2.3876       78.7
      124.1     2.3877       65.4
      124.1     2.3883      100.7
      124.1     2.3895      139.4
      124.1     2.3934      181.4
      124.1     2.3934      174.1
      124.1     2.3947      169.4
      124.1     2.3960      162.7
      124.1     2.3967      156.7
      124.1     2.3986      151.4
      124.1     2.4006      146.1
      124.1     2.4019      144.7
      124.1     2.4032      138.1
      124.1     2.4045      132.1
      124.1     2.4071      132.1
      124.1     2.4103      134.1
      124.1     2.4110      138.1
      124.1     2.4116      130.7
      124.1     2.4136      123.4
      124.1     2.4155      125.4
      124.1     2.4175      127.4
      124.1     2.4181      118.1
      124.1     2.4194      115.4
      124.1     2.4214      121.4
      124.1     2.4233      113.4
      124.1     2.4246      116.1
      124.1     2.4272      113.4
      124.1     2.4285      110.1
      124.1     2.4305      109.4
      124.1     2.4318      114.1
      124.1     2.4331      116.1
      124.1     2.4350      110.8
      124.1     2.4370      110.8
      124.1     2.4402      112.8
      124.1     2.4402      109.4
      124.1     2.4441      108.1
      124.1     2.4461      111.4
      124.1     2.4487      107.4
      124.1     2.4506      115.4
      124.1     2.4513      113.4
      124.1     2.4538      115.4
      124.1     2.4564      115.4
      124.1     2.4571      120.8
      124.1     2.4584      125.4
      124.1     2.4610      127.4
      124.1     2.4629      128.1
      124.1     2.4649      129.4
      124.1     2.4694      133.4
      124.1     2.4707      136.1
      124.1     2.4753      136.1
      124.1     2.4792      138.8
      124.1     2.4805      141.4
      124.1     2.4824      140.1
      124.1     2.4863      138.8
      124.1     2.4889      138.8
      124.1     2.4908      139.5
      124.1     2.4928      140.8
      124.1     2.5012      143.5
      124.1     2.5012      141.5
      124.1     2.5058      144.8
      124.1     2.5103      143.5
      124.1     2.5123      144.2
      124.1     2.5168      143.5
      124.1     2.5207      146.2
      124.1     2.6860      122.0
      124.1     2.6879      122.0
      124.1     2.6899      124.7
      124.1     2.6925      122.7
      124.1     2.6937      126.7
      124.1     2.6977      124.7
      124.1     2.6983      120.0
      124.1     2.7009      114.7
      124.1     2.7022      119.4
      124.1     2.7042      112.7
      124.1     2.7055      108.0
      124.1     2.7068      101.4
      124.1     2.7068       96.1
      124.1     2.7081       92.7
      124.1     2.7094      100.7
      124.1     2.7107       88.1
      124.1     2.7107       99.4
      124.1     2.7140       97.4
      124.1     2.7152      102.7
      124.1     2.7178      106.8
      124.1     2.7191      113.4
      124.1     2.7230      112.8
      124.1     2.7236      122.8
      124.1     2.7269      123.4
      124.1     2.7288      118.1
      124.1     2.7301      120.1
      124.1     2.7321      125.5
      124.1     2.7366      124.8
      124.1     2.7392      124.8
      124.1     2.7412      116.8
      124.1     2.7451      110.2
      124.1     2.7477      119.5
      124.1     2.7503      116.8
      124.1     2.7522      113.5
      124.1     2.7522      121.5
      124.1     2.7529      118.8
      124.1     2.7535      115.5
      124.1     2.7548      112.9
      124.1     2.7555      102.2
      124.1     2.7562      100.2
      124.1     2.7568      115.5
      124.1     2.7568      111.5
      124.1     2.7600      120.2
      124.1     2.7626      119.5
      124.1     3.4793       88.1
      124.1     3.4858       86.8
      124.1     3.4891       78.8
      124.1     3.4930       76.8
      124.1     3.4942       87.5
      124.1     3.4988       90.2
      124.1     3.4988       86.8
      124.1     3.5008       84.2
      124.1     3.5027      104.8
      124.1     3.5058      132.2
      124.1     3.5058      140.8
      124.1     3.5072      115.5
      124.1     3.5072      110.2
      124.1     3.5079      105.5
      124.1     3.5098       96.2
      124.1     3.5112       91.5
      124.1     3.5118       88.2
      124.1     3.5118       94.9
      124.1     3.5131       90.9
      124.1     3.5144       88.9
      124.1     3.5144       93.5
      124.1     3.5157       87.5
      124.1     3.5164       85.5
      124.1     3.5183       86.9
      124.1     3.5209       83.6
      124.1     3.5229       81.6
      124.1     3.5249       75.6
      124.1     3.5268       74.2
      124.1     3.5281       68.2
      124.1     3.5301       66.9
      124.1     3.5321       57.6
      124.1     3.5347       46.3
      124.1     3.5367       47.6
      124.1     3.5373       54.9
      124.1     3.5393       53.6
      124.1     3.5405       60.9
      124.1     3.5412       64.3
      124.1     3.5425       68.9
      124.1     3.5444       75.0
      124.1     3.5457       80.3
      124.1     3.5470       83.0
      124.1     3.5496       86.3
      124.1     3.5515       90.3
      124.1     3.5542       81.6
      124.1     3.5567       85.0
      124.1     3.5600       77.7
      124.1     3.5633       85.0
      124.1     3.5659       79.0
      124.1     3.5698       83.0
      124.1     3.5756       79.0
      124.1     3.5796       77.1
      124.1     3.5893       77.1
      124.1     3.5958       81.1
      124.1     3.5978       78.4
      124.1     3.6010       73.8
      124.1     3.6043       83.8
      124.1     3.6069       79.8
      124.1     3.6108       80.5
      124.1     3.6128       73.8
      124.1     3.6154       75.8
      124.1     3.6186       71.8
      124.1     3.6225       77.8
      124.1     3.6251       74.5
      124.1     3.6284       73.2
      124.1     3.6310       69.2
      124.1     3.6343       68.5
      124.1     3.6375       68.6
      124.1     3.6401       66.6
      124.1     3.6434       74.6
      124.1     3.6466       68.6
      124.1     3.6486       62.6
      124.1     3.6551       64.6
      124.1     3.6610       70.0
      124.1     3.6642       78.6
      124.1     3.6675       69.3
      124.1     3.6700       77.3
      124.1     3.6701       68.0
      124.1     3.6740       74.7
      124.1     3.6792       70.7
      124.1     3.6857       78.0
      124.1     3.7132       90.1
      124.1     3.7195       95.4
      124.1     3.7259       92.8
      124.1     3.7355      100.7
      124.1     3.7400      110.5
      124.1     3.7432      130.3
      124.1     3.7482      148.0
      124.1     3.7527      160.5
      124.1     3.7550      155.3
      124.1     3.7582      159.2
      124.1     3.7618      153.9
      124.1     3.7659      148.0
      124.1     3.7686      134.2
      124.1     3.7727      125.0
      124.1     3.7773      117.1
      124.1     3.7809      111.2
      124.1     3.7827      109.2
      124.1     3.7895      107.9
      124.1     3.7936      104.0
      124.1     3.8725       80.4
      124.1     3.8733       85.7
      124.1     3.8741       94.2
      124.1     3.8747      104.8
      124.1     3.8755      119.2
      124.1     3.8761      145.6
      124.1     3.8771      156.8
      124.1     3.8771      161.4
      124.1     3.8776      153.5
      124.1     3.8781      134.4
      124.1     3.8786      112.0
      124.1     3.8786      123.2
      124.1     3.8790      112.0
      124.1     3.8791      107.4
      124.1     3.8798      100.2
      124.1     3.8803       89.0
      124.1     3.8808       77.2
      124.1     3.9479       82.9
      124.1     3.9492       79.0
      124.1     3.9518       81.6
      124.1     3.9545       86.8
      124.1     3.9551       97.4
      124.1     3.9558      111.8
      124.1     3.9558      102.6
      124.1     3.9577      151.3
      124.1     3.9584      167.1
      124.1     3.9590      188.2
      124.1     3.9603      147.4
      124.1     3.9603      193.4
      124.1     3.9616      128.9
      124.1     3.9617       94.7
      124.1     3.9617       75.0
      124.1     3.9617      106.6
      124.1     3.9623       65.8
      124.1     3.9630       54.0
      124.1     3.9636       48.7
      124.1     3.9636       59.2
      124.1     3.9662       54.0
      124.1     3.9669       59.2
      124.1     3.9689       56.6
      124.1     3.9715       60.5
      124.1     3.9728       68.4
      124.1     3.9774       68.4
      124.1     3.9832       68.4
      124.1     3.9865       64.5
      124.1     3.9957       69.7
      124.1     3.9970       65.8
      124.1     4.0022       64.5
      124.1     4.0075       57.9
      124.1     4.0120       55.3
      124.1     4.0127       61.9
      124.1     4.0179       55.3
      124.1     4.0232       54.0
      124.1     4.0284       42.1
      124.1     4.0284       48.7
      124.1     4.0304       40.8
      124.1     4.0317       31.6
      124.1     4.0336       19.7
      124.1     4.0356       44.7
      124.1     4.0382      100.0
      124.1     4.0395      159.2
      124.1     4.0408      161.8
      124.1     4.0428      151.3
      124.1     4.0441      144.8
      124.1     4.0454      138.2
      124.1     4.0467      131.6
      124.1     4.0480      127.6
      124.1     4.0500      127.6
      124.1     4.0507      143.4
      124.1     4.0520      219.8
      124.1     4.0533      246.1
      124.1     4.0533      229.0
      124.1     4.0546      155.3
      124.1     4.0552      118.4
      124.1     4.0565      105.3
      124.1     4.0592       92.1
      124.1     4.0637       84.2
      124.1     4.0670       82.9
      124.1     4.0696       82.9
      124.1     4.0729       85.5
      124.1     4.0768       82.9
      124.1     4.0794       85.5
      124.1     4.0821       81.6
      124.1     4.0840       75.0
      124.1     4.0860       73.7
      124.1     4.0866       69.8
      124.1     4.0873       64.5
      124.1     4.0893       61.9
      124.1     4.0919       71.1
      124.1     4.0945       69.8
      124.1     4.0958       67.1
      124.1     4.0965       69.8
      124.1     4.0978       85.5
      124.1     4.0984       93.4
      124.1     4.0997      119.8
      124.1     4.1004      123.7
      124.1     4.1017      104.0
      124.1     4.1024       94.8
      124.1     4.1037       90.8
      124.1     4.1063       79.0
      124.1     4.1089       81.6
      124.1     4.1115       77.7
      124.1     4.1128       75.0
      124.1     4.1167       69.8
      124.1     4.1174       73.7
      124.1     4.1226       71.1
      124.1     4.1279       79.0
      124.1     4.1331       76.3
      124.1     4.1377       72.4
      124.1     4.1429       69.8
      124.1     4.1482       69.8
      124.1     4.1508       72.4
      124.1     4.1527       72.4
      124.1     4.1541       67.1
      124.1     4.1554       69.8
      124.1     4.1573       60.5
      124.1     4.1580       55.3
      124.1     4.1580       50.0
      124.1     4.1599       48.7
      124.1     4.1599       43.4
      124.1     4.1613       56.6
      124.1     4.1626       68.4
      124.1     4.1626       63.2
      124.1     4.1658       68.4
      124.1     4.1684       68.4
      124.1     4.1704       69.8
      124.1     4.1730       67.1
      124.1     4.1763       71.1
      124.1     4.3444       69.7
      124.1     4.3497       64.4
      124.1     4.3543       65.8
      124.1     4.3589       69.7
      124.1     4.3642       68.4
      124.1     4.3682       68.3
      124.1     4.3702       64.4
      124.1     4.3715       67.0
      124.1     4.3741       68.3
      124.1     4.3748       64.4
      124.1     4.3768      103.8
      124.1     4.3768       80.2
      124.1     4.3781      126.2
      124.1     4.3781       90.7
      124.1     4.3808      151.2
      124.1     4.3815      131.5
      124.1     4.3834      126.2
      124.1     4.3854      123.6
      124.1     4.3874      118.3
      124.1     4.3914      138.0
      124.1     4.3940      156.4
      124.1     4.3954      174.9
      124.1     4.3960      168.3
      124.1     4.3967      182.8
      124.1     4.3974      190.6
      124.1     4.3974      197.2
      124.1     4.3980      201.2
      124.1     4.3994      203.8
      124.1     4.4000      159.1
      124.1     4.4007      188.0
      124.1     4.4020      159.1
      124.1     4.4039       94.6
      124.1     4.4046      113.0
      124.1     4.4052       90.6
      124.1     4.4066       74.8
      124.1     4.4085       64.3
      124.1     4.4112       64.3
      124.1     4.4138       61.6
      124.1     4.4165       56.4
      124.1     4.4178       48.5
      124.1     4.4184       36.6
      124.1     4.4218       40.6
      124.1     4.4224       52.4
      124.1     4.4231       56.4
      124.1     4.4238       66.9
      124.1     4.4244       70.8
      124.1     4.4257       80.0
      124.1     4.4277       84.0
      124.1     4.4297       89.2
      124.1     4.4304       99.8
      124.1     4.4317      110.3
      124.1     4.4331      118.2
      124.1     4.4350      126.1
      124.1     4.4357      136.6
      124.1     4.4377      140.5
      124.1     4.4384      160.3
      124.1     4.4397      151.1
      124.1     4.4410      169.5
      124.1     4.4443      168.2
      124.1     4.4489      128.7
      124.1     4.4509      124.7
      124.1     4.4522      115.5
      124.1     4.4535      106.3
      124.1     4.4549      102.3
      124.1     4.4568       94.4
      124.1     4.4588       94.4
      124.1     4.4595       81.3
      124.1     4.4615       81.3
      124.1     4.4641       74.7
      124.1     4.4661       73.4
      124.1     4.4674       76.0
      124.1     4.4714       66.8
      124.1     4.4747       68.1
      124.1     4.4760       66.8
      124.1     4.4787       66.7
      124.1     4.4840       64.1
      124.1     4.4879       64.1
      124.1     4.4945       57.5
      124.1     4.4965       61.4
      124.1     4.4998       56.2
      124.1     4.5038       54.8
      124.1     4.5091       46.9
      124.1     4.5117       46.9
      124.1     4.5144       46.9
      124.1     4.5170       46.9
      124.1     4.5183       61.4
      124.1     4.5190       73.2
      124.1     4.5197       57.4
      124.1     4.5203       78.5
      124.1     4.5217       71.9
      124.1     4.5230       60.1
      124.1     4.5230       66.6
      124.1     4.5263       65.3
      124.1     4.5283       64.0
      124.1     4.5303       65.3
      124.1     4.5342       64.0
      124.1     4.5375       65.3
      124.1     4.5402       65.3
      124.1     4.5422       66.6
      124.1     4.5448      103.4
      124.1     4.5448       83.7
      124.1     4.5462      107.4
      124.1     4.5468       91.6
      124.1     4.5468      102.1
      124.1     4.5481       66.6
      124.1     4.5481       61.3
      124.1     4.5481       71.8
      124.1     4.5481       54.7
      124.1     4.5501       48.1
      124.1     4.5527       50.8
      124.1     4.5534       54.7
      124.1     4.5554       49.4
      124.1     4.5560       54.7
      124.1     4.5580       50.7
      124.1     4.5580       46.8
      124.1     4.5587       54.7
      124.1     4.5600       52.1
      124.1     4.5620       49.4
      124.1     4.5633       46.8
      124.1     4.5653       42.8
      124.1     4.5680       49.4
      124.1     4.5693       46.8
      124.1     4.5719       50.7
      124.1     4.5739       48.1
      124.1     4.5772       50.7
      124.1     4.5819       54.6
      124.1     4.5878       52.0
      124.1     4.5911       57.2
      124.1     4.5924       61.2
      124.1     4.5964       61.2
      124.1     4.5984       62.5
      124.1     4.5991       88.8
      124.1     4.5991       75.6
      124.1     4.6004      104.6
      124.1     4.6011      116.4
      124.1     4.6024      129.6
      124.1     4.6044      115.1
      124.1     4.6044      130.9
      124.1     4.6057       95.4
      124.1     4.6063       79.6
      124.1     4.6083       70.4
      124.1     4.6083       76.9
      124.1     4.6103       65.1
      124.1     4.6103       69.0
      124.1     4.6123       59.8
      124.1     4.6143       65.1
      124.1     4.6163       57.2
      124.1     4.6176       59.8
      124.1     4.6209       57.2
      124.1     4.6229       58.5
      124.1     4.6248       53.2
      124.1     4.6268       61.1
      124.1     4.6301       51.9
      124.1     4.6328       58.5
      124.1     4.6354       57.1
      124.1     4.6500       55.8
      124.1     4.6526       61.0
      124.1     4.6553       55.8
      124.1     4.6593       62.3
      124.1     4.6626       70.2
      124.1     4.6645       59.7
      124.1     4.6672       58.4
      124.1     4.6725       58.3
      124.1     4.6725       63.6
      124.1     4.6751       68.9
      124.1     4.6765       63.6
      124.1     4.6771       72.8
      124.1     4.6784       53.1
      124.1     4.6791       42.5
      124.1     4.6798       49.1
      124.1     4.6817       49.1
      124.1     4.6817       42.5
      124.1     4.6857       50.4
      124.1     4.6870       54.4
      124.1     4.6877       50.4
      124.1     4.6890       55.7
      124.1     4.6910       57.0
      124.1     4.6923       58.3
      124.1     4.6943       57.0
      124.1     4.6976       59.6
      124.1     4.7036       59.6
      124.1     4.7062       62.2
      124.1     4.7128       70.1
      124.1     4.7155       76.7
      124.1     4.7168       83.2
      124.1     4.7181       80.6
      124.1     4.7188       87.2
      124.1     4.7208       83.2
      124.1     4.7215       92.4
      124.1     4.7234       85.8
      124.1     4.7248       97.7
      124.1     4.7254       92.4
      124.1     4.7268      100.3
      124.1     4.7281      102.9
      124.1     4.7301       91.1
      124.1     4.7307       60.8
      124.1     4.7327       39.8
      124.1     4.7327       46.3
      124.1     4.7353       39.8
      124.1     4.7373       47.7
      124.1     4.7393       50.3
      124.1     4.7413       52.9
      124.1     4.7439       51.6
      124.1     4.7459       48.9
      124.1     4.7485       46.3
      124.1     4.7499       43.7
      124.1     4.7525       43.7
      124.1     4.7552       43.7
      124.1     4.7611       43.6
      124.1     4.7644       43.6
      124.1     4.7664       42.3
      124.1     4.7691       42.3
      124.1     4.7710       44.9
      124.1     4.7730       43.6
      124.1     4.7750       42.3
      124.1     4.7790       39.6
      124.1     4.7810       43.6
      124.1     4.7856       42.3
      124.1     4.7863       46.2
      124.1     4.7876       50.2
      124.1     4.7889       54.1
      124.1     4.7902       60.7
      124.1     4.7922       56.7
      124.1     4.7942       54.1
      124.1     4.7968       44.9
      124.1     4.7995       46.2
      124.1     4.8021       47.5
      124.1     4.8041       50.1
      124.1     4.8068       50.1
      124.1     4.8087       50.1
      124.1     4.8180       51.4
      124.1     4.8193       47.4
      124.1     4.8220       46.1
      124.1     4.8259       51.4
      124.1     4.8312       48.7
      139.8     2.3539      100.7
      139.8     2.3578       98.7
      139.8     2.3617       98.7
      139.8     2.3669       95.9
      139.8     2.3708       89.1
      139.8     2.3734       88.4
      139.8     2.3766       83.6
      139.8     2.3779       80.2
      139.8     2.3786       84.3
      139.8     2.3792       78.1
      139.8     2.3792       86.4
      139.8     2.3805       79.5
      139.8     2.3825       74.0
      139.8     2.3832       66.5
      139.8     2.3845       69.2
      139.8     2.3858       59.7
      139.8     2.3864       48.0
      139.8     2.3871       41.2
      139.8     2.3878       39.1
      139.8     2.3890       78.8
      139.8     2.3909      113.8
      139.8     2.3928      124.7
      139.8     2.3935      113.8
      139.8     2.3942      102.8
      139.8     2.3948       99.4
      139.8     2.3961       89.8
      139.8     2.3968       99.4
      139.8     2.3987       89.1
      139.8     2.3994       85.0
      139.8     2.4020       85.0
      139.8     2.4027       78.2
      139.8     2.4046       75.4
      139.8     2.4059       72.7
      139.8     2.4092       76.8
      139.8     2.4098       72.7
      139.8     2.4118       71.3
      139.8     2.4137       67.9
      139.8     2.4144       60.4
      139.8     2.4176       60.4
      139.8     2.4189       58.3
      139.8     2.4196       54.9
      139.8     2.4215       54.9
      139.8     2.4228       54.9
      139.8     2.4241       50.8
      139.8     2.4274       55.6
      139.8     2.4293       54.9
      139.8     2.4306       50.1
      139.8     2.4313       54.3
      139.8     2.4339       53.6
      139.8     2.4371       55.6
      139.8     2.4404       63.9
      139.8     2.4404       60.4
      139.8     2.4430       66.6
      139.8     2.4456       64.6
      139.8     2.4469       66.6
      139.8     2.4488       75.5
      139.8     2.4508       75.5
      139.8     2.4514       77.6
      139.8     2.4534       81.0
      139.8     2.4566       84.4
      139.8     2.4585       90.6
      139.8     2.4592       98.1
      139.8     2.4618      100.9
      139.8     2.4644      101.6
      139.8     2.4663      108.4
      139.8     2.4709      111.2
      139.8     2.4722      116.7
      139.8     2.4761      119.4
      139.8     2.4813      122.8
      139.8     2.4819      121.5
      139.8     2.4845      122.8
      139.8     2.4884      124.2
      139.8     2.4904      125.6
      139.8     2.4916      131.1
      139.8     2.4923      127.0
      139.8     2.5021      130.4
      139.8     2.5072      133.8
      139.8     2.5125      128.4
      139.8     2.5125      131.8
      139.8     2.5190      133.8
      139.8     2.5209      130.4
      139.8     2.5222      125.6
      139.8     2.6874      104.0
      139.8     2.6887      102.6
      139.8     2.6920       97.2
      139.8     2.6939       97.9
      139.8     2.6978       89.6
      139.8     2.6997       85.5
      139.8     2.7010       82.1
      139.8     2.7036       80.1
      139.8     2.7056       66.4
      139.8     2.7069       52.0
      139.8     2.7076       55.4
      139.8     2.7089       48.6
      139.8     2.7095       45.2
      139.8     2.7114       48.6
      139.8     2.7121       46.5
      139.8     2.7127       52.0
      139.8     2.7146       65.0
      139.8     2.7153       70.5
      139.8     2.7165       78.1
      139.8     2.7178       84.9
      139.8     2.7184       98.6
      139.8     2.7185       88.3
      139.8     2.7210       99.3
      139.8     2.7229      108.9
      139.8     2.7249      107.5
      139.8     2.7274      111.6
      139.8     2.7294      111.7
      139.8     2.7313      113.7
      139.8     2.7326      111.7
      139.8     2.7371      111.7
      139.8     2.7403      111.7
      139.8     2.7423      105.5
      139.8     2.7461      108.3
      139.8     2.7481      102.8
      139.8     2.7513       99.4
      139.8     2.7526      103.5
      139.8     2.7532      106.9
      139.8     2.7533       99.4
      139.8     2.7546       92.5
      139.8     2.7565       89.8
      139.8     2.7565       93.9
      139.8     2.7565       83.6
      139.8     2.7578      111.7
      139.8     2.7578      106.9
      139.8     2.7590      137.1
      139.8     2.7596      130.9
      139.8     2.7597      127.5
      139.8     2.7616      116.5
      139.8     2.7616      125.4
      139.8     2.7635      124.8
      139.8     3.4793       79.0
      139.8     3.4852       78.3
      139.8     3.4884       74.3
      139.8     3.4929       78.3
      139.8     3.4942       82.4
      139.8     3.4968       87.1
      139.8     3.4988       87.1
      139.8     3.5013       97.2
      139.8     3.5038      126.7
      139.8     3.5051      153.5
      139.8     3.5058      109.9
      139.8     3.5058      126.7
      139.8     3.5059       84.4
      139.8     3.5066       70.3
      139.8     3.5066       77.7
      139.8     3.5073       65.0
      139.8     3.5092       63.6
      139.8     3.5099       60.3
      139.8     3.5118       63.0
      139.8     3.5131       60.3
      139.8     3.5151       56.9
      139.8     3.5157       59.6
      139.8     3.5183       52.9
      139.8     3.5190       54.9
      139.8     3.5196       55.6
      139.8     3.5222       50.9
      139.8     3.5236       44.9
      139.8     3.5255       45.6
      139.8     3.5281       40.2
      139.8     3.5301       36.8
      139.8     3.5307       30.1
      139.8     3.5340       32.2
      139.8     3.5352       46.9
      139.8     3.5372       57.0
      139.8     3.5384       62.4
      139.8     3.5397       75.1
      139.8     3.5410       83.9
      139.8     3.5416       87.9
      139.8     3.5429       91.9
      139.8     3.5448       92.6
      139.8     3.5474       93.9
      139.8     3.5494       92.6
      139.8     3.5513       92.6
      139.8     3.5546       84.6
      139.8     3.5579       84.6
      139.8     3.5598       82.6
      139.8     3.5637       79.9
      139.8     3.5670       77.9
      139.8     3.5696       78.6
      139.8     3.5754       77.9
      139.8     3.5852       72.6
      139.8     3.5891       69.2
      139.8     3.5949       67.2
      139.8     3.5969       64.6
      139.8     3.6001       65.2
      139.8     3.6034       61.2
      139.8     3.6060       63.3
      139.8     3.6099       58.6
      139.8     3.6131       57.2
      139.8     3.6164       51.2
      139.8     3.6190       48.5
      139.8     3.6222       45.2
      139.8     3.6255       44.5
      139.8     3.6281       40.5
      139.8     3.6314       36.5
      139.8     3.6340       33.1
      139.8     3.6359       31.1
      139.8     3.6392       29.8
      139.8     3.6424       32.5
      139.8     3.6463       38.5
      139.8     3.6482       38.6
      139.8     3.6521       46.6
      139.8     3.6547       54.7
      139.8     3.6573       58.0
      139.8     3.6605       66.1
      139.8     3.6631       68.8
      139.8     3.6670       70.8
      139.8     3.6696       69.5
      139.8     3.6709       67.5
      139.8     3.6722       72.2
      139.8     3.6786       75.6
      139.8     3.6851       75.6
      139.8     3.7791      113.0
      139.8     3.7800      115.6
      139.8     3.7809      120.8
      139.8     3.7822      135.2
      139.8     3.7829      148.1
      139.8     3.7835      155.9
      139.8     3.7840      165.0
      139.8     3.7846      154.7
      139.8     3.7850      145.6
      139.8     3.7853      137.8
      139.8     3.7860      111.8
      139.8     3.7864      104.0
      139.8     3.7869       85.9
      139.8     3.7875       75.5
      139.8     3.7881       72.9
      139.8     3.7886       75.5
      139.8     3.7889       70.3
      139.8     3.7899       70.3
      139.8     3.7905       74.2
      139.8     3.8725      117.4
      139.8     3.8732      125.2
      139.8     3.8741      142.1
      139.8     3.8747      156.4
      139.8     3.8754      159.1
      139.8     3.8760      191.5
      139.8     3.8769      177.3
      139.8     3.8771      168.2
      139.8     3.8775      135.7
      139.8     3.8780      102.0
      139.8     3.8786       87.7
      139.8     3.8791       76.0
      139.8     3.8797       63.1
      139.8     3.8802       54.0
      139.8     3.8808       47.5
      139.8     3.9478       78.4
      139.8     3.9524       80.9
      139.8     3.9550      101.5
      139.8     3.9550       92.5
      139.8     3.9556      120.7
      139.8     3.9563      109.2
      139.8     3.9569      147.6
      139.8     3.9569      141.2
      139.8     3.9575      175.8
      139.8     3.9587      209.2
      139.8     3.9587      216.9
      139.8     3.9594      196.4
      139.8     3.9613      232.3
      139.8     3.9627      204.1
      139.8     3.9627      147.7
      139.8     3.9634      169.5
      139.8     3.9641      106.7
      139.8     3.9641      124.6
      139.8     3.9648       87.4
      139.8     3.9654       79.7
      139.8     3.9661       70.8
      139.8     3.9674       65.6
      139.8     3.9694       63.1
      139.8     3.9713       60.5
      139.8     3.9726       65.7
      139.8     3.9766       63.1
      139.8     3.9831       63.2
      139.8     3.9870       61.9
      139.8     3.9922       60.6
      139.8     3.9974       59.4
      139.8     4.0040       58.1
      139.8     4.0079       60.7
      139.8     4.0125       56.9
      139.8     4.0164       54.4
      139.8     4.0223       50.5
      139.8     4.0223       57.0
      139.8     4.0262       42.9
      139.8     4.0288       50.6
      139.8     4.0307       48.0
      139.8     4.0327       41.6
      139.8     4.0360       59.6
      139.8     4.0372      114.7
      139.8     4.0391      117.3
      139.8     4.0397      155.8
      139.8     4.0417      149.4
      139.8     4.0430      146.8
      139.8     4.0437      139.1
      139.8     4.0443      128.9
      139.8     4.0457      126.3
      139.8     4.0470      125.0
      139.8     4.0483      112.2
      139.8     4.0502      112.2
      139.8     4.0509      125.1
      139.8     4.0521      176.3
      139.8     4.0534      171.2
      139.8     4.0534      186.6
      139.8     4.0535      126.4
      139.8     4.0541      118.7
      139.8     4.0555       87.9
      139.8     4.0561       96.9
      139.8     4.0581       86.6
      139.8     4.0620       76.4
      139.8     4.0640       76.4
      139.8     4.0660       76.4
      139.8     4.0699       73.9
      139.8     4.0712       71.3
      139.8     4.0731       73.9
      139.8     4.0757       80.3
      139.8     4.0797       76.5
      139.8     4.0823       72.7
      139.8     4.0842       70.1
      139.8     4.0849       62.4
      139.8     4.0869       54.7
      139.8     4.0875       45.8
      139.8     4.0901       53.5
      139.8     4.0908       68.9
      139.8     4.0940       75.3
      139.8     4.0960       81.7
      139.8     4.0966       93.3
      139.8     4.0985      120.2
      139.8     4.0985      107.4
      139.8     4.0992      130.4
      139.8     4.1005       85.6
      139.8     4.1012       76.6
      139.8     4.1025       68.9
      139.8     4.1032       63.8
      139.8     4.1051       60.0
      139.8     4.1077       66.4
      139.8     4.1117       62.6
      139.8     4.1136       66.4
      139.8     4.1162       63.9
      139.8     4.1228       66.5
      139.8     4.1273       66.5
      139.8     4.1325       69.1
      139.8     4.1326       62.7
      139.8     4.1417       64.0
      139.8     4.1476       62.8
      139.8     4.1489       60.2
      139.8     4.1515       61.5
      139.8     4.1541       56.4
      139.8     4.1548       51.3
      139.8     4.1574       34.6
      139.8     4.1593       47.4
      139.8     4.1600       32.1
      139.8     4.1606       64.1
      139.8     4.1613       75.7
      139.8     4.1632       87.2
      139.8     4.1645       80.8
      139.8     4.1671       83.4
      139.8     4.1678       78.3
      139.8     4.1697       77.0
      139.8     4.1717       71.9
      139.8     4.1737       73.2
      139.8     4.1769       70.6
      139.8     4.3456       85.5
      139.8     4.3515       94.7
      139.8     4.3554       96.1
      139.8     4.3606      102.6
      139.8     4.3652      109.2
      139.8     4.3698      119.8
      139.8     4.3718      123.7
      139.8     4.3731      118.4
      139.8     4.3737      127.6
      139.8     4.3770      150.0
      139.8     4.3777      182.9
      139.8     4.3796      201.3
      139.8     4.3809      181.6
      139.8     4.3809      193.4
      139.8     4.3816      144.8
      139.8     4.3836      136.8
      139.8     4.3842      143.4
      139.8     4.3862      147.4
      139.8     4.3881      157.9
      139.8     4.3895      165.8
      139.8     4.3921      185.5
      139.8     4.3940      177.7
      139.8     4.3953      210.5
      139.8     4.3960      247.4
      139.8     4.3993      255.3
      139.8     4.3993      259.2
      139.8     4.4006      202.7
      139.8     4.4012      135.5
      139.8     4.4045       68.4
      139.8     4.4045       48.7
      139.8     4.4065       39.5
      139.8     4.4078       35.5
      139.8     4.4091       31.6
      139.8     4.4098       36.9
      139.8     4.4117       39.5
      139.8     4.4117       32.9
      139.8     4.4137       40.8
      139.8     4.4144       31.6
      139.8     4.4157       42.1
      139.8     4.4183       32.9
      139.8     4.4209       51.3
      139.8     4.4209       40.8
      139.8     4.4222       73.7
      139.8     4.4235       84.2
      139.8     4.4242       94.8
      139.8     4.4248      105.3
      139.8     4.4268      118.5
      139.8     4.4288      139.5
      139.8     4.4288      131.6
      139.8     4.4307      150.0
      139.8     4.4314      160.6
      139.8     4.4320      168.4
      139.8     4.4333      189.5
      139.8     4.4340      171.1
      139.8     4.4366      190.8
      139.8     4.4386      207.9
      139.8     4.4412      211.9
      139.8     4.4438      180.3
      139.8     4.4451      159.2
      139.8     4.4504       73.7
      139.8     4.4523       71.1
      139.8     4.4536       50.0
      139.8     4.4550       44.8
      139.8     4.4582       39.5
      139.8     4.4602       39.5
      139.8     4.4615       31.6
      139.8     4.4635       34.2
      139.8     4.4667       30.3
      139.8     4.4707       27.7
      139.8     4.4759       29.0
      139.8     4.4785       27.7
      139.8     4.4838       34.3
      139.8     4.4884       35.6
      139.8     4.4942       29.0
      139.8     4.4969       29.0
      139.8     4.4995       25.0
      139.8     4.5047       26.4
      139.8     4.5067       23.7
      139.8     4.5100       17.2
      139.8     4.5113       18.5
      139.8     4.5132       19.8
      139.8     4.5165       29.0
      139.8     4.5172       50.1
      139.8     4.5178       71.1
      139.8     4.5191       60.6
      139.8     4.5191       69.8
      139.8     4.5204       48.7
      139.8     4.5211       42.2
      139.8     4.5224       46.1
      139.8     4.5237       39.5
      139.8     4.5250       42.2
      139.8     4.5270       44.8
      139.8     4.5283       40.8
      139.8     4.5303       42.2
      139.8     4.5335       39.5
      139.8     4.5375       42.2
      139.8     4.5427       40.8
      139.8     4.5447       60.6
      139.8     4.5453       89.5
      139.8     4.5460      113.2
      139.8     4.5473       61.9
      139.8     4.5479       73.7
      139.8     4.5479       85.6
      139.8     4.5486       54.0
      139.8     4.5538       38.2
      139.8     4.5565       47.4
      139.8     4.5584       55.3
      139.8     4.5597       65.9
      139.8     4.5610       80.3
      139.8     4.5630       85.6
      139.8     4.5656       94.8
      139.8     4.5682       90.9
      139.8     4.5696       94.8
      139.8     4.5735       94.8
      139.8     4.5774       96.1
      139.8     4.5820       92.2
      139.8     4.5872       89.5
      139.8     4.5905       94.8
      139.8     4.5931      104.0
      139.8     4.5958      111.9
      139.8     4.5977      126.4
      139.8     4.5977      111.9
      139.8     4.6016      167.2
      139.8     4.6030      142.2
      139.8     4.6095       55.3
      139.8     4.6141       54.0
      139.8     4.6167       60.6
      139.8     4.6187       55.3
      139.8     4.6213       56.7
      139.8     4.6239       55.3
      139.8     4.6272       56.7
      139.8     4.6292       58.0
      139.8     4.6324       56.7
      139.8     4.6383       63.2
      139.8     4.6416       52.7
      139.8     4.6423       59.3
      139.8     4.6449       55.4
      139.8     4.6475       55.4
      139.8     4.6514       51.4
      139.8     4.6534       59.3
      139.8     4.6567       54.0
      139.8     4.6593       51.4
      139.8     4.6626       56.7
      139.8     4.6698       55.4
      139.8     4.6717       54.0
      139.8     4.6724       65.9
      139.8     4.6750       79.0
      139.8     4.6763       98.8
      139.8     4.6783      160.6
      139.8     4.6796      181.7
      139.8     4.6809      126.4
      139.8     4.6809      160.6
      139.8     4.6822       69.8
      139.8     4.6835       61.9
      139.8     4.6861       68.5
      139.8     4.6874       59.3
      139.8     4.6881       55.4
      139.8     4.6907       55.4
      139.8     4.6960       51.4
      139.8     4.6979       54.1
      139.8     4.6986       48.8
      139.8     4.7005       48.8
      139.8     4.7051       47.5
      139.8     4.7071       44.8
      139.8     4.7136       47.5
      139.8     4.7169       51.4
      139.8     4.7202       59.3
      139.8     4.7215       69.8
      139.8     4.7241       67.2
      139.8     4.7261       77.7
      139.8     4.7267       81.7
      139.8     4.7280      102.8
      139.8     4.7287      115.9
      139.8     4.7300      127.8
      139.8     4.7313      137.0
      139.8     4.7320      142.2
      139.8     4.7326      155.4
      139.8     4.7339      150.1
      139.8     4.7352      155.4
      139.8     4.7365      162.0
      139.8     4.7365      176.4
      139.8     4.7385      185.6
      139.8     4.7392      177.8
      139.8     4.7418      165.9
      139.8     4.7418      175.1
      139.8     4.7424      156.7
      139.8     4.7457      126.4
      139.8     4.7470      113.3
      139.8     4.7483      102.8
      139.8     4.7523       90.9
      139.8     4.7542       81.7
      139.8     4.7569       77.8
      139.8     4.7634       73.8
      139.8     4.7693       68.5
      139.8     4.7726       60.7
      139.8     4.7752       55.4
      139.8     4.7785       52.8
      139.8     4.7804       51.4
      139.8     4.7817       48.8
      139.8     4.7837       46.2
      139.8     4.7857       37.0
      139.8     4.7876       59.3
      139.8     4.7883       71.2
      139.8     4.7896       88.3
      139.8     4.7916      100.1
      139.8     4.7922      104.1
      139.8     4.7942       94.9
      139.8     4.7968       81.7
      139.8     4.7975       76.5
      139.8     4.7994       79.1
      139.8     4.8053       77.8
      139.8     4.8066       88.3
      139.8     4.8086       71.2
      139.8     4.8171       75.1
      139.8     4.8197       67.2
       160.     2.3524       73.0
       160.     2.3563       71.1
       160.     2.3602       69.1
       160.     2.3641       63.8
       160.     2.3686       61.9
       160.     2.3719       59.2
       160.     2.3738       61.2
       160.     2.3751       55.9
       160.     2.3764       58.6
       160.     2.3764       54.0
       160.     2.3770       49.4
       160.     2.3783       48.1
       160.     2.3796       53.3
       160.     2.3816       42.8
       160.     2.3842       32.3
       160.     2.3842       34.9
       160.     2.3855       29.0
       160.     2.3874       51.4
       160.     2.3874       66.5
       160.     2.3893       93.5
       160.     2.3913       82.9
       160.     2.3913       78.3
       160.     2.3913       89.5
       160.     2.3932       67.1
       160.     2.3945       63.9
       160.     2.3958       59.9
       160.     2.3984       55.3
       160.     2.3997       51.4
       160.     2.4017       46.1
       160.     2.4055       42.8
       160.     2.4075       41.5
       160.     2.4094       41.5
       160.     2.4127       33.6
       160.     2.4140       29.7
       160.     2.4166       29.7
       160.     2.4185       29.0
       160.     2.4198       25.7
       160.     2.4224       25.7
       160.     2.4250       25.1
       160.     2.4276       26.4
       160.     2.4295       26.4
       160.     2.4308       29.7
       160.     2.4334       34.3
       160.     2.4347       32.3
       160.     2.4379       38.9
       160.     2.4392       41.5
       160.     2.4412       46.1
       160.     2.4425       47.5
       160.     2.4450       55.3
       160.     2.4476       60.0
       160.     2.4496       65.9
       160.     2.4522       68.5
       160.     2.4541       75.7
       160.     2.4554       79.0
       160.     2.4573       88.9
       160.     2.4606       91.5
       160.     2.4625       93.5
       160.     2.4651      100.8
       160.     2.4690      104.7
       160.     2.4709      113.3
       160.     2.4741      113.3
       160.     2.4780      115.2
       160.     2.4806      115.2
       160.     2.4826      118.5
       160.     2.4858      115.3
       160.     2.4897      118.5
       160.     2.4916      116.6
       160.     2.4994      115.9
       160.     2.5007      121.2
       160.     2.5020      115.3
       160.     2.5052      120.5
       160.     2.5104      123.2
       160.     2.5149      125.1
       160.     2.5162      117.3
       160.     2.5182      122.5
       160.     2.5195      114.0
       160.     2.6857       83.7
       160.     2.6876       83.7
       160.     2.6902       80.4
       160.     2.6921       76.4
       160.     2.6941       73.2
       160.     2.6960       69.9
       160.     2.6979       66.6
       160.     2.7005       60.7
       160.     2.7018       50.8
       160.     2.7037       40.3
       160.     2.7063       27.1
       160.     2.7076       19.9
       160.     2.7096       20.5
       160.     2.7109       28.4
       160.     2.7128       40.3
       160.     2.7141       49.5
       160.     2.7147       55.4
       160.     2.7160       70.5
       160.     2.7160       73.8
       160.     2.7160       67.2
       160.     2.7173       80.4
       160.     2.7186       86.3
       160.     2.7218       92.9
       160.     2.7231      100.8
       160.     2.7250      102.1
       160.     2.7269      104.8
       160.     2.7327      104.1
       160.     2.7366      104.1
       160.     2.7386      101.5
       160.     2.7405       96.9
       160.     2.7444      100.8
       160.     2.7482      100.2
       160.     2.7540       82.4
       160.     2.7553       73.2
       160.     2.7560      104.1
       160.     2.7566      120.5
       160.     2.7566       81.7
       160.     2.7572      139.6
       160.     2.7573      131.1
       160.     2.7579      156.1
       160.     2.7585      143.6
       160.     2.7605      134.4
       160.     2.7605      126.5
       160.     2.7624      128.4
       160.     3.4775       65.7
       160.     3.4841       60.0
       160.     3.4880       60.0
       160.     3.4912       61.6
       160.     3.4932       68.2
       160.     3.4951       69.1
       160.     3.4971       77.3
       160.     3.4997       83.1
       160.     3.5016      121.1
       160.     3.5036      107.9
       160.     3.5042       74.9
       160.     3.5049       47.6
       160.     3.5062       36.9
       160.     3.5082       36.0
       160.     3.5095       32.7
       160.     3.5114       37.7
       160.     3.5147       32.7
       160.     3.5206       28.6
       160.     3.5225       22.8
       160.     3.5245       23.7
       160.     3.5291       16.2
       160.     3.5310       17.9
       160.     3.5330       30.3
       160.     3.5349       53.4
       160.     3.5368       72.4
       160.     3.5375       83.2
       160.     3.5388       91.4
       160.     3.5401      100.5
       160.     3.5427      103.8
       160.     3.5453      100.5
       160.     3.5466       98.1
       160.     3.5479       90.6
       160.     3.5505       86.5
       160.     3.5531       75.8
       160.     3.5564       78.2
       160.     3.5590       74.1
       160.     3.5629       69.2
       160.     3.5642       64.2
       160.     3.5675       68.3
       160.     3.5747       61.7
       160.     3.5786       60.1
       160.     3.5838       60.1
       160.     3.5877       54.3
       160.     3.5936       47.7
       160.     3.5962       51.8
       160.     3.5994       49.4
       160.     3.6007       46.1
       160.     3.6034       44.4
       160.     3.6060       41.9
       160.     3.6092       40.3
       160.     3.6144       37.0
       160.     3.6184       30.4
       160.     3.6210       27.1
       160.     3.6249       22.1
       160.     3.6268       20.5
       160.     3.6301       15.5
       160.     3.6327       15.5
       160.     3.6347        9.7
       160.     3.6366       10.6
       160.     3.6386       12.2
       160.     3.6451       20.5
       160.     3.6516       38.7
       160.     3.6568       53.6
       160.     3.6601       58.5
       160.     3.6633       67.6
       160.     3.6666       70.9
       160.     3.6698       67.6
       160.     3.6724       71.8
       160.     3.6783       73.4
       160.     3.6835       78.4
       160.     3.7791      140.0
       160.     3.7801      141.4
       160.     3.7808      156.0
       160.     3.7822      176.0
       160.     3.7829      189.4
       160.     3.7834      185.4
       160.     3.7838      172.1
       160.     3.7845      150.7
       160.     3.7849      138.7
       160.     3.7853      106.7
       160.     3.7858       74.7
       160.     3.7863       57.4
       160.     3.7869       42.7
       160.     3.7875       38.7
       160.     3.7880       41.4
       160.     3.7886       46.7
       160.     3.7888       41.4
       160.     3.7898       53.4
       160.     3.7904       54.8
       160.     3.8724      146.8
       160.     3.8732      174.8
       160.     3.8741      190.8
       160.     3.8747      206.8
       160.     3.8754      240.1
       160.     3.8760      252.1
       160.     3.8764      241.5
       160.     3.8768      210.8
       160.     3.8771      210.8
       160.     3.8775      162.8
       160.     3.8781      102.8
       160.     3.8784       88.2
       160.     3.8787       64.2
       160.     3.8790       62.8
       160.     3.8797       45.5
       160.     3.8802       34.8
       160.     3.8808       44.2
       160.     3.9489       69.0
       160.     3.9522       74.2
       160.     3.9542       95.0
       160.     3.9580      224.8
       160.     3.9581      159.9
       160.     3.9606      279.4
       160.     3.9606      227.4
       160.     3.9613      300.2
       160.     3.9613      256.0
       160.     3.9613      370.3
       160.     3.9619      398.9
       160.     3.9632      279.4
       160.     3.9633      232.7
       160.     3.9639      157.3
       160.     3.9639      201.5
       160.     3.9646      123.6
       160.     3.9653       79.4
       160.     3.9653       95.0
       160.     3.9666       69.0
       160.     3.9692       53.5
       160.     3.9711       50.9
       160.     3.9731       53.5
       160.     3.9757       48.3
       160.     3.9822       48.3
       160.     3.9862       48.3
       160.     3.9914       51.0
       160.     3.9972       48.4
       160.     4.0025       48.4
       160.     4.0070       45.8
       160.     4.0116       45.9
       160.     4.0168       43.3
       160.     4.0221       43.3
       160.     4.0286       38.1
       160.     4.0332       33.0
       160.     4.0351       53.8
       160.     4.0377       95.3
       160.     4.0403      123.9
       160.     4.0436      108.3
       160.     4.0468       87.6
       160.     4.0501       69.4
       160.     4.0527      152.5
       160.     4.0540      131.8
       160.     4.0560      105.8
       160.     4.0606       79.8
       160.     4.0638       72.1
       160.     4.0690       66.9
       160.     4.0762       66.9
       160.     4.0795       69.5
       160.     4.0834       56.6
       160.     4.0867       35.8
       160.     4.0880       28.0
       160.     4.0906       54.0
       160.     4.0925       74.8
       160.     4.0951       85.2
       160.     4.0984       95.6
       160.     4.0984      111.2
       160.     4.0997      139.8
       160.     4.1004       67.0
       160.     4.1004      108.6
       160.     4.1017       41.1
       160.     4.1056       48.9
       160.     4.1082       54.1
       160.     4.1108       54.1
       160.     4.1128       54.1
       160.     4.1173       51.5
       160.     4.1219       54.1
       160.     4.1271       54.2
       160.     4.1330       56.8
       160.     4.1376       56.8
       160.     4.1421       54.2
       160.     4.1467       51.7
       160.     4.1493       51.7
       160.     4.1513       46.5
       160.     4.1546       38.7
       160.     4.1578       23.1
       160.     4.1591       54.3
       160.     4.1591       33.5
       160.     4.1604       49.1
       160.     4.1624       90.7
       160.     4.1650       90.7
       160.     4.1669       82.9
       160.     4.1702       77.7
       160.     4.1728       72.5
       160.     4.1774       72.6
       160.     4.1793       72.6
       160.     4.1813       75.2
       160.     4.3437      122.4
       160.     4.3483      125.0
       160.     4.3536      126.3
       160.     4.3588      134.2
       160.     4.3640      157.9
       160.     4.3679      171.1
       160.     4.3686      182.9
       160.     4.3706      190.8
       160.     4.3712      185.6
       160.     4.3725      205.3
       160.     4.3738      240.8
       160.     4.3738      229.0
       160.     4.3758      294.8
       160.     4.3784      251.3
       160.     4.3784      331.6
       160.     4.3790      293.4
       160.     4.3797      118.5
       160.     4.3797      161.9
       160.     4.3804      144.8
       160.     4.3810      113.2
       160.     4.3830      117.1
       160.     4.3830      126.3
       160.     4.3850      148.7
       160.     4.3863      168.4
       160.     4.3889      194.8
       160.     4.3908      232.9
       160.     4.3934      282.9
       160.     4.3954      317.1
       160.     4.3954      307.9
       160.     4.3967      327.7
       160.     4.3967      332.9
       160.     4.3967      321.1
       160.     4.3980      355.3
       160.     4.3993      296.1
       160.     4.3993      211.9
       160.     4.4000      255.3
       160.     4.4000      306.6
       160.     4.4000      329.0
       160.     4.4007      169.8
       160.     4.4013       38.2
       160.     4.4013       93.5
       160.     4.4026       68.5
       160.     4.4040       36.9
       160.     4.4059       32.9
       160.     4.4059       18.5
       160.     4.4072       13.2
       160.     4.4098       19.8
       160.     4.4098       14.5
       160.     4.4118       14.5
       160.     4.4118       19.8
       160.     4.4144       22.4
       160.     4.4177       22.4
       160.     4.4183       50.0
       160.     4.4197       77.7
       160.     4.4216      108.0
       160.     4.4229      123.7
       160.     4.4249      138.2
       160.     4.4268      165.8
       160.     4.4275      177.7
       160.     4.4281      188.2
       160.     4.4301      202.7
       160.     4.4308      215.8
       160.     4.4321      222.4
       160.     4.4327      246.1
       160.     4.4334      238.2
       160.     4.4353      256.6
       160.     4.4379      267.2
       160.     4.4399      276.4
       160.     4.4406      268.5
       160.     4.4419      258.0
       160.     4.4432      227.7
       160.     4.4445      190.8
       160.     4.4452      154.0
       160.     4.4478      146.1
       160.     4.4484      101.4
       160.     4.4498       68.5
       160.     4.4511       63.2
       160.     4.4530       40.9
       160.     4.4543       10.6
       160.     4.4556       27.7
       160.     4.4576       25.1
       160.     4.4635       13.2
       160.     4.4661       13.2
       160.     4.4707       10.6
       160.     4.4753        8.0
       160.     4.4792       11.9
       160.     4.4838        9.3
       160.     4.4884       10.6
       160.     4.4949        8.0
       160.     4.4975       11.9
       160.     4.5041        9.3
       160.     4.5067        6.7
       160.     4.5100        8.0
       160.     4.5119       14.6
       160.     4.5132       22.5
       160.     4.5139       26.4
       160.     4.5145       30.4
       160.     4.5152       40.9
       160.     4.5204       80.4
       160.     4.5204       90.9
       160.     4.5211       62.0
       160.     4.5217       50.1
       160.     4.5217       71.2
       160.     4.5243       44.9
       160.     4.5257       38.3
       160.     4.5276       34.3
       160.     4.5276       38.3
       160.     4.5296       31.7
       160.     4.5315       33.0
       160.     4.5361       23.8
       160.     4.5381       25.1
       160.     4.5420       19.9
       160.     4.5433       15.9
       160.     4.5453       43.5
       160.     4.5459      113.3
       160.     4.5472      115.9
       160.     4.5486       94.9
       160.     4.5505       46.2
       160.     4.5512       18.6
       160.     4.5544       27.8
       160.     4.5558       39.6
       160.     4.5577       65.9
       160.     4.5590       90.9
       160.     4.5603      121.2
       160.     4.5629      138.3
       160.     4.5649      163.3
       160.     4.5675      163.3
       160.     4.5675      167.3
       160.     4.5701      169.9
       160.     4.5727      169.9
       160.     4.5747      162.0
       160.     4.5793      151.5
       160.     4.5832      143.6
       160.     4.5885      130.4
       160.     4.5917      135.7
       160.     4.5943      146.2
       160.     4.5983      150.2
       160.     4.5989      158.1
       160.     4.6002      171.2
       160.     4.6009      184.4
       160.     4.6009      180.4
       160.     4.6028      183.1
       160.     4.6042      159.4
       160.     4.6048      116.0
       160.     4.6055       54.1
       160.     4.6055       60.7
       160.     4.6061       76.5
       160.     4.6081       56.7
       160.     4.6101       63.3
       160.     4.6107       59.4
       160.     4.6120       64.6
       160.     4.6127       60.7
       160.     4.6140       64.6
       160.     4.6159       67.3
       160.     4.6179       75.2
       160.     4.6186       71.2
       160.     4.6212       69.9
       160.     4.6238       73.9
       160.     4.6258       71.2
       160.     4.6284       72.5
       160.     4.6323       66.0
       160.     4.6330       77.8
       160.     4.6375       73.9
       160.     4.6402       71.2
       160.     4.6441       76.5
       160.     4.6460       72.6
       160.     4.6493       75.2
       160.     4.6513       71.2
       160.     4.6532       75.2
       160.     4.6572       72.6
       160.     4.6598       75.2
       160.     4.6644       77.8
       160.     4.6670       80.5
       160.     4.6696       81.8
       160.     4.6716       93.6
       160.     4.6742      102.8
       160.     4.6755      112.0
       160.     4.6768      148.9
       160.     4.6768      200.2
       160.     4.6774      356.8
       160.     4.6794      351.5
       160.     4.6800      451.5
       160.     4.6820      241.0
       160.     4.6820      351.5
       160.     4.6833      148.9
       160.     4.6866       60.7
       160.     4.6879       80.5
       160.     4.6879       51.5
       160.     4.6912       55.5
       160.     4.6925       50.2
       160.     4.6958       51.5
       160.     4.6984       47.6
       160.     4.7043       46.3
       160.     4.7082       45.0
       160.     4.7141       35.8
       160.     4.7174       38.4
       160.     4.7193       31.8
       160.     4.7213       43.7
       160.     4.7233       95.0
       160.     4.7239       58.1
       160.     4.7246       48.9
       160.     4.7252       42.3
       160.     4.7272       48.9
       160.     4.7285       70.0
       160.     4.7298      112.1
       160.     4.7298      166.0
       160.     4.7304      254.2
       160.     4.7317      331.8
       160.     4.7324      388.4
       160.     4.7343      441.0
       160.     4.7356      459.5
       160.     4.7356      508.1
       160.     4.7356      443.7
       160.     4.7395      520.0
       160.     4.7395      514.7
       160.     4.7402      496.3
       160.     4.7415      451.6
       160.     4.7422      416.0
       160.     4.7435      329.2
       160.     4.7435      371.3
       160.     4.7455      270.0
       160.     4.7461      205.5
       160.     4.7468      188.4
       160.     4.7474      171.3
       160.     4.7494      143.7
       160.     4.7494      167.4
       160.     4.7507      130.5
       160.     4.7514      122.6
       160.     4.7527      113.4
       160.     4.7540      106.8
       160.     4.7560       98.9
       160.     4.7566       92.4
       160.     4.7592       85.8
       160.     4.7599       81.8
       160.     4.7638       81.8
       160.     4.7664       76.6
       160.     4.7677       72.6
       160.     4.7691       75.3
       160.     4.7723       67.4
       160.     4.7736       63.4
       160.     4.7749       59.5
       160.     4.7776       59.5
       160.     4.7789       54.2
       160.     4.7815       47.6
       160.     4.7835       42.4
       160.     4.7861       34.5
       160.     4.7880       99.0
       160.     4.7887       75.3
       160.     4.7900      114.8
       160.     4.7920      125.3
       160.     4.7933      122.7
       160.     4.7933      129.2
       160.     4.7952      116.1
       160.     4.7965      106.9
       160.     4.7972       95.0
       160.     4.7985       89.8
       160.     4.7998       93.7
       160.     4.8011       85.8
       160.     4.8031       88.4
       160.     4.8057       97.7
       160.     4.8064       92.4
       160.     4.8083       85.8
       160.     4.8181       85.8
       160.     4.8201       80.6
       160.     4.8234       80.6
       160.     4.8266       74.0
       160.     4.8319       71.4
ENDDATA           2341
ENDSUBENT         2354
SUBENT        F0948003   20220427   20220916   20220913       F089
BIB                  4          5
REACTION   (20-CA-40(P,EL),,WID)
ERR-ANALYS (EN-RES-ERR) Error in resonance energy
STATUS     (TABLE) Tbl.1 from Nucl.Phys.,A249(1975)173
HISTORY    (20220427A) SD: REACTIONs (2),(3) deleted. Information
           moved to SPIN J and PARITY (data from literature).
ENDBIB               5
COMMON               1          3
EN-RES-ERR
KEV
 5.
ENDCOMMON            3
DATA                 5         30
EN-RES     SPIN J     PARITY     DATA       DATA-ERR
MEV        NO-DIM     NO-DIM     KEV        KEV
      2.388        0.5         1.         1.        0.3
      2.455        0.5        -1.        80.        20.
      2.712        0.5        -1.        12.         2.
      2.756        1.5        -1.        0.4        0.1
      3.503        1.5         1.         1.        0.2
      3.537        1.5        -1.        12.         3.
      3.649        0.5        -1.        36.        10.
      3.785        1.5         1.         3.         1.
      3.877        2.5         1.         2.        0.5
      3.959        2.5         1.         1.        0.2
      3.961        2.5        -1.         2.        0.4
      4.037        0.5         1.         6.         2.
      4.053        4.5         1.        0.4        0.1
      4.089        0.5        -1.         3.         1.
        4.1        1.5         1.        0.7        0.2
       4.16        1.5        -1.         3.         1.
      4.378        1.5         1.         3.         1.
      4.397        2.5         1.         7.         2.
      4.419        1.5        -1.         4.         1.
      4.443        2.5         1.        18.         5.
      4.516        0.5        -1.        12.         4.
      4.519        0.5         1.         1.        0.2
      4.547        2.5        -1.        0.5        0.2
      4.561        1.5        -1.        20.         5.
      4.604        1.5         1.         6.         2.
      4.679        2.5        -1.         3.         1.
      4.721        0.5        -1.         1.        0.3
      4.735        0.5        -1.        12.         4.
      4.739        2.5        -1.        12.         4.
      4.788        1.5        -1.         7.         3.
ENDDATA             32
ENDSUBENT           46
ENDENTRY             3
