ENTRY            F0940   20130408   20130502   20130411       F048
SUBENT        F0940001   20130408   20130502   20130411       F048
BIB                  9         23
TITLE      Study of reactions induced by accelerated He-3 ions of
           34.8 MeV energy on Al-27, Co-59, Sn-112 nuclei with
           protons, deuterons, tritons, and alpha particles in the
           final state.
AUTHOR     (N.T.Burtebaev,A.D.Duysebaev,G.N.Ivanov,
           V.I.Kanashevich,A.I.Kabin,V.A.Lichman,Yu.I.Nechaev,
           V.G.Sukharevsky,V.A.Khaimin)
INSTITUTE  (4KASKAZ,4RUSMOS)
REFERENCE  (J,YF,36,19,1982)
           (J,SNP,36,11,1982)  English translation
FACILITY   (ISOCY,4KASKAZ)
DETECTOR   (TELES,SIBAR) Reaction product detection was
           performed with dE-E telescopes of silicon detectors.
           dE-E detectors with the thicknesses of 100 mu-m - 6 mm
           for p, d, t and 50 mu-m - 3 mm for alpha particle were
           used.
METHOD     (EDE)
ERR-ANALYS (DATA-ERR,15.,40.) Absolute cross-section error
           (E-ERR-DIG)  Secondary energy digitizing error
           (ERR-DIG)    Data digitizing error
HISTORY    (20121210C)
           (20130408A) REACTIONs codes in Sub. 002-013 were
           changed.
ENDBIB              23
COMMON               2          3
EN         ERR-DIG
MEV        PER-CENT
  34.8      0.2
ENDCOMMON            3
ENDSUBENT           30
SUBENT        F0940002   20130408   20130502   20130411       F048
BIB                  3          3
REACTION   (13-AL-27(HE3,X)1-H-1,,DA/DE)
SAMPLE     Al-27 target with the thickness of 2.8 mg/cm2 was used.
STATUS     (CURVE) Fig.1(a)
ENDBIB               3
COMMON               1          3
E-ERR-DIG
MEV
 0.124
ENDCOMMON            3
DATA                 3        271
ANG-CM     E          DATA-CM
ADEG       MEV        MB/SR/MEV
        30.     3.6426     8.1755
        30.      3.982     7.5359
        30.      4.432     7.5386
        30.     4.7684     7.8552
        30.     5.4438     7.7005
        30.     5.8928     8.0246
        30.     6.4567     7.5509
        30.     6.7961     6.9602
        30.     7.3605     6.4168
        30.     7.8105     6.4192
        30.     8.1494     6.0391
        30.     8.6008     5.6821
        30.     9.2743     6.0446
        30.     9.7252     5.8046
        30.     10.288     5.8072
        30.     10.739     5.5767
        30.     11.077     5.3549
        30.     11.416     5.0379
        30.      11.98     4.7404
        30.     12.431     4.5523
        30.     13.108     4.1973
        30.     13.557     4.2855
        30.     14.121     4.0325
        30.     14.571     4.0339
        30.     15.249     3.5704
        30.     15.813     3.2917
        30.     16.264      3.161
        30.     16.716      2.914
        30.     17.169      2.632
        30.     17.621     2.3772
        30.     17.848     2.1467
        30.     18.302     1.8613
        30.     18.642      1.681
        30.     19.094     1.5496
        30.     19.545     1.4881
        30.     19.996     1.4001
        30.     20.448     1.2907
        30.      21.01     1.3179
        30.     21.462     1.2149
        30.     21.912     1.2154
        30.     22.251     1.1203
        30.     22.591     1.0327
        30.     22.931     0.9326
        30.     23.495     0.8424
        30.      24.06     0.7767
        30.     24.624      0.716
        30.       25.3     0.7019
        30.     25.752      0.634
        30.      25.98     0.5725
        30.     26.207      0.517
        30.     26.545     0.5067
        30.     26.882     0.5173
        30.     27.334     0.4769
        30.     27.674      0.422
        30.     28.352     0.3735
        30.     28.801     0.3892
        30.     29.253     0.3515
        30.     29.481     0.3174
        60.     5.3251     6.8663
        60.     5.8884     6.5689
        60.     6.3379     6.7198
        60.     6.7891     6.2861
        60.     7.0163     5.6222
        60.     7.2435     5.0284
        60.     7.4712     4.3978
        60.     7.8117     3.7617
        60.     8.2634     3.4411
        60.     8.9406     3.0787
        60.     9.5048     2.8166
        60.     10.182       2.52
        60.     10.747     2.2544
        60.     11.424      2.017
        60.     12.101     1.7647
        60.     12.891     1.5441
        60.     13.682      1.292
        60.      14.36     1.1304
        60.     14.924     1.0113
        60.     15.263     0.9459
        60.     15.714     0.9253
        60.     16.276     0.9053
        60.     16.729     0.7919
        60.     17.182     0.6927
        60.     17.859     0.6061
        60.     18.536     0.5423
        60.     19.216     0.4338
        60.     19.557     0.3549
        60.     19.897     0.3104
        60.     20.574      0.284
        60.     21.139     0.2541
        60.     21.589      0.243
        60.     22.151     0.2542
        60.     22.716     0.2224
        60.     23.169     0.1946
        60.     23.621     0.1741
        60.     24.185     0.1592
        60.      24.75     0.1393
        60.     25.426     0.1303
        60.     25.991     0.1192
        60.     26.556      0.102
        60.     27.009   8.92E-02
        60.     27.686   7.98E-02
        60.     28.363   6.98E-02
        60.     28.929   5.84E-02
        60.     29.495   5.00E-02
        60.     30.057   5.00E-02
        60.     30.397   4.57E-02
        90.     6.1004     13.552
        90.     6.6636     13.057
        90.     7.2272     12.346
        90.     7.6791     11.243
        90.     8.0186     10.238
        90.     8.2455     9.3216
        90.     8.5849     8.4881
        90.     8.8123      7.585
        90.     9.1513     7.0377
        90.     9.4908     6.4084
        90.     9.8298      5.946
        90.     10.281     5.6219
        90.     10.845     5.2169
        90.     11.521     4.8415
        90.     12.086     4.4092
        90.     12.651     3.9408
        90.     13.329     3.3926
        90.     13.781      3.032
        90.     14.121     2.7096
        90.     14.573     2.4216
        90.     15.139     2.0846
        90.     15.591      1.863
        90.     16.044     1.6341
        90.     16.721     1.4606
        90.     17.396     1.4612
        90.     17.736     1.3058
        90.     17.963     1.1668
        90.     18.528     1.0626
        90.     18.979      0.986
        90.     19.544     0.8813
        90.     20.109     0.7877
        90.     20.448     0.7308
        90.     20.788     0.6531
        90.     21.129     0.5517
        90.     21.469     0.4839
        90.     21.921     0.4406
        90.     22.596     0.4246
        90.     23.048     0.3866
        90.     23.388     0.3521
        90.     23.728     0.3088
        90.     24.179     0.2975
        90.     24.628     0.3032
        90.     25.079     0.2867
        90.     25.306      0.261
        90.     25.533     0.2377
        90.     26.096     0.2333
        90.     26.436     0.2125
        90.     26.777     0.1761
        90.     27.454     0.1635
        90.     27.793     0.1488
        90.     28.357     0.1407
        90.     28.921     0.1282
        90.      29.26     0.1189
        90.     29.822      0.119
        90.     30.161     0.1125
       120.     6.7051      15.49
       120.     7.0449     13.605
       120.     7.3846      11.95
       120.     7.9478     11.447
       120.     8.3985     10.965
       120.       8.85     10.058
       120.      9.189     9.2253
       120.     9.5288     8.1028
       120.     9.7564     6.9638
       120.     10.097     5.8571
       120.     10.662     4.9271
       120.     11.452     4.4236
       120.     12.129     3.8862
       120.     12.694     3.3407
       120.     13.259     2.9347
       120.     13.937     2.4159
       120.     14.616     1.9463
       120.     15.294     1.6023
       120.     15.973     1.3191
       120.     16.538     1.1096
       120.     17.217     0.8939
       120.     17.783     0.7201
       120.     18.461      0.619
       120.     19.362     0.5804
       120.      20.04     0.4883
       120.     20.606      0.402
       120.     21.058     0.3455
       120.     21.623     0.3035
       120.     22.188     0.2666
       120.     22.529     0.2195
       120.      22.87      0.173
       120.     23.098     0.1519
       120.     23.437     0.1363
       120.     24.001     0.1278
       120.     24.453     0.1123
       120.     25.016     0.1052
       120.     25.579     0.1053
       120.     26.143   9.66E-02
       120.     26.482   8.67E-02
       120.     26.709   7.61E-02
       120.     26.936   6.83E-02
       120.     27.276   6.13E-02
       120.     27.726   6.13E-02
       120.     28.065   5.39E-02
       120.     28.292   4.84E-02
       120.     28.744   4.34E-02
       120.     28.971   3.81E-02
       120.     29.423   3.50E-02
       120.     29.983   3.90E-02
       120.     30.435   3.58E-02
       120.     30.663   3.07E-02
       120.      30.89   2.70E-02
       120.     31.118   2.27E-02
       120.     31.346   1.95E-02
       120.     31.686   1.64E-02
       120.     32.138   1.47E-02
       120.     32.702   1.35E-02
       120.     33.154   1.19E-02
       120.     33.608   9.77E-03
       120.     33.948   8.04E-03
       120.     34.289   6.62E-03
       120.      34.63   5.69E-03
       120.     35.081   5.22E-03
       150.     7.2337     19.837
       150.     7.9104     17.824
       150.     8.4759     14.696
       150.     8.9289     12.116
       150.     9.7176     11.124
       150.      10.17     9.5735
       150.      10.51     8.2388
       150.      10.85     7.0901
       150.     11.415     5.9727
       150.     12.205     5.1413
       150.     12.994     4.4256
       150.     13.672     3.7284
       150.     14.688     3.0095
       150.     15.253     2.5352
       150.     16.044     2.0461
       150.     16.609      1.687
       150.     17.287      1.391
       150.     17.966     1.1226
       150.     18.753     1.0993
       150.     19.319     0.8871
       150.     19.996     0.7636
       150.     20.336     0.6571
       150.       20.9     0.5904
       150.     21.467     0.4564
       150.     22.255     0.4469
       150.     22.708     0.3684
       150.     23.161      0.291
       150.     23.614     0.2399
       150.     24.293     0.1936
       150.      24.97     0.1667
       150.     25.422     0.1465
       150.     26.212     0.1235
       150.     26.661     0.1289
       150.     27.113     0.1134
       150.      27.79     0.1041
       150.     28.468   8.58E-02
       150.     29.145   7.39E-02
       150.      29.71   6.22E-02
       150.     30.277   4.61E-02
       150.     30.731   3.64E-02
       150.     31.633   3.13E-02
       150.     32.201   2.22E-02
       150.     32.764   2.13E-02
       150.     33.441   1.83E-02
       150.     34.008   1.45E-02
       150.     34.574   1.12E-02
       150.     35.142   7.94E-03
ENDDATA            273
ENDSUBENT          285
SUBENT        F0940003   20130408   20130502   20130411       F048
BIB                  3          3
REACTION   (27-CO-59(HE3,X)1-H-1,,DA/DE)
SAMPLE     Co-59 target with the thickness of 5.2 mg/cm2 was used.
STATUS     (CURVE) Fig.1(b)
ENDBIB               3
COMMON               1          3
E-ERR-DIG
MEV
 0.11
ENDCOMMON            3
DATA                 3        211
ANG-CM     E          DATA-CM
ADEG       MEV        MB/SR/MEV
        30.     4.7879     8.3987
        30.     5.2313     8.9109
        30.     5.7862     9.2708
        30.     6.5646     8.9172
        30.     7.1201     8.9198
        30.     7.7881     8.2484
        30.     8.2345     7.3327
        30.     9.1244     6.9162
        30.     10.236     6.6535
        30.     11.237     6.2759
        30.     12.238     5.8046
        30.      13.24     5.2642
        30.     14.242     4.6811
        30.     14.912     3.9237
        30.     15.357     3.6279
        30.     16.135     3.6294
        30.     16.916     3.1027
        30.     17.805     2.9845
        30.      18.14     2.6531
        30.     18.476     2.3584
        30.     19.143     2.2241
        30.     20.145     2.0171
        30.     20.814     1.7585
        30.     21.483     1.5634
        30.     21.929     1.4175
        30.      22.82     1.2118
        30.     23.376     1.1655
        30.     24.157     1.0161
        30.     24.603     0.8857
        30.     25.494     0.8191
        30.     26.051     0.7141
        30.     26.719     0.6868
        30.     27.276     0.6106
        30.     27.612     0.5219
        30.     28.503     0.4732
        30.     29.061     0.4045
        30.     29.286     0.3457
        60.     4.9389     9.6831
        60.     5.4941     9.8534
        60.     6.1607     9.8565
        60.     6.8287     9.2054
        60.     7.3867     8.1654
        60.     7.8335     7.2425
        60.     8.5036     6.1021
        60.      9.174     5.0538
        60.     10.177     4.3324
        60.      11.18     3.6509
        60.     11.739     3.1291
        60.     12.519     2.7759
        60.     13.076     2.5924
        60.     13.744     2.5057
        60.     14.524     2.2228
        60.     15.304     1.9383
        60.     15.973     1.7492
        60.     16.864     1.5518
        60.     17.754     1.4495
        60.     18.313     1.2212
        60.     18.872     1.0288
        60.     19.986     0.8973
        60.     21.101     0.7307
        60.     21.993     0.6372
        60.     23.551     0.5753
        60.     24.441     0.5373
        60.     25.222     0.4606
        60.     26.112     0.4229
        60.     26.893     0.3625
        60.     27.563     0.3107
        60.     28.235     0.2321
        60.     28.903     0.2206
        60.     29.239     0.1923
        60.     29.464     0.1705
        60.     30.021     0.1539
        60.     30.357     0.1365
        60.     31.139     0.1092
        60.     31.587   9.20E-02
        90.     5.4474     8.8404
        90.     6.0053      7.634
        90.     6.8965     6.5935
        90.     7.5651      5.815
        90.     8.2348     4.8152
        90.     8.7933      3.987
        90.     9.3518     3.3013
        90.     9.7986     2.8506
        90.     10.245     2.4615
        90.     11.027     1.9545
        90.     11.585     1.6527
        90.     12.366     1.3402
        90.     13.147     1.1099
        90.     13.927     0.9386
        90.     14.708     0.7938
        90.     15.377     0.6855
        90.     16.268     0.5798
        90.     16.715     0.4902
        90.     17.385     0.4145
        90.     17.942      0.358
        90.       18.5     0.3224
        90.     19.058     0.2669
        90.     19.394     0.2305
        90.     19.729     0.2032
        90.     20.174     0.1991
        90.      20.62     0.1755
        90.     21.402     0.1394
        90.     21.959     0.1229
        90.     22.406     0.1084
        90.     22.958     0.1366
        90.     23.405     0.1155
        90.     23.742   9.17E-02
        90.     24.409   8.80E-02
        90.     24.857   6.98E-02
        90.     25.525   6.56E-02
        90.     25.861   5.32E-02
        90.     26.198   4.40E-02
        90.     26.755   3.88E-02
        90.      27.31   4.14E-02
        90.     27.756   3.65E-02
        90.      27.98   3.22E-02
        90.     28.424   3.28E-02
        90.     28.759   2.96E-02
        90.     29.315   2.96E-02
        90.     29.651   2.50E-02
        90.     30.099   1.94E-02
        90.     30.875   2.16E-02
        90.     31.323   1.75E-02
        90.     31.549   1.42E-02
        90.     31.886   1.10E-02
        90.     32.112   8.95E-03
        90.     32.559   7.41E-03
        90.     33.114   7.73E-03
        90.     33.562   6.27E-03
       120.     5.9521     8.0426
       120.     6.7313     6.9879
       120.     7.7328     5.9776
       120.     8.5121     5.1131
       120.     9.1801     4.4425
       120.     9.8485      3.741
       120.     10.628     3.0059
       120.     11.297     2.5313
       120.     12.076     2.0985
       120.     12.967     1.7398
       120.     13.635     1.4882
       120.     14.415     1.1958
       120.     15.195      1.007
       120.     16.196     0.8349
       120.     17.532     0.6605
       120.     18.534     0.5391
       120.     19.536     0.4265
       120.     20.205     0.3536
       120.     20.874     0.2797
       120.     21.652     0.2669
       120.     22.209     0.2248
       120.     22.989     0.1923
       120.     23.656     0.1751
       120.     24.325     0.1451
       120.     25.548     0.1343
       120.     26.327     0.1185
       120.     27.106     0.1029
       120.     28.219   8.40E-02
       120.     29.109   7.53E-02
       120.     29.666   6.15E-02
       120.     30.112   5.26E-02
       120.      30.89   5.26E-02
       120.     31.225   4.43E-02
       120.      31.56   3.61E-02
       120.     31.673   3.00E-02
       120.     32.119   2.64E-02
       120.     32.563   2.77E-02
       120.     33.342   2.45E-02
       120.      34.01   2.06E-02
       120.     34.346   1.65E-02
       150.     6.1495       11.1
       150.     6.8185      9.242
       150.     7.8203     8.0163
       150.     8.6004     6.6748
       150.     9.1585      5.445
       150.     9.8285     4.1785
       150.     10.499     3.0164
       150.      11.28     2.3149
       150.     12.284     1.7767
       150.     13.064     1.4203
       150.     14.068     1.0681
       150.     14.849     0.8538
       150.     15.741     0.6553
       150.     16.633     0.5238
       150.     17.302     0.4274
       150.     18.194     0.3347
       150.     18.975     0.2569
       150.     19.644     0.2096
       150.     20.314     0.1576
       150.     20.986     0.1092
       150.     22.098   9.67E-02
       150.     22.547   6.98E-02
       150.     23.325   6.84E-02
       150.     23.996   4.94E-02
       150.     24.666   3.87E-02
       150.     25.554   3.87E-02
       150.     26.893   2.63E-02
       150.     27.785   2.06E-02
       150.     28.454   1.71E-02
       150.     29.123   1.43E-02
       150.     29.789   1.43E-02
       150.     30.014   1.14E-02
       150.     30.463   8.23E-03
       150.     31.019   8.07E-03
       150.     31.578   6.19E-03
       150.     32.022   6.19E-03
       150.     32.584   3.88E-03
       150.     33.143   2.86E-03
       150.     33.694   3.96E-03
       150.     34.253   3.10E-03
       150.     34.478   2.53E-03
       150.     34.703   2.02E-03
ENDDATA            213
ENDSUBENT          225
SUBENT        F0940004   20130408   20130502   20130411       F048
BIB                  3          4
REACTION   (50-SN-112(HE3,X)1-H-1,,DA/DE)
SAMPLE     Sn-112 target with the thickness of 1.16 mg/cm2(isotope
           content 75%) was used.
STATUS     (CURVE) Fig.1(c)
ENDBIB               4
COMMON               1          3
E-ERR-DIG
MEV
 0.053
ENDCOMMON            3
DATA                 3        208
ANG-CM     E          DATA-CM
ADEG       MEV        MB/SR/MEV
        30.     5.2047     8.0205
        30.     6.1043     9.1881
        30.     6.7791     10.003
        30.     7.5665     10.003
        30.     8.1291     9.0342
        30.     8.6916     8.2988
        30.      9.254     8.4412
        30.     9.8166     7.8869
        30.     10.379     7.8871
        30.     11.391      7.624
        30.     11.954     8.0227
        30.     12.516     7.7549
        30.     12.966     7.8879
        30.     13.641     7.6247
        30.     14.203     7.7555
        30.     14.654     7.1242
        30.     15.329     7.0044
        30.     16.003     7.0046
        30.     16.453     6.7708
        30.     17.016     6.0119
        30.     17.466     5.3381
        30.     18.029     5.2483
        30.     18.704     4.9877
        30.     19.266     5.0733
        30.     19.604     4.5818
        30.     19.716     3.9324
        30.     19.942     3.4916
        30.     20.617     3.2074
        30.     21.067     2.7064
        30.     21.967     2.5721
        30.     22.755     2.2075
        30.     23.317     2.2454
        30.     23.767     1.9937
        30.     24.555     1.9272
        30.     25.005     1.6824
        30.     25.342     1.4439
        30.     26.018     1.2184
        30.      26.58     1.2821
        30.      27.03     1.1979
        30.     27.705     1.1193
        30.     28.268     0.9938
        30.     28.831     0.7835
        30.     29.056     0.7076
        30.     29.506     0.6391
        30.     30.068     0.6391
        60.     5.1845     8.2328
        60.      5.634     9.7909
        60.     6.0836      11.15
        60.     6.5333     11.899
        60.      6.871     10.912
        60.     6.9838     9.7922
        60.     7.5462     9.7927
        60.     7.9964     8.9803
        60.     8.3341     7.8861
        60.     9.0093     7.0771
        60.     9.4597     5.9514
        60.     10.135     5.2264
        60.     10.585     4.7928
        60.     10.923      4.301
        60.      11.71     4.4918
        60.     12.498     4.1193
        60.     13.398     3.6176
        60.     14.186     3.1769
        60.     15.086       2.79
        60.     15.761     2.5586
        60.     16.549     2.1056
        60.     17.337     1.8896
        60.     18.012     1.6594
        60.     18.687     1.6239
        60.     18.912     1.3077
        60.     19.363     1.0761
        60.     20.038     0.9248
        60.     20.488     0.9248
        60.     21.163     0.7611
        60.     21.839      0.654
        60.     22.852     0.5382
        60.     23.527     0.4526
        60.     24.315      0.389
        60.     24.765     0.3491
        60.      25.44     0.3343
        60.     26.115     0.2811
        60.     26.903     0.2416
        60.     27.354     0.1946
        60.     28.141     0.1672
        60.     28.592       0.15
        60.     29.154     0.1289
        60.     29.717     0.1157
        90.     5.5408     7.3512
        90.     6.4404     8.2519
        90.     7.2277     8.5763
        90.     8.1278     7.9411
        90.     8.6905       6.94
        90.     9.1408      5.836
        90.     9.7037     4.7223
        90.     10.491     3.8954
        90.     11.167     3.3395
        90.     12.067     2.8083
        90.     12.742     2.4543
        90.     13.642     2.0246
        90.     14.543     1.7357
        90.     14.993     1.5764
        90.     15.556     1.2756
        90.     16.118     1.2756
        90.     16.681     1.0935
        90.     17.131     0.9375
        90.     17.694      0.868
        90.     18.031     0.8037
        90.     18.706     0.7884
        90.     19.156       0.73
        90.     19.269     0.6258
        90.     19.607     0.5262
        90.     20.057     0.5262
        90.     20.395     0.4599
        90.     20.958     0.3867
        90.     21.633     0.3446
        90.     22.196     0.2842
        90.     22.646     0.2484
        90.     23.546     0.2256
        90.     24.221     0.2256
        90.     24.446     0.1934
        90.     24.896      0.169
        90.     25.459     0.1826
        90.     25.796     0.1626
        90.     26.021     0.1477
        90.     26.471     0.1506
        90.     26.697     0.1342
        90.     26.922      0.115
        90.     27.484      0.115
        90.     27.822   9.67E-02
        90.     27.822   8.45E-02
        90.      28.16   7.53E-02
        90.      28.61   7.53E-02
        90.      29.06   6.71E-02
        90.     29.173   5.98E-02
       120.     5.8983     11.253
       120.     7.0232     10.609
       120.     8.0358     8.8902
       120.     8.8234     7.1624
       120.      9.386     5.7704
       120.     9.9487     4.4699
       120.     10.736     3.4624
       120.     11.524     2.7353
       120.     12.424     2.1188
       120.     13.437     1.6093
       120.     14.224     1.2713
       120.     15.349     0.9469
       120.     16.025     0.7934
       120.     16.587     0.6392
       120.       17.6      0.515
       120.       18.5     0.3912
       120.     19.287     0.3546
       120.     19.625     0.2857
       120.     20.188     0.2301
       120.      20.75     0.2301
       120.     21.763     0.1967
       120.     22.663     0.1408
       120.     23.338     0.1381
       120.     24.013   9.89E-02
       120.     24.801   7.66E-02
       120.     25.251   8.13E-02
       120.     25.701   7.51E-02
       120.     26.038   7.66E-02
       120.     26.601   6.42E-02
       120.     27.163   5.07E-02
       120.     27.838   4.09E-02
       120.     28.064   3.29E-02
       120.     28.514   2.93E-02
       120.     29.076   3.23E-02
       120.     29.526   2.76E-02
       120.     29.639   2.50E-02
       150.     6.4607     11.097
       150.     7.5843        10.
       150.     8.2584     8.4654
       150.     8.8202     7.0186
       150.     9.6067     5.2436
       150.     9.9438     4.1701
       150.     10.618     3.4574
       150.     11.517     2.4777
       150.     12.303     1.8129
       150.      13.09      1.383
       150.     14.101     0.9911
       150.     15.225     0.7252
       150.     16.124     0.5197
       150.     16.798     0.3883
       150.      17.36     0.3803
       150.     18.146      0.256
       150.     19.157     0.1619
       150.     19.719      0.176
       150.     20.281     0.1429
       150.      20.73     0.1459
       150.      21.18   9.62E-02
       150.     21.742   7.49E-02
       150.     22.416   5.26E-02
       150.     22.978   6.61E-02
       150.     23.652   5.48E-02
       150.     24.101   5.37E-02
       150.     24.438   4.01E-02
       150.     24.888   2.94E-02
       150.     25.449   3.26E-02
       150.     26.236   2.43E-02
       150.     26.798   1.64E-02
       150.      27.36   1.25E-02
       150.     27.697   1.71E-02
       150.     27.921   2.43E-02
       150.     28.258   1.82E-02
       150.     28.371   1.42E-02
       150.     28.933   1.51E-02
       150.     29.045   1.30E-02
ENDDATA            210
ENDSUBENT          223
SUBENT        F0940005   20130408   20130502   20130411       F048
BIB                  3          3
REACTION   (13-AL-27(HE3,X)1-H-2,,DA/DE)
SAMPLE     Al-27 target with the thickness of 2.8 mg/cm2 was used.
STATUS     (CURVE) Fig.2(a)
ENDBIB               3
COMMON               1          3
E-ERR-DIG
MEV
 0.236
ENDCOMMON            3
DATA                 3        371
ANG-CM     E          DATA-CM
ADEG       MEV        MB/SR/MEV
        30.     4.6629     0.6841
        30.     5.6416     0.6371
        30.     6.1304     0.5527
        30.     6.7433     0.6522
        30.     7.3552     0.6521
        30.     7.9673     0.6676
        30.     8.2117     0.6219
        30.     8.9466     0.6835
        30.     9.4359     0.6518
        30.     10.661     0.7691
        30.      11.15     0.6996
        30.      11.64      0.751
        30.     12.375     0.8254
        30.     12.986     0.7508
        30.     13.843     0.7686
        30.     14.333     0.8058
        30.       14.7     0.7869
        30.     15.312     0.9068
        30.     16.291     0.8445
        30.     17.024     0.6508
        30.     17.881     0.7153
        30.     18.737     0.6205
        30.     19.595     0.7322
        30.     20.453     0.9498
        30.     21.065     0.9274
        30.     21.923     1.1474
        30.     22.534     0.9494
        30.     23.024     0.9953
        30.     23.511     0.6499
        30.     24.242     0.3861
        30.     24.855     0.4449
        30.     25.343     0.3595
        30.     25.956     0.4046
        30.     26.444     0.2837
        30.     27.299     0.2347
        30.     27.909     0.1607
        30.     28.151   8.89E-02
        30.      28.27   5.28E-02
        30.      28.39   3.14E-02
        30.      28.51   2.05E-02
        30.     28.875   1.34E-02
        30.     29.121   1.78E-02
        30.     29.123   2.36E-02
        30.     29.124   3.29E-02
        30.     29.135   5.54E-02
        30.     29.207   8.28E-02
        30.     29.375     0.1025
        30.     29.619   7.90E-02
        30.     29.861   5.04E-02
        30.     29.972   3.29E-02
        30.     29.981   2.20E-02
        30.     30.014   1.66E-02
        30.     30.048   1.13E-02
        30.     30.095   7.58E-03
        30.     30.216   5.07E-03
        30.     30.458   3.23E-03
        30.     30.824   2.55E-03
        30.     31.071   3.91E-03
        30.     31.195   5.71E-03
        30.      31.32   8.74E-03
        30.     31.322   1.28E-02
        30.     31.325   2.05E-02
        30.     31.449   2.85E-02
        30.     31.573   3.88E-02
        30.     31.698   6.38E-02
        30.     31.701     0.1024
        30.      32.07     0.1568
        30.     32.439     0.2083
        30.     32.682     0.1393
        30.     32.702   9.10E-02
        30.     32.754   4.37E-02
        30.     32.769   5.67E-02
        30.     32.773   3.79E-02
        30.     32.779   2.79E-02
        30.     32.783   2.00E-02
        30.     32.786   1.37E-02
        30.     32.789   9.38E-03
        30.     32.909   6.42E-03
        30.     33.276   5.31E-03
        30.     33.645   8.13E-03
        30.     33.647   1.19E-02
        30.     33.649   1.69E-02
        30.     33.651   2.25E-02
        30.     33.653   3.29E-02
        30.     33.656   5.40E-02
        30.     33.657   7.53E-02
        30.     33.659   1.00E-01
        30.     33.905      0.136
        30.     34.148   9.31E-02
        30.     34.391   6.23E-02
        30.     34.411   4.16E-02
        30.     34.509   3.06E-02
        30.     34.629   2.10E-02
        30.     34.739   1.34E-02
        30.     34.748   9.83E-03
        60.     5.5339     0.4182
        60.     6.5126     0.3992
        60.     7.2459     0.3475
        60.     8.1013     0.2955
        60.      8.959     0.3316
        60.     9.5707      0.324
        60.     10.181     0.2756
        60.     10.794     0.3022
        60.      11.65      0.257
        60.     12.262     0.2691
        60.     12.873     0.2397
        60.     13.363     0.2453
        60.     13.729     0.2342
        60.     14.097     0.2341
        60.     14.707     0.1946
        60.     15.197     0.2038
        60.     15.564     0.2037
        60.     16.297     0.1773
        60.     17.031     0.1543
        60.     17.398     0.1543
        60.      18.01     0.1543
        60.     18.254     0.1375
        60.     18.375     0.1225
        60.     19.231     0.1091
        60.     20.087   9.72E-02
        60.     20.697   8.07E-02
        60.     21.188   9.49E-02
        60.     21.679     0.1142
        60.     22.167   9.27E-02
        60.     22.779   9.93E-02
        60.     23.268   8.65E-02
        60.     23.882     0.1064
        60.     24.247   8.64E-02
        60.      24.49   6.70E-02
        60.     24.978   5.32E-02
        60.     25.468   5.83E-02
        60.     26.201   5.20E-02
        60.     26.812   4.42E-02
        60.     27.299   3.27E-02
        60.     27.542   2.54E-02
        60.     28.032   2.66E-02
        60.     28.397   2.06E-02
        60.     28.639   1.53E-02
        60.     29.127   1.16E-02
        60.     29.741   1.53E-02
        60.     29.984   1.18E-02
        60.     30.226   8.37E-03
        60.     30.345   5.78E-03
        60.     30.365   4.38E-03
        60.     30.463   3.48E-03
        60.     30.583   2.64E-03
        60.     30.703   1.91E-03
        60.      31.56   2.00E-03
        60.     31.808   2.82E-03
        60.     31.933   4.18E-03
        60.     32.059   6.19E-03
        60.     32.062   8.76E-03
        60.      32.31   1.30E-02
        60.     32.556   1.60E-02
        60.     32.799   1.18E-02
        60.     32.818   8.36E-03
        60.     32.916   6.19E-03
        60.     33.035   4.38E-03
        60.     33.155   3.17E-03
        60.     33.276   2.46E-03
        60.     33.396   1.95E-03
        60.     34.008   2.00E-03
        60.     34.255   2.63E-03
        60.      34.38   3.39E-03
        60.     34.504   4.58E-03
        60.     34.629   5.77E-03
        60.     34.753   7.80E-03
        60.     35.119   6.05E-03
        60.     35.238   4.28E-03
        60.     35.358   3.24E-03
        60.     35.479   2.46E-03
        60.     35.599   1.86E-03
        90.      6.943      0.106
        90.     7.6763   8.63E-02
        90.      8.166   8.83E-02
        90.     8.7771   7.53E-02
        90.     9.5107   6.57E-02
        90.     10.122   5.73E-02
        90.     10.612   5.99E-02
        90.      11.59   5.23E-02
        90.     12.324   4.88E-02
        90.     12.936   4.77E-02
        90.     13.303   4.99E-02
        90.      14.16   4.56E-02
        90.     14.526   3.98E-02
        90.     15.015   3.39E-02
        90.     15.505   3.47E-02
        90.     16.239   3.24E-02
        90.     16.727   2.83E-02
        90.     17.216   2.46E-02
        90.     17.706   2.46E-02
        90.     18.195   2.20E-02
        90.     18.806   1.96E-02
        90.      19.05   1.75E-02
        90.     19.784   1.60E-02
        90.     20.396   1.49E-02
        90.     20.885   1.30E-02
        90.     21.252   1.36E-02
        90.     22.108   1.16E-02
        90.     22.475   1.22E-02
        90.     22.964   1.06E-02
        90.     23.331   9.47E-03
        90.      23.82   9.69E-03
        90.     24.798   7.89E-03
        90.     25.164   6.28E-03
        90.     25.531   5.24E-03
        90.     25.777   6.73E-03
        90.       25.9   7.89E-03
        90.     26.511   7.04E-03
        90.     26.633   5.74E-03
        90.     27.121   4.57E-03
        90.     27.488   4.57E-03
        90.     27.854   3.48E-03
        90.     28.343   2.96E-03
        90.     28.708   2.20E-03
        90.     29.074   1.76E-03
        90.     29.687   2.15E-03
        90.      29.93   1.50E-03
        90.     30.173   1.02E-03
        90.     30.539   8.67E-04
        90.     30.683   6.60E-04
        90.     30.781   5.02E-04
        90.     31.146   3.57E-04
        90.      31.76   4.58E-04
        90.     32.125   3.41E-04
        90.     32.246   2.48E-04
        90.     32.856   1.84E-04
        90.     32.977   1.28E-04
        90.     33.343   9.75E-05
        90.     33.589   1.40E-04
        90.     33.713   1.84E-04
        90.     33.715   2.59E-04
        90.     33.839   3.57E-04
        90.     33.841   4.80E-04
        90.     33.842   6.30E-04
        90.     33.843   7.73E-04
        90.     34.088   8.28E-04
        90.     34.354   6.30E-04
        90.     34.453   4.91E-04
        90.     34.574   4.00E-04
       120.     7.9746   9.85E-02
       120.     8.5866   8.88E-02
       120.     8.8313   8.24E-02
       120.     9.6881   7.77E-02
       120.     10.178   7.00E-02
       120.     11.034   6.03E-02
       120.     11.524   6.31E-02
       120.     12.014   5.68E-02
       120.     12.748   5.60E-02
       120.     13.115   5.27E-02
       120.     13.605   5.20E-02
       120.     13.972   4.90E-02
       120.     14.461   4.90E-02
       120.     14.706   4.41E-02
       120.     14.829   4.16E-02
       120.     15.441   3.98E-02
       120.     15.808   3.75E-02
       120.     16.175   3.80E-02
       120.     16.542   3.48E-02
       120.     17.154   3.09E-02
       120.     17.888   2.78E-02
       120.     18.623   2.51E-02
       120.     19.357   2.23E-02
       120.     19.969   2.19E-02
       120.     20.336   2.26E-02
       120.     20.703   2.01E-02
       120.     20.948   1.81E-02
       120.     21.315   1.68E-02
       120.     21.927   2.04E-02
       120.     22.417   1.83E-02
       120.     23.274   1.38E-02
       120.     23.886   1.11E-02
       120.     24.375   1.12E-02
       120.     24.865   1.01E-02
       120.     25.232   9.25E-03
       120.     25.844   9.82E-03
       120.     26.211   9.25E-03
       120.     26.701   1.01E-02
       120.     27.068   8.72E-03
       120.     27.068   7.08E-03
       120.      27.19   6.10E-03
       120.     27.435   5.42E-03
       120.      27.68   5.66E-03
       120.     28.169   5.03E-03
       120.     28.536   4.74E-03
       120.     28.659   4.21E-03
       120.     29.148   3.85E-03
       120.     29.516   4.46E-03
       120.     29.638   5.18E-03
       120.     29.883   5.66E-03
       120.     30.128   4.81E-03
       120.      30.25   3.90E-03
       120.     30.495   3.27E-03
       120.     30.617   2.65E-03
       120.      30.74   2.03E-03
       120.     30.862   1.60E-03
       120.     30.984   1.36E-03
       120.     31.352   1.55E-03
       120.     31.474   1.97E-03
       120.     31.596   2.39E-03
       120.     31.596   2.94E-03
       120.     32.331   3.47E-03
       120.     32.453   2.90E-03
       120.     32.453   2.39E-03
       120.     32.575   2.06E-03
       120.     32.575   1.65E-03
       120.      32.82   1.38E-03
       120.     33.187   1.60E-03
       120.      33.31   1.86E-03
       120.     33.677   2.19E-03
       120.     33.922   2.65E-03
       120.     34.166   2.99E-03
       120.     34.534   2.69E-03
       120.     34.656   2.32E-03
       120.     34.656   2.00E-03
       165.     9.1959      0.292
       165.     9.9303     0.2666
       165.     10.542     0.2325
       165.     11.154     0.1894
       165.     11.644     0.1508
       165.     12.134     0.1542
       165.      12.99     0.1285
       165.     13.847     0.1071
       165.     14.459     0.1047
       165.     15.071   9.34E-02
       165.     15.438   8.33E-02
       165.      16.05   7.44E-02
       165.     16.418   6.20E-02
       165.     16.785   5.16E-02
       165.      17.03   4.40E-02
       165.     17.764   3.67E-02
       165.     18.621   3.43E-02
       165.     18.988   2.92E-02
       165.     19.478   2.49E-02
       165.     19.967   2.55E-02
       165.     20.579   2.12E-02
       165.     21.191   2.27E-02
       165.     21.436   1.94E-02
       165.     21.803   1.65E-02
       165.     22.293   1.54E-02
       165.     22.783   1.26E-02
       165.     23.517   1.07E-02
       165.     23.884   8.53E-03
       165.     24.129   6.64E-03
       165.     24.497   5.16E-03
       165.     24.864   4.21E-03
       165.     25.231   3.51E-03
       165.     25.843   3.93E-03
       165.      26.21   3.43E-03
       165.     26.578   2.86E-03
       165.     27.067   2.27E-03
       165.     27.312   1.69E-03
       165.     27.802   1.41E-03
       165.     28.414   1.77E-03
       165.     29.148   1.44E-03
       165.      29.76   1.69E-03
       165.      30.25   1.38E-03
       165.     30.372   1.10E-03
       165.     30.372   8.53E-04
       165.      30.74   6.79E-04
       165.     31.107   8.73E-04
       165.     31.351   1.15E-03
       165.     31.841   1.35E-03
       165.     32.208   1.02E-03
       165.     32.331   8.15E-04
       165.     32.575   6.49E-04
       165.     32.698   4.94E-04
       165.     33.188   4.21E-04
       165.     33.799   5.53E-04
       165.     34.289   7.44E-04
       165.     34.901   8.93E-04
ENDDATA            373
ENDSUBENT          385
SUBENT        F0940006   20130408   20130502   20130411       F048
BIB                  3          3
REACTION   (27-CO-59(HE3,X)1-H-2,,DA/DE)
SAMPLE     Co-59 target with the thickness of 5.2 mg/cm2 was used.
STATUS     (CURVE) Fig.2(b)
ENDBIB               3
COMMON               1          3
E-ERR-DIG
MEV
 0.061
ENDCOMMON            3
DATA                 3        331
ANG-CM     E          DATA-CM
ADEG       MEV        MB/SR/MEV
        30.     5.2975     0.4077
        30.     5.5307     0.4752
        30.     6.1139     0.5302
        30.     6.5806     0.5787
        30.     7.1639     0.6046
        30.     7.9808      0.554
        30.     8.7975     0.6317
        30.     9.6142     0.6457
        30.     10.198     0.7048
        30.     11.248     0.7364
        30.     12.181     0.8774
        30.     13.114     0.9577
        30.     13.931     1.1164
        30.     14.748     1.1164
        30.     15.564     1.2456
        30.     16.381     1.2457
        30.     16.964     1.3014
        30.     17.548     1.1924
        30.     18.015     1.0924
        30.     18.715     1.1166
        30.     19.298     1.0231
        30.     19.999     1.0457
        30.     20.815     1.0231
        30.     21.632      1.001
        30.     22.099     1.0232
        30.     22.916     0.9172
        30.     23.616     0.9172
        30.     24.433     0.8403
        30.     24.666     0.7369
        30.     25.367     0.7054
        30.     25.834      0.592
        30.     26.534     0.5793
        30.     26.767      0.508
        30.     27.351     0.4553
        30.     27.934     0.4553
        30.     28.635     0.3579
        30.     29.218     0.2939
        30.     29.802     0.2634
        30.     30.385     0.3004
        30.     30.852     0.3426
        30.     31.435     0.3004
        30.     31.786     0.2578
        30.     32.019     0.2026
        30.     32.136     0.1664
        30.     32.253     0.1366
        30.      32.37     0.1098
        30.     32.487   9.01E-02
        30.     32.487   7.24E-02
        30.     32.488   5.69E-02
        30.     32.488   4.38E-02
        30.     32.489   3.29E-02
        30.     32.489   2.70E-02
        30.     32.839   2.13E-02
        30.     33.189   2.32E-02
        30.     33.656   2.22E-02
        30.     34.356   3.02E-02
        30.     34.589   2.37E-02
        30.     34.706   1.91E-02
        30.      34.94   1.67E-02
        30.     35.406   1.91E-02
        30.     35.756   2.17E-02
        30.     35.873   1.86E-02
        30.      35.99   1.47E-02
        30.     36.107   1.18E-02
        30.     36.341   9.46E-03
        60.     5.7464     0.2464
        60.      6.096     0.3033
        60.     6.6789     0.3821
        60.     7.2627     0.3177
        60.     8.0794     0.3405
        60.     8.5464     0.2964
        60.     9.2465     0.3034
        60.     9.8302     0.2703
        60.     10.414     0.2465
        60.      11.23     0.2767
        60.     12.047     0.2465
        60.     12.631     0.2642
        60.     13.448     0.2582
        60.     14.497     0.2832
        60.     14.965     0.2466
        60.     15.431     0.2523
        60.     15.665     0.2354
        60.     16.248     0.2248
        60.     16.598     0.2147
        60.     17.065     0.2301
        60.     17.766     0.1957
        60.     18.116     0.1665
        60.     18.699     0.1665
        60.     19.166      0.145
        60.     19.867     0.1417
        60.     20.333     0.1554
        60.       20.8     0.1384
        60.     21.384     0.1322
        60.     21.967     0.1292
        60.     22.434     0.1205
        60.     23.134     0.1206
        60.     23.601     0.1099
        60.     23.951   9.79E-02
        60.     24.535   9.57E-02
        60.     25.352   7.96E-02
        60.     26.053   6.93E-02
        60.     27.337   5.76E-02
        60.     27.804   4.68E-02
        60.      28.62   5.01E-02
        60.      29.32   6.03E-02
        60.     29.437   5.01E-02
        60.     29.788   3.71E-02
        60.     29.905   3.02E-02
        60.     30.139   2.45E-02
        60.     30.605   2.81E-02
        60.     30.955   3.23E-02
        60.     31.189   2.75E-02
        60.     31.306   2.51E-02
        60.     32.006   2.75E-02
        60.      32.24   2.13E-02
        60.     32.357   1.62E-02
        60.     32.474   1.20E-02
        60.     32.592   8.08E-03
        60.     32.593   5.58E-03
        60.      32.71   3.77E-03
        60.     32.711   2.67E-03
        60.     32.828   2.17E-03
        60.     33.178   3.28E-03
        60.      33.76   4.64E-03
        60.     33.877   3.77E-03
        60.     33.995   2.86E-03
        60.     34.577   3.77E-03
        60.     34.811   2.92E-03
        60.     34.812   2.32E-03
        60.     34.813   1.76E-03
        60.      34.93   1.36E-03
        60.     34.931   1.01E-03
        60.     35.164   8.21E-04
        60.     35.397   1.08E-03
        60.      35.63   1.57E-03
        60.     35.746   2.17E-03
        60.     36.095   2.61E-03
        60.     36.329   2.12E-03
        60.     36.446   1.68E-03
        90.      6.751     0.2047
        90.     6.9844     0.2363
        90.     7.3346       0.26
        90.     7.6848     0.2253
        90.     8.3852     0.2253
        90.     8.7354     0.1861
        90.     9.3191     0.1574
        90.      9.786     0.1691
        90.     10.253     0.1537
        90.      11.07     0.1364
        90.     11.537     0.1364
        90.     12.004     0.1127
        90.     12.471   9.76E-02
        90.     12.938     0.1074
        90.     13.755   9.31E-02
        90.     14.455   9.09E-02
        90.     14.922   8.26E-02
        90.     15.389   8.67E-02
        90.     16.323   7.51E-02
        90.      16.79   7.69E-02
        90.     17.374   6.51E-02
        90.     17.724   5.64E-02
        90.     18.191   5.64E-02
        90.     18.658   4.88E-02
        90.     19.125   3.85E-02
        90.     19.358   3.33E-02
        90.     19.825   3.33E-02
        90.     20.292   2.69E-02
        90.     20.875   2.07E-02
        90.     21.576   2.39E-02
        90.     22.043   2.89E-02
        90.      22.86   2.33E-02
        90.      23.56   2.69E-02
        90.     24.027   2.33E-02
        90.     24.728   2.56E-02
        90.     25.311   1.83E-02
        90.     25.778   1.79E-02
        90.     26.128   1.44E-02
        90.     26.595   1.14E-02
        90.     26.829   1.41E-02
        90.     27.062   1.71E-02
        90.     27.296   1.48E-02
        90.     27.529   1.11E-02
        90.     27.763   1.35E-02
        90.     27.996   1.55E-02
        90.     28.113   1.31E-02
        90.     28.463   1.08E-02
        90.     28.813   8.34E-03
        90.     29.047   6.26E-03
        90.     29.397   4.48E-03
        90.     30.097   6.41E-03
        90.     30.564   4.82E-03
        90.     31.148   5.43E-03
        90.     31.732   3.62E-03
        90.     31.965   2.53E-03
        90.     32.082   1.85E-03
        90.     32.082   1.23E-03
        90.     32.198   7.66E-04
        90.     32.665   4.86E-04
        90.     33.016   6.03E-04
        90.     33.482   7.84E-04
        90.     33.716   6.33E-04
        90.     33.833   4.75E-04
       120.     7.3112     0.1818
       120.     7.8946        0.2
       120.      8.478     0.1692
       120.     9.1781     0.1692
       120.     9.7616      0.127
       120.     10.462   9.76E-02
       120.     11.045   8.06E-02
       120.     11.628   7.87E-02
       120.     12.329   6.99E-02
       120.     13.145   5.91E-02
       120.     13.379   5.00E-02
       120.     13.962   4.33E-02
       120.     14.779   4.23E-02
       120.     15.362   3.94E-02
       120.     15.829   4.33E-02
       120.     16.296   3.66E-02
       120.     16.879   3.17E-02
       120.     17.463   3.10E-02
       120.     18.046   2.56E-02
       120.      18.63   2.17E-02
       120.      19.33   2.11E-02
       120.      19.68   1.63E-02
       120.     19.796   1.14E-02
       120.     19.913   8.33E-03
       120.     20.263   6.56E-03
       120.     20.496   8.94E-03
       120.     20.963   1.06E-02
       120.      21.43   8.73E-03
       120.     22.013   1.03E-02
       120.      22.48   8.13E-03
       120.     23.064   8.53E-03
       120.     23.764   8.13E-03
       120.      24.23   6.88E-03
       120.      24.58   5.68E-03
       120.     25.047   5.82E-03
       120.     25.397   5.41E-03
       120.     25.747   5.68E-03
       120.     26.214   4.47E-03
       120.     26.447   3.61E-03
       120.     27.031   4.16E-03
       120.     27.264   3.61E-03
       120.     27.497   3.12E-03
       120.     27.848   3.61E-03
       120.     28.198   4.26E-03
       120.     28.431   3.20E-03
       120.     28.431   2.40E-03
       120.     28.898   1.85E-03
       120.     29.364   2.24E-03
       120.     29.598   2.64E-03
       120.     29.714   2.03E-03
       120.     29.831   1.64E-03
       120.     29.948   1.23E-03
       120.     30.181   8.80E-04
       120.     30.648   6.15E-04
       120.     30.881   8.00E-04
       120.     30.998   1.09E-03
       120.     31.348   1.42E-03
       120.     31.815   1.07E-03
       120.     32.398   8.60E-04
       120.     32.632   6.30E-04
       120.     33.098   4.20E-04
       120.     33.798   4.30E-04
       120.     34.148   3.08E-04
       120.     34.382   2.20E-04
       120.     34.498   1.65E-04
       120.     34.615   1.27E-04
       150.     7.6848     0.1445
       150.     8.1518     0.1874
       150.     8.6187     0.1477
       150.     9.4358     0.1242
       150.     9.9027     0.1242
       150.     10.253   9.79E-02
       150.     10.837   9.58E-02
       150.      11.07   7.71E-02
       150.     11.304   6.08E-02
       150.     11.887   6.21E-02
       150.     12.588   6.08E-02
       150.     13.521   4.89E-02
       150.     14.455   3.69E-02
       150.     15.039   4.03E-02
       150.     15.973   3.77E-02
       150.      16.79   2.85E-02
       150.     17.374   3.04E-02
       150.     18.191   2.06E-02
       150.     18.891   1.49E-02
       150.     19.942   1.25E-02
       150.     20.525   9.85E-03
       150.     20.875   8.11E-03
       150.     21.342   7.93E-03
       150.     21.693   6.53E-03
       150.     22.276   6.96E-03
       150.     22.626   6.12E-03
       150.     23.093   5.86E-03
       150.     23.327   6.96E-03
       150.     23.677   8.11E-03
       150.     23.677   6.82E-03
       150.     23.794   5.37E-03
       150.     24.144   4.32E-03
       150.     24.611   5.26E-03
       150.     25.428   6.96E-03
       150.     25.895   6.12E-03
       150.     26.479   5.03E-03
       150.     26.512   4.42E-03
       150.     26.712   4.23E-03
       150.     26.946   3.41E-03
       150.     27.412   3.48E-03
       150.     27.996   2.52E-03
       150.      28.58   2.93E-03
       150.      28.93   3.56E-03
       150.     29.267   2.93E-03
       150.      29.28   2.26E-03
       150.     29.397   1.63E-03
       150.     29.981   1.78E-03
       150.     30.681   1.90E-03
       150.     30.798   1.43E-03
       150.     30.914   9.49E-04
       150.     31.381   6.71E-04
       150.     31.848   9.70E-04
       150.     32.315   1.43E-03
       150.     32.549   1.13E-03
       150.     32.665   7.81E-04
       150.     33.132   5.52E-04
       150.     33.599   3.91E-04
       150.     33.716   2.82E-04
       150.     33.833   1.95E-04
       150.     34.183   1.38E-04
       150.     34.533   1.75E-04
       150.      34.65   2.64E-04
       150.     35.117   3.82E-04
ENDDATA            333
ENDSUBENT          345
SUBENT        F0940007   20130408   20130502   20130411       F048
BIB                  3          4
REACTION   (50-SN-112(HE3,X)1-H-2,,DA/DE)
SAMPLE     Sn-112 target with the thickness of 1.16 mg/cm2(isotope
           content 75%) was used.
STATUS     (CURVE) Fig.2(c)
ENDBIB               4
COMMON               1          3
E-ERR-DIG
MEV
 0.098
ENDCOMMON            3
DATA                 3        346
ANG-CM     E          DATA-CM
ADEG       MEV        MB/SR/MEV
        30.     5.5164     0.2896
        30.     5.9525     0.3776
        30.     6.4983     0.5128
        30.     7.4868     0.6689
        30.     8.0422     0.5802
        30.     8.7028     0.6427
        30.     9.2547     0.6562
        30.     9.6926     0.7886
        30.     10.575     0.8561
        30.     11.455     0.9881
        30.     11.673     1.1398
        30.     12.336     1.1403
        30.     12.884     1.3705
        30.     13.544      1.614
        30.     13.984     1.7517
        30.     14.757     1.7527
        30.     15.748     2.0646
        30.      16.85      2.288
        30.     17.512     2.4334
        30.     18.287     2.1989
        30.     19.062     2.0696
        30.     19.613      2.201
        30.     20.277     2.0297
        30.     20.829      2.115
        30.     21.492     2.0315
        30.     21.934     2.0322
        30.     22.489      1.836
        30.     23.485     1.6935
        30.     24.259     1.6603
        30.     24.814     1.4401
        30.     25.261     1.1513
        30.     25.702     1.1754
        30.     26.587     1.1064
        30.     26.923     0.9212
        30.     27.368      0.799
        30.     27.806     0.9407
        30.     28.469     0.9222
        30.     28.914     0.7999
        30.     29.683     0.9812
        30.     30.019     0.8005
        30.     30.245     0.6398
        30.     30.686     0.6532
        30.     30.912     0.5329
        30.     30.915     0.4527
        30.     30.919     0.3692
        60.     5.8303     0.1948
        60.     6.1567     0.2552
        60.     6.4834     0.3273
        60.      6.923     0.3707
        60.     7.2548     0.3632
        60.     7.9141     0.4379
        60.     8.4692     0.3789
        60.     8.9091     0.4204
        60.     9.4634     0.3791
        60.     10.012     0.4666
        60.     10.783     0.5287
        60.     11.554      0.599
        60.     11.994      0.651
        60.     12.546     0.6512
        60.     12.989     0.6122
        60.      13.76     0.6936
        60.     14.312     0.7084
        60.     14.864     0.7541
        60.     15.196     0.7236
        60.     16.077     0.8199
        60.     16.409     0.8033
        60.      16.63     0.8203
        60.     17.516     0.7099
        60.     18.068     0.7402
        60.     18.623     0.6404
        60.     19.067     0.5657
        60.     19.619     0.5659
        60.     20.173     0.5104
        60.     20.724     0.5663
        60.     21.057     0.5107
        60.     21.832     0.4607
        60.     22.056     0.3985
        60.       22.5      0.352
        60.     23.051     0.3747
        60.     23.717      0.331
        60.     24.708      0.391
        60.     25.154      0.305
        60.     25.713      0.219
        60.     26.262     0.2586
        60.     26.487     0.2059
        60.     26.822     0.1744
        60.     27.481     0.2103
        60.     27.484     0.1819
        60.     27.928     0.1607
        60.     28.699     0.1821
        60.     29.032     0.1642
        60.     29.476     0.1512
        60.     30.246     0.1822
        60.      30.36     0.1481
        60.     30.694     0.1255
        60.     30.913     0.1422
        60.     31.132     0.1545
        60.     31.468     0.1256
        90.     6.3242     0.1069
        90.     6.5415     0.1319
        90.     6.9787     0.1734
        90.     7.2022     0.1497
        90.     7.3166     0.1188
        90.     7.5354     0.1348
        90.     7.7531     0.1629
        90.     8.0863     0.1467
        90.     8.7462     0.1736
        90.     9.0809     0.1437
        90.     9.3044     0.1241
        90.     9.7462     0.1241
        90.     10.078      0.119
        90.     10.296     0.1408
        90.     10.626     0.1565
        90.     10.959     0.1439
        90.      11.73     0.1668
        90.     12.284      0.147
        90.     12.725     0.1534
        90.      13.39     0.1411
        90.     13.941     0.1503
        90.     14.385     0.1326
        90.     14.716     0.1354
        90.     15.159     0.1245
        90.     15.603     0.1145
        90.     16.264     0.1273
        90.     16.929     0.1099
        90.     17.481     0.1147
        90.     17.926   9.30E-02
        90.     18.372   7.23E-02
        90.     19.033   8.37E-02
        90.     19.476   7.70E-02
        90.     19.918   7.39E-02
        90.     20.362   6.79E-02
        90.     20.693   6.94E-02
        90.     20.807   5.63E-02
        90.     21.031   4.66E-02
        90.      21.47   5.40E-02
        90.     21.798   6.80E-02
        90.      21.91   6.12E-02
        90.     21.912   5.40E-02
        90.     21.916   4.37E-02
        90.      22.58   4.11E-02
        90.     22.694   3.40E-02
        90.     23.467   3.40E-02
        90.     23.795   4.11E-02
        90.     24.124   4.67E-02
        90.     24.349   3.70E-02
        90.     24.354   2.82E-02
        90.     24.467   2.38E-02
        90.     25.016   2.88E-02
        90.      25.35   2.49E-02
        90.     25.899   3.00E-02
        90.     26.011   2.76E-02
        90.     26.346   2.34E-02
        90.     26.894   2.94E-02
        90.     26.919   2.34E-02
        90.     27.012   1.85E-02
        90.     27.017   1.38E-02
        90.     27.134   9.47E-03
        90.      27.23   6.77E-03
        90.     27.256   5.04E-03
        90.     27.584   6.09E-03
        90.     27.687   9.28E-03
        90.     27.791   1.35E-02
        90.     28.006   1.98E-02
        90.     28.335   2.20E-02
        90.     28.451   1.57E-02
        90.     28.454   1.33E-02
        90.     28.788   1.17E-02
        90.     29.225   1.51E-02
        90.     29.553   1.86E-02
        90.     29.578   1.51E-02
        90.     29.673   1.10E-02
        90.     30.011   7.53E-03
        90.     30.672   8.19E-03
        90.     31.008   6.24E-03
        90.     31.013   4.65E-03
        90.     31.029   3.46E-03
        90.     31.122   2.87E-03
       120.     6.5147     0.1162
       120.     6.8425     0.1465
       120.     6.9505     0.1733
       120.     7.1701     0.1885
       120.     7.6146     0.1594
       120.     7.9492     0.1292
       120.     8.1682     0.1466
       120.     8.3869     0.1698
       120.     8.7206     0.1466
       120.     8.9441      0.124
       120.     9.6078     0.1164
       120.     9.9415     0.1005
       120.      10.38     0.1215
       120.     10.935     0.1049
       120.      11.49   9.06E-02
       120.     11.821   9.25E-02
       120.     12.264   8.51E-02
       120.     12.706   8.51E-02
       120.     13.038   7.99E-02
       120.     13.369   8.16E-02
       120.     13.813   7.05E-02
       120.     14.258   5.84E-02
       120.     14.809   6.49E-02
       120.     15.032   5.48E-02
       120.     15.256   4.64E-02
       120.       15.7   4.09E-02
       120.     16.143   3.76E-02
       120.     16.583   4.18E-02
       120.     16.914   4.45E-02
       120.     17.357   4.01E-02
       120.     17.802   3.32E-02
       120.     18.467   2.86E-02
       120.      18.69   2.42E-02
       120.     19.025   1.96E-02
       120.     19.688   2.01E-02
       120.      20.46   2.14E-02
       120.     20.574   1.66E-02
       120.     20.577   1.35E-02
       120.     20.801   1.11E-02
       120.     21.351   1.29E-02
       120.     21.687   9.83E-03
       120.     22.235   1.27E-02
       120.     22.349   1.05E-02
       120.     22.352   8.67E-03
       120.     22.575   7.33E-03
       120.     23.124   9.24E-03
       120.     23.348   7.49E-03
       120.     23.352   5.82E-03
       120.     23.367   4.34E-03
       120.     23.449   3.59E-03
       120.     23.585   2.73E-03
       120.     23.802   3.37E-03
       120.     23.909   4.34E-03
       120.     24.016   5.58E-03
       120.     24.233   7.03E-03
       120.     24.561   8.86E-03
       120.     24.675   7.04E-03
       120.     24.789   5.47E-03
       120.     25.014   4.25E-03
       120.      25.35   3.17E-03
       120.     25.574   2.62E-03
       120.     25.907   2.36E-03
       120.     26.225   2.98E-03
       120.     26.232   3.45E-03
       120.      26.34   4.17E-03
       120.     26.447   5.25E-03
       120.     26.664   6.61E-03
       120.     26.999   5.36E-03
       120.     27.113   4.35E-03
       120.     27.335   3.83E-03
       120.      27.39   2.98E-03
       120.     27.443   2.36E-03
       120.     27.467   1.88E-03
       120.      27.56   1.52E-03
       120.     27.683   1.31E-03
       120.     27.901   1.65E-03
       120.     28.007   2.22E-03
       120.     28.013   2.80E-03
       120.     28.049   3.68E-03
       120.     28.106   4.63E-03
       120.     28.323   5.96E-03
       120.     28.549   4.35E-03
       120.     28.552   3.53E-03
       120.     28.776   2.86E-03
       120.     29.111   2.22E-03
       120.     29.336   1.76E-03
       120.      29.56   1.43E-03
       120.     29.888   1.80E-03
       120.     29.993   2.52E-03
       120.      30.21   3.31E-03
       120.     30.428   3.92E-03
       120.     31.089   4.54E-03
       120.     31.313   3.76E-03
       150.     6.4606      0.135
       150.     6.7901     0.1521
       150.     7.2298     0.1747
       150.     7.4536     0.1462
       150.     7.4568       0.12
       150.     7.4593     0.1024
       150.     7.7939   8.40E-02
       150.     8.3434     0.1004
       150.      8.678   8.24E-02
       150.      9.232   7.46E-02
       150.     9.5602   9.10E-02
       150.     9.7786     0.1066
       150.     10.004   8.25E-02
       150.     10.338   6.77E-02
       150.      10.89   7.04E-02
       150.     11.446   5.55E-02
       150.     11.885   6.64E-02
       150.     11.999   5.45E-02
       150.     12.222   4.74E-02
       150.     12.882   5.67E-02
       150.     13.547   4.94E-02
       150.     13.551   3.89E-02
       150.     13.886   3.13E-02
       150.     14.215   3.53E-02
       150.     14.435   3.82E-02
       150.     14.879   3.32E-02
       150.     15.214   2.73E-02
       150.     15.217   2.28E-02
       150.      15.44   1.91E-02
       150.     15.991   2.11E-02
       150.     16.435   1.84E-02
       150.     16.764   2.20E-02
       150.     17.092   2.68E-02
       150.     17.205   2.24E-02
       150.     17.319   1.84E-02
       150.     17.652   1.63E-02
       150.     18.313   1.87E-02
       150.     18.537   1.51E-02
       150.     18.652   1.19E-02
       150.     18.655   9.76E-03
       150.     18.658   8.16E-03
       150.      18.88   7.39E-03
       150.     19.209   8.66E-03
       150.     19.235   1.10E-02
       150.     19.311   1.45E-02
       150.     19.639   1.80E-02
       150.     19.752   1.57E-02
       150.     19.755   1.26E-02
       150.     19.759   1.04E-02
       150.     19.762   8.17E-03
       150.     20.097   6.70E-03
       150.     20.426   7.85E-03
       150.     20.644   9.57E-03
       150.     20.756   8.67E-03
       150.     20.869   7.11E-03
       150.     21.645   6.07E-03
       150.     21.649   4.79E-03
       150.     21.875   3.49E-03
       150.     22.319   2.98E-03
       150.     22.432   2.59E-03
       150.     22.434   2.26E-03
       150.     22.967   2.26E-03
       150.     22.984   2.75E-03
       150.      23.02   3.63E-03
       150.     23.075   4.79E-03
       150.     23.161   6.32E-03
       150.     23.187   8.35E-03
       150.     23.294   1.04E-02
       150.     23.403   1.15E-02
       150.     23.737   9.40E-03
       150.     23.851   7.71E-03
       150.     24.076   5.96E-03
       150.     24.079   4.80E-03
       150.     24.194   3.63E-03
       150.     24.197   3.04E-03
ENDDATA            348
ENDSUBENT          361
SUBENT        F0940008   20130408   20130502   20130411       F048
BIB                  3          3
REACTION   (13-AL-27(HE3,X)1-H-3,,DA/DE)
SAMPLE     Al-27 target with the thickness of 2.8 mg/cm2 was used.
STATUS     (CURVE) Fig.3(a)
ENDBIB               3
COMMON               1          3
E-ERR-DIG
MEV
 0.061
ENDCOMMON            3
DATA                 3        213
ANG-CM     E          DATA-CM
ADEG       MEV        MB/SR/MEV
        30.      6.903   6.72E-02
        30.     7.5298   5.50E-02
        30.     7.9062   3.86E-02
        30.     8.1571   3.09E-02
        30.     8.5128   3.78E-02
        30.     8.5324   4.82E-02
        30.     8.6575   5.63E-02
        30.     9.1587   6.01E-02
        30.     9.6602   4.71E-02
        30.     10.287   4.82E-02
        30.     10.788   6.28E-02
        30.     11.289   6.57E-02
        30.     11.664   7.50E-02
        30.     12.416   6.72E-02
        30.     13.168   8.96E-02
        30.     13.419   7.02E-02
        30.      13.67   5.63E-02
        30.     14.171   6.43E-02
        30.     15.173   5.38E-02
        30.     15.674   6.72E-02
        30.     16.176   6.87E-02
        30.     16.552   5.38E-02
        30.     17.179   4.41E-02
        30.      17.68   4.51E-02
        30.     18.056   4.93E-02
        30.     18.306   4.13E-02
        30.     18.557   3.31E-02
        30.     19.058   4.04E-02
        30.     19.685   4.22E-02
        30.     20.311   3.70E-02
        30.     20.813   3.24E-02
        30.     21.063   3.95E-02
        30.     21.314   4.82E-02
        30.     21.564   4.22E-02
        30.      21.69   3.24E-02
        30.      21.69   2.48E-02
        30.     21.816   1.99E-02
        30.     22.067   1.59E-02
        30.     22.317   2.08E-02
        30.     22.317   2.77E-02
        30.     22.442   3.61E-02
        30.     22.818   3.17E-02
        30.     23.193   4.41E-02
        30.     23.819   6.15E-02
        30.      24.07   5.15E-02
        30.     24.196   3.86E-02
        30.     24.322   2.90E-02
        60.      7.513   3.64E-02
        60.     8.0147   2.95E-02
        60.     8.6417   2.39E-02
        60.     9.2685   2.17E-02
        60.     9.7694   2.44E-02
        60.     10.396   2.17E-02
        60.     11.524   2.17E-02
        60.     12.025   2.50E-02
        60.     12.526   2.50E-02
        60.     13.152   2.82E-02
        60.     13.654   2.23E-02
        60.      14.03   1.84E-02
        60.     14.657   1.93E-02
        60.     15.284   1.56E-02
        60.     15.911   1.36E-02
        60.     16.412   1.56E-02
        60.     16.662   1.76E-02
        60.     16.913   1.42E-02
        60.     17.164   1.13E-02
        60.     17.665   1.42E-02
        60.     18.167   1.05E-02
        60.     18.418   7.92E-03
        60.      18.92   5.97E-03
        60.     19.171   4.30E-03
        60.     19.674   3.09E-03
        60.     20.299   4.20E-03
        60.     20.324   6.12E-03
        60.     20.423   8.91E-03
        60.     20.798   1.43E-02
        60.     21.173   1.85E-02
        60.     21.424   1.46E-02
        60.     21.425   1.07E-02
        60.     21.426   7.74E-03
        60.     21.677   5.97E-03
        60.     22.178   6.72E-03
        60.     22.804   7.04E-03
        60.     22.929   9.34E-03
        60.     23.555   1.18E-02
        60.     23.931   9.79E-03
        60.     24.057   7.04E-03
        60.     24.183   4.84E-03
        60.      24.31   3.40E-03
        90.     9.6677   2.11E-02
        90.     10.044   1.91E-02
        90.     10.546   1.74E-02
        90.     11.047   1.85E-02
        90.     11.423   1.73E-02
        90.     11.674   1.61E-02
        90.     12.175   1.57E-02
        90.     12.551   1.67E-02
        90.     13.052   1.75E-02
        90.     13.428   1.65E-02
        90.     13.804   1.52E-02
        90.      14.18   1.62E-02
        90.     14.555   1.73E-02
        90.     15.057   1.61E-02
        90.     15.683   1.75E-02
        90.      16.31   1.63E-02
        90.     16.937   1.55E-02
        90.     17.313   1.43E-02
        90.     17.313   1.31E-02
        90.     17.439   1.20E-02
        90.      17.69   1.15E-02
        90.     18.065   1.25E-02
        90.     18.065   1.34E-02
        90.     18.315   1.41E-02
        90.     18.566   1.31E-02
        90.     18.692   1.22E-02
        90.     18.942   1.27E-02
        90.     19.318   1.32E-02
        90.     19.444   1.25E-02
        90.     19.569   1.17E-02
        90.      19.82   1.06E-02
        90.     20.196   1.12E-02
        90.     20.321   1.22E-02
        90.     20.697   1.29E-02
        90.     21.073   1.18E-02
        90.     21.073   1.06E-02
        90.     21.074   9.70E-03
        90.     21.575   8.43E-03
        90.     21.951   9.25E-03
        90.     22.201   1.05E-02
        90.     22.451   1.15E-02
        90.     22.827   1.27E-02
        90.     23.453   1.39E-02
        90.     23.954   1.30E-02
        90.     23.955   1.18E-02
        90.     24.081   1.05E-02
        90.     24.081   9.55E-03
       120.     11.323   1.79E-02
       120.     11.949   1.60E-02
       120.     12.074   1.37E-02
       120.     12.325   1.17E-02
       120.     12.951   1.07E-02
       120.     13.202   8.74E-03
       120.     13.703   6.99E-03
       120.     14.079   8.55E-03
       120.     14.455   1.02E-02
       120.     14.831   8.55E-03
       120.     14.831   6.99E-03
       120.     15.206   6.11E-03
       120.     15.457   6.99E-03
       120.     15.833   7.82E-03
       120.     16.209   6.68E-03
       120.     16.459   5.98E-03
       120.     17.086   6.39E-03
       120.     17.336   5.23E-03
       120.     17.587   4.18E-03
       120.     17.963   3.57E-03
       120.     18.464   3.91E-03
       120.     19.091   4.18E-03
       120.     19.341   3.57E-03
       120.     19.341   2.86E-03
       120.     19.591   2.14E-03
       120.     19.842   1.67E-03
       120.     20.218   2.14E-03
       120.     20.218   2.73E-03
       120.     20.469   3.91E-03
       120.     20.469   3.34E-03
       120.     21.095   3.27E-03
       120.     21.221   2.73E-03
       120.     21.346   2.19E-03
       120.     21.847   1.79E-03
       120.     21.972   2.23E-03
       120.     21.972   2.86E-03
       120.     21.973   3.57E-03
       120.     22.599   4.37E-03
       120.     23.351   3.57E-03
       120.     23.601   2.79E-03
       150.     13.084   8.94E-03
       150.      13.46   8.54E-03
       150.      13.71   7.31E-03
       150.     14.211   5.84E-03
       150.     14.587   6.11E-03
       150.     14.962   5.34E-03
       150.     15.338   4.57E-03
       150.     15.839   5.00E-03
       150.     16.215   4.09E-03
       150.      16.34   3.49E-03
       150.     16.841   3.12E-03
       150.     17.593   3.49E-03
       150.     18.219   2.92E-03
       150.     18.469   2.39E-03
       150.     19.095   2.00E-03
       150.     19.346   1.63E-03
       150.      19.47   1.28E-03
       150.      19.47   9.56E-04
       150.      19.97   7.82E-04
       150.     20.222   1.02E-03
       150.     20.222   1.34E-03
       150.     20.348   1.60E-03
       150.     20.724   1.79E-03
       150.     21.225   1.53E-03
       150.     21.475   1.14E-03
       150.     21.475   9.56E-04
       150.      21.85   8.36E-04
       150.     22.352   1.02E-03
       150.     22.478   1.31E-03
       150.     22.729   1.63E-03
       150.      23.23   1.83E-03
       150.     23.506   1.49E-03
       150.     23.605   1.14E-03
       150.      23.63   8.54E-04
       150.     23.704   6.83E-04
       150.     23.754   5.84E-04
       150.     23.769   5.00E-04
ENDDATA            215
ENDSUBENT          227
SUBENT        F0940009   20130408   20130502   20130411       F048
BIB                  3          3
REACTION   (27-CO-59(HE3,X)1-H-3,,DA/DE)
SAMPLE     Co-59 target with the thickness of 5.2 mg/cm2 was used.
STATUS     (CURVE) Fig.3(b)
ENDBIB               3
COMMON               1          3
E-ERR-DIG
MEV
 0.123
ENDCOMMON            3
DATA                 3        281
ANG-CM     E          DATA-CM
ADEG       MEV        MB/SR/MEV
        30.     7.8296   4.44E-02
        30.     8.3311   5.44E-02
        30.     8.8326   6.67E-02
        30.     9.5857   7.14E-02
        30.     10.465   6.82E-02
        30.     11.093   6.82E-02
        30.     11.721   6.09E-02
        30.     12.223   6.98E-02
        30.     12.348   7.81E-02
        30.     13.101   8.75E-02
        30.     13.728     0.1002
        30.     13.979   8.75E-02
        30.     14.231   7.81E-02
        30.     14.858   9.15E-02
        30.     15.361   8.55E-02
        30.     16.364     0.1097
        30.     16.992   9.80E-02
        30.     17.495   9.80E-02
        30.     17.872   7.64E-02
        30.     18.374   7.82E-02
        30.     18.752   6.68E-02
        30.     19.003   5.83E-02
        30.     19.631   6.53E-02
        30.     20.007   6.53E-02
        30.     20.635   7.31E-02
        30.     21.389   6.53E-02
        30.      21.89   7.48E-02
        30.     22.518   7.48E-02
        30.     22.895   6.83E-02
        30.     23.271   8.18E-02
        30.     23.647   9.59E-02
        30.     24.024   8.19E-02
        30.     24.277   5.83E-02
        30.      24.78   5.10E-02
        30.     25.157   4.45E-02
        30.     25.659   4.98E-02
        30.     25.784   5.58E-02
        30.     26.161   4.66E-02
        30.     26.789   4.98E-02
        30.     27.041   3.98E-02
        30.     27.167   3.10E-02
        30.     27.545   2.42E-02
        30.     28.048   1.85E-02
        30.     28.426   1.41E-02
        30.     28.928   1.47E-02
        30.      29.18   1.18E-02
        30.     29.432   8.96E-03
        30.     29.808   1.05E-02
        30.     29.933   1.29E-02
        30.     30.184   1.12E-02
        30.     30.562   9.17E-03
        60.     8.4305   2.25E-02
        60.     9.0572   2.71E-02
        60.     9.1819   3.11E-02
        60.     9.5597   2.58E-02
        60.     10.313   2.58E-02
        60.     10.939   3.41E-02
        60.     11.443   2.65E-02
        60.     12.069   3.33E-02
        60.     12.573   2.65E-02
        60.     13.326   2.90E-02
        60.     13.829   2.53E-02
        60.     14.706   3.33E-02
        60.     15.085   2.36E-02
        60.     15.335   2.71E-02
        60.     15.964   2.30E-02
        60.     16.465   2.65E-02
        60.     16.969   2.25E-02
        60.      17.47   2.47E-02
        60.     17.723   2.01E-02
        60.     18.224   2.15E-02
        60.     18.978   2.01E-02
        60.     19.356   1.63E-02
        60.     19.483   1.21E-02
        60.     19.736   8.94E-03
        60.     19.986   1.18E-02
        60.     20.361   1.45E-02
        60.      20.99   1.15E-02
        60.     21.494   8.54E-03
        60.     21.994   1.24E-02
        60.     22.244   1.59E-02
        60.      22.62   1.83E-02
        60.     23.123   1.52E-02
        60.     23.125   1.18E-02
        60.     23.503   9.16E-03
        60.     23.755   7.79E-03
        60.     24.005   9.16E-03
        60.     24.381   1.08E-02
        60.     24.885   8.16E-03
        60.     25.012   5.91E-03
        60.     25.391   4.28E-03
        60.     25.895   3.09E-03
        60.     26.326   3.81E-03
        60.     26.394   5.77E-03
        60.     26.768   7.80E-03
        60.     27.021   6.33E-03
        60.     27.023   4.18E-03
        60.     27.152   2.69E-03
        60.     27.405   1.91E-03
        60.     28.286   1.38E-03
        60.     28.415   1.09E-03
        60.     28.791   8.11E-04
        90.     9.2491   1.58E-02
        90.      9.626   1.48E-02
        90.     10.379   1.68E-02
        90.     10.756   1.33E-02
        90.     10.883   1.09E-02
        90.     11.385   9.59E-03
        90.     11.761   1.14E-02
        90.     12.137   1.36E-02
        90.      12.64   1.22E-02
        90.     13.393   1.42E-02
        90.     13.895   1.30E-02
        90.     14.273   1.07E-02
        90.     14.901   1.07E-02
        90.     15.152   8.42E-03
        90.     15.906   6.93E-03
        90.     16.534   8.61E-03
        90.     17.161   9.80E-03
        90.     17.538   8.07E-03
        90.     18.544   6.09E-03
        90.     19.296   8.07E-03
        90.     19.423   5.12E-03
        90.     19.676   2.91E-03
        90.      20.18   1.52E-03
        90.     20.556   2.35E-03
        90.     20.805   3.78E-03
        90.     21.307   3.70E-03
        90.     21.683   4.70E-03
        90.     22.061   3.62E-03
        90.     22.187   2.92E-03
        90.     22.437   4.03E-03
        90.     22.813   5.12E-03
        90.     23.065   4.40E-03
        90.      23.08   3.25E-03
        90.     23.167   2.06E-03
        90.     23.571   1.28E-03
        90.     24.574   2.30E-03
        90.     24.626   1.66E-03
        90.     24.776   1.12E-03
        90.     24.828   8.30E-04
        90.     25.205   8.48E-04
        90.     25.355   1.17E-03
        90.     25.428   1.59E-03
        90.     25.452   2.45E-03
        90.     25.628   3.39E-03
        90.     25.754   2.62E-03
        90.      25.83   1.93E-03
        90.     26.032   1.23E-03
        90.     26.058   8.67E-04
        90.     26.084   7.45E-04
        90.     26.336   6.40E-04
        90.     26.575   9.25E-04
        90.     26.584   1.31E-03
        90.     26.709   1.89E-03
        90.     26.959   2.25E-03
        90.     27.137   1.66E-03
        90.     27.212   1.28E-03
        90.     27.339   8.67E-04
        90.      27.34   6.13E-04
        90.     27.717   6.13E-04
        90.     27.767   7.62E-04
        90.     27.841   9.46E-04
        90.     28.217   1.17E-03
        90.     28.344   8.67E-04
        90.     28.596   6.40E-04
        90.     28.846   8.13E-04
        90.     29.096   1.05E-03
        90.     29.148   9.06E-04
        90.     29.223   7.29E-04
        90.     29.475   5.62E-04
       120.     10.042   1.11E-02
       120.     10.293   1.24E-02
       120.     11.046   9.58E-03
       120.     12.051   9.58E-03
       120.     12.804   7.42E-03
       120.     13.432   5.17E-03
       120.     13.934   6.00E-03
       120.     14.437   5.17E-03
       120.     14.813   6.13E-03
       120.     15.316   6.67E-03
       120.     15.692   5.28E-03
       120.     15.818   4.45E-03
       120.     16.446   5.06E-03
       120.     16.822   4.74E-03
       120.     17.199   4.95E-03
       120.     17.576   3.83E-03
       120.     18.078   3.23E-03
       120.      18.58   3.67E-03
       120.     19.083   2.84E-03
       120.      19.71   3.60E-03
       120.     20.087   2.16E-03
       120.     20.589   2.25E-03
       120.     20.615   1.74E-03
       120.      20.79   1.21E-03
       120.     20.841   7.92E-04
       120.     20.966   6.13E-04
       120.     21.218   7.27E-04
       120.     21.392   9.39E-04
       120.     21.468   1.21E-03
       120.      21.72   9.80E-04
       120.     22.096   1.00E-03
       120.     22.348   7.12E-04
       120.     22.599   4.75E-04
       120.     22.975   6.13E-04
       120.     23.478   7.43E-04
       120.     23.729   5.51E-04
       120.      23.78   3.52E-04
       120.     23.855   2.56E-04
       120.     24.231   1.90E-04
       120.     24.382   2.79E-04
       120.     24.457   3.84E-04
       120.     24.608   4.96E-04
       120.     24.733   6.01E-04
       120.      25.11   4.09E-04
       120.     25.361   2.91E-04
       120.     25.412   3.60E-04
       120.     25.487   5.06E-04
       120.     25.738   6.27E-04
       120.     25.989   4.85E-04
       120.     26.115   4.09E-04
       120.     26.366   3.04E-04
       120.     26.993   4.96E-04
       120.      27.37   7.43E-04
       120.     27.396   4.65E-04
       120.     27.496   3.17E-04
       120.      27.57   2.30E-04
       120.     27.873   1.86E-04
       120.     28.249   2.85E-04
       120.     28.626   4.36E-04
       120.     29.128   2.91E-04
       120.     29.379   1.78E-04
       150.     10.939   1.73E-02
       150.     11.315   1.40E-02
       150.     12.193   1.21E-02
       150.     13.072   8.86E-03
       150.     13.574   1.02E-02
       150.     14.076   8.06E-03
       150.     14.201   6.50E-03
       150.     14.829   6.65E-03
       150.     15.331   5.24E-03
       150.      16.21   6.19E-03
       150.     16.712   4.76E-03
       150.     17.716   3.93E-03
       150.     18.218   4.03E-03
       150.     18.593   2.44E-03
       150.      18.97   1.83E-03
       150.     19.347   2.44E-03
       150.      19.85   3.17E-03
       150.     19.874   2.16E-03
       150.     19.948   1.34E-03
       150.     20.224   1.11E-03
       150.     20.853   1.66E-03
       150.     20.927   1.13E-03
       150.     20.976   7.38E-04
       150.     21.227   4.57E-04
       150.     21.304   6.39E-04
       150.     21.479   8.12E-04
       150.     21.682   1.19E-03
       150.     21.983   6.87E-04
       150.     22.356   4.16E-04
       150.      23.11   3.96E-04
       150.     23.236   6.39E-04
       150.     23.739   9.59E-04
       150.     23.915   6.39E-04
       150.     24.089   3.96E-04
       150.     24.113   2.90E-04
       150.     24.868   4.91E-04
       150.      25.62   2.83E-04
       150.     25.872   4.46E-04
       150.     26.124   7.03E-04
       150.       26.5   4.57E-04
       150.      26.75   3.27E-04
       150.     26.877   5.28E-04
       150.     27.254   6.86E-04
       150.      27.63   5.03E-04
       150.     27.755   3.19E-04
       150.     28.132   3.12E-04
       150.     28.509   4.46E-04
       150.     28.885   3.27E-04
       150.      29.01   2.64E-04
ENDDATA            283
ENDSUBENT          295
SUBENT        F0940010   20130408   20130502   20130411       F048
BIB                  3          4
REACTION   (50-SN-112(HE3,X)1-H-3,,DA/DE)
SAMPLE     Sn-112 target with the thickness of 1.16 mg/cm2(isotope
           content 75%) was used.
STATUS     (CURVE) Fig.3(c)
ENDBIB               4
COMMON               1          3
E-ERR-DIG
MEV
 0.161
ENDCOMMON            3
DATA                 3        162
ANG-CM     E          DATA-CM
ADEG       MEV        MB/SR/MEV
        30.     8.0307   8.00E-02
        30.     8.1418   6.53E-02
        30.     8.3629   5.66E-02
        30.     8.8032   6.27E-02
        30.     9.1345   5.43E-02
        30.     9.7943   7.38E-02
        30.     10.016   5.90E-02
        30.     10.347   4.81E-02
        30.     10.787   6.27E-02
        30.     11.556   9.42E-02
        30.     11.888   7.38E-02
        30.     12.328   8.87E-02
        30.     13.319     0.1023
        30.     13.431   8.01E-02
        30.     13.872   6.67E-02
        30.     14.422   8.18E-02
        30.     14.862   9.62E-02
        30.     15.193   9.24E-02
        30.     15.854     0.1088
        30.     16.404     0.1389
        30.     16.625     0.1066
        30.     16.955     0.1204
        30.     17.395     0.1389
        30.     17.507     0.1066
        30.     18.058      0.111
        30.      18.72   8.52E-02
        30.     18.831   6.41E-02
        30.     19.383   5.56E-02
        30.     19.602   7.54E-02
        30.     20.042   9.63E-02
        30.     20.484   7.54E-02
        30.     20.595   6.03E-02
        30.     21.147   4.92E-02
        30.     21.296   6.54E-02
        30.     21.585   7.86E-02
        30.     22.136   9.25E-02
        30.     22.577   8.53E-02
        30.     22.907   9.25E-02
        30.     23.349   7.10E-02
        30.     23.789   9.64E-02
        30.     24.228     0.1282
        30.      24.67   9.25E-02
        30.     25.553   7.86E-02
        30.     25.664   6.03E-02
        30.     25.886   4.44E-02
        30.     26.108   3.27E-02
        30.     26.437   4.27E-02
        30.     26.656   5.91E-02
        30.     27.098   4.36E-02
        30.     27.319   3.55E-02
        60.     9.0357   2.24E-02
        60.      9.365   2.87E-02
        60.      9.805   3.38E-02
        60.     10.135   3.83E-02
        60.     10.577   2.93E-02
        60.     10.689   2.19E-02
        60.     11.241   1.79E-02
        60.      11.57   2.24E-02
        60.      11.79   2.81E-02
        60.      12.78   3.46E-02
        60.     13.332   2.99E-02
        60.     13.551   3.91E-02
        60.     13.991   4.81E-02
        60.     14.433   3.76E-02
        60.     14.544   3.06E-02
        60.     15.315   3.68E-02
        60.     15.866   3.25E-02
        60.     16.307   3.46E-02
        60.     16.637   3.32E-02
        60.     17.188   3.68E-02
        60.      17.52   2.70E-02
        60.      18.18   3.32E-02
        60.     18.402   2.54E-02
        60.     18.624   1.79E-02
        60.     18.846   1.37E-02
        60.     19.285   1.98E-02
        60.     19.724   2.59E-02
        60.     19.946   1.98E-02
        60.     20.276   2.15E-02
        60.     20.719   1.65E-02
        60.     21.158   1.98E-02
        60.      21.38   1.55E-02
        60.      21.82   1.75E-02
        60.     22.152   1.31E-02
        60.     22.702   1.79E-02
        60.     22.904   1.31E-02
        60.     22.925   1.03E-02
        60.     23.147   7.37E-03
        60.     23.476   9.84E-03
        60.     23.585   1.37E-02
        60.     23.914   1.68E-02
        60.     24.135   1.49E-02
        60.     24.365   1.68E-02
        60.     24.407   1.16E-02
        60.     24.429   9.06E-03
        60.      24.47   6.79E-03
        60.     24.582   5.08E-03
        60.     24.804   3.81E-03
        60.     25.022   5.41E-03
        60.      25.24   8.52E-03
        60.     25.348   1.31E-02
        60.     25.677   1.83E-02
        60.     25.719   1.43E-02
        60.      25.73   1.03E-02
        60.     25.782   6.65E-03
        60.     25.794   4.78E-03
        60.     25.906   3.73E-03
        60.     26.455   5.41E-03
        60.     26.673   7.53E-03
        60.     27.112   1.07E-02
        60.     27.444   8.18E-03
        60.     27.536   5.88E-03
        90.     8.7834   2.31E-02
        90.     9.1143   2.46E-02
        90.     9.4438   1.92E-02
        90.     9.5528   1.46E-02
        90.     10.104   1.69E-02
        90.     10.655   1.43E-02
        90.     11.095   1.24E-02
        90.     11.757   1.66E-02
        90.     12.087   1.19E-02
        90.     12.528   1.26E-02
        90.     12.746   8.01E-03
        90.      13.23   1.35E-02
        90.     13.408   9.26E-03
        90.     13.737   6.38E-03
        90.     14.069   9.07E-03
        90.     14.291   1.21E-02
        90.     14.509   7.68E-03
        90.     15.061   9.46E-03
        90.     15.611   7.07E-03
        90.     16.163   9.85E-03
        90.     16.492   6.78E-03
        90.     17.263   5.99E-03
        90.     17.706   9.45E-03
        90.     18.258   1.37E-02
        90.     18.698   9.45E-03
        90.     18.806   6.64E-03
        90.     19.025   4.30E-03
        90.     19.354   3.28E-03
        90.     20.127   4.39E-03
        90.     20.236   3.21E-03
        90.     20.565   2.26E-03
        90.     20.894   1.69E-03
        90.     21.116   2.31E-03
        90.     21.338   3.21E-03
        90.      21.56   4.57E-03
        90.     21.779   3.49E-03
        90.     21.887   2.40E-03
        90.     21.996   1.69E-03
        90.     22.218   2.35E-03
        90.      22.44   3.35E-03
        90.     22.441   4.76E-03
        90.     22.773   6.50E-03
        90.     23.102   4.48E-03
        90.     23.321   3.35E-03
        90.     23.764   4.57E-03
        90.     24.096   6.24E-03
        90.     24.315   5.07E-03
        90.     24.493   3.49E-03
        90.     24.531   1.80E-03
        90.     25.084   2.83E-03
ENDDATA            164
ENDSUBENT          177
SUBENT        F0940011   20130408   20130502   20130411       F048
BIB                  3          3
REACTION   (13-AL-27(HE3,X)2-HE-4,,DA/DE)
SAMPLE     Al-27 target with the thickness of 2.8 mg/cm2 was used.
STATUS     (CURVE) Fig.4(a)
ENDBIB               3
COMMON               1          3
E-ERR-DIG
MEV
 0.169
ENDCOMMON            3
DATA                 3        153
ANG-CM     E          DATA-CM
ADEG       MEV        MB/SR/MEV
        30.     8.8725      3.072
        30.     9.8611     2.6546
        30.     10.524     2.1083
        30.     11.625     1.6404
        30.     12.615     1.3309
        30.     13.387     1.0796
        30.     14.375     0.9329
        30.     15.584     0.7732
        30.     16.573     0.6542
        30.     17.229     0.6685
        30.     19.095     0.5429
        30.     20.409     0.5104
        30.     21.389     0.6044
        30.     21.836     0.4413
        30.     22.387     0.3811
        30.     22.823     0.3977
        30.     23.266     0.3293
        30.     24.029     0.3585
        30.     24.797     0.3298
        30.     25.774      0.443
        30.     26.323     0.4162
        30.     26.974     0.4927
        30.     27.199     0.3994
        30.     27.642     0.3239
        30.     28.185     0.3754
        30.     28.626     0.3381
        30.     29.491     0.4837
        30.     29.917     0.7366
        30.     30.256     0.5049
        30.     30.481     0.4008
        30.     31.034     0.3183
        30.      31.68     0.4648
        30.     31.911     0.2991
        30.     32.358     0.2138
        30.     32.484     0.3325
        30.     32.773     0.4853
        30.     33.207     0.5624
        30.     33.655     0.3855
        30.     33.675     0.2642
        30.     33.748     0.1629
        30.     33.797     0.1164
        60.     10.006     1.4169
        60.     11.552     0.9953
        60.     12.877      0.727
        60.     13.427     0.6857
        60.     14.531     0.5313
        60.     15.633     0.4368
        60.     16.733     0.3735
        60.     17.725      0.307
        60.     18.828     0.2474
        60.     19.709     0.2158
        60.     22.338     0.1961
        60.     24.317     0.1552
        60.     25.075     0.1855
        60.     25.743     0.1409
        60.      26.29     0.1409
        60.      26.84     0.1304
        60.     27.277      0.133
        60.     27.941     0.1093
        60.     28.588     0.1386
        60.      29.24     0.1531
        60.     29.557      0.206
        60.      30.01     0.1389
        60.     30.558     0.1363
        60.     31.007     0.1014
        60.     31.761     0.1392
        60.     32.218   8.50E-02
        60.     32.324   5.73E-02
        60.     32.558   6.20E-02
        60.     32.892   5.41E-02
        60.     33.524     0.1017
        60.     34.089   6.34E-02
        90.     12.564     0.7317
        90.     13.558     0.5508
        90.     14.438     0.4685
        90.     15.321     0.3599
        90.     16.421        0.3
        90.     17.081     0.2657
        90.     17.844     0.2884
        90.     18.508     0.2261
        90.      19.61     0.1737
        90.     20.929     0.1448
        90.      22.25     0.1091
        90.      23.46   8.73E-02
        90.     24.449   7.58E-02
        90.     24.995   7.90E-02
        90.     25.653   7.43E-02
        90.     26.525   8.41E-02
        90.     27.292   8.08E-02
        90.     27.956   6.20E-02
        90.     28.617   5.38E-02
        90.     29.379   6.09E-02
        90.     30.049   3.97E-02
        90.      30.59   4.87E-02
        90.     30.927   3.59E-02
        90.     31.263   2.81E-02
        90.       31.7   2.87E-02
        90.     32.036   2.25E-02
        90.     32.157   1.50E-02
        90.     32.386   1.10E-02
        90.     32.813   1.53E-02
        90.     33.243   2.00E-02
        90.     33.452   2.71E-02
        90.     33.884   3.25E-02
        90.     34.223   2.30E-02
        90.      34.34   1.77E-02
       120.     15.208     0.5094
       120.     16.307     0.4057
       120.     16.859     0.3163
       120.     18.286     0.2418
       120.     19.822     0.1886
       120.     20.921     0.1472
       120.      22.13     0.1101
       120.     23.556   8.77E-02
       120.     24.547   6.30E-02
       120.     26.085   4.62E-02
       120.     27.622   3.39E-02
       120.     28.828   3.05E-02
       120.     29.266   2.87E-02
       120.     29.809   3.61E-02
       120.      30.36   2.87E-02
       120.     30.798   2.93E-02
       120.     31.129   2.43E-02
       120.     31.349   2.29E-02
       120.     31.677   2.34E-02
       120.      32.23   1.71E-02
       120.     32.785   1.13E-02
       120.     33.545   1.54E-02
       120.     34.318   1.06E-02
       150.      16.71     0.5031
       150.      17.48     0.3963
       150.     18.251      0.306
       150.     19.021     0.2411
       150.     19.348     0.2509
       150.     20.116     0.2273
       150.     20.885     0.1939
       150.     21.982     0.1622
       150.       23.3     0.1228
       150.     24.617   9.87E-02
       150.     25.713   8.76E-02
       150.     26.483   7.04E-02
       150.     27.251   6.13E-02
       150.     27.803   4.73E-02
       150.     28.902   3.66E-02
       150.     29.999   3.00E-02
       150.     30.655   3.12E-02
       150.     31.425   2.46E-02
       150.     32.305   1.86E-02
       150.     32.641   1.25E-02
       150.     33.084   9.09E-03
       150.     33.625   1.28E-02
       150.     34.066   1.07E-02
       150.     34.398   8.57E-03
ENDDATA            155
ENDSUBENT          167
SUBENT        F0940012   20130408   20130502   20130411       F048
BIB                  3          3
REACTION   (27-CO-59(HE3,X)2-HE-4,,DA/DE)
SAMPLE     Co-59 target with the thickness of 5.2 mg/cm2 was used.
STATUS     (CURVE) Fig.4(b)
ENDBIB               3
COMMON               1          3
E-ERR-DIG
MEV
 0.214
ENDCOMMON            3
DATA                 3        218
ANG-CM     E          DATA-CM
ADEG       MEV        MB/SR/MEV
        30.     10.814     2.5345
        30.     12.429     1.7852
        30.     12.922     1.8288
        30.     13.298     1.5161
        30.     13.791      1.517
        30.     14.541     1.1454
        30.     15.034     1.1461
        30.     15.788     0.7515
        30.     16.157     0.7881
        30.     16.654     0.7011
        30.     17.756     0.8881
        30.     18.747     0.7722
        30.     19.622     0.5434
        30.     20.617     0.4302
        30.     21.596     0.5322
        30.     22.219     0.4413
        30.     22.955     0.4852
        30.     23.823     0.4219
        30.     24.807      0.464
        30.     25.542     0.5224
        30.     26.047     0.3762
        30.     26.792      0.327
        30.     27.157     0.3679
        30.      27.78     0.3124
        30.     28.651     0.2472
        30.     29.381     0.3281
        30.     30.002     0.2852
        30.     30.856     0.3697
        30.     32.221     0.2928
        30.     32.832     0.3453
        30.     33.086     0.2796
        30.     33.461     0.2373
        30.     34.071     0.2866
        30.     34.682     0.3381
        30.     35.184     0.2613
        30.     35.789      0.372
        30.     36.266     0.5816
        30.     36.529     0.3636
        30.     36.911     0.2557
        30.     37.886     0.3558
        30.     38.022     0.2502
        30.     38.161     0.1601
        30.     38.664      0.118
        30.     39.267     0.1761
        30.     39.763     0.1642
        30.     39.995     0.2508
        30.      40.35      0.383
        30.     40.588     0.4961
        30.     40.979     0.2694
        30.     41.239     0.1808
        30.     41.378     0.1157
        60.     11.656     1.8129
        60.     12.655     1.3446
        60.     13.654     0.9972
        60.     14.902     0.7065
        60.     16.025     0.5121
        60.     17.394       0.38
        60.      18.39      0.302
        60.     19.763     0.2044
        60.     21.132     0.1516
        60.     22.866     0.1264
        60.      23.48     0.1356
        60.     24.223     0.1237
        60.     25.083     0.1359
        60.     26.204     0.1032
        60.     27.324   8.01E-02
        60.     28.441   6.83E-02
        60.       29.3   7.50E-02
        60.     30.912   6.11E-02
        60.     32.644   5.33E-02
        60.      33.38   5.85E-02
        60.     34.137   3.86E-02
        60.     34.871   4.44E-02
        60.     35.495   3.70E-02
        60.     35.863   3.87E-02
        60.     36.361   3.45E-02
        60.     37.341   4.07E-02
        60.     37.697   5.62E-02
        60.     38.183   6.77E-02
        60.     38.198   5.13E-02
        60.     38.211   3.46E-02
        60.     38.224   2.57E-02
        60.     38.237   1.86E-02
        60.     38.373   1.38E-02
        60.     38.509   1.02E-02
        60.     38.523   7.37E-03
        60.     39.031   5.10E-03
        60.     39.759   6.89E-03
        60.     39.891   9.75E-03
        60.     39.975   1.41E-02
        60.      40.46   1.70E-02
        60.      40.84   1.35E-02
        60.     41.004   8.90E-03
        60.     41.125   5.87E-03
        60.     41.133   4.45E-03
        90.     12.797     1.1274
        90.     13.668     0.8701
        90.     14.414     0.7011
        90.     15.161      0.541
        90.     16.033     0.4086
        90.     16.531     0.3438
        90.     17.772     0.2654
        90.     18.889     0.2049
        90.     19.759     0.1651
        90.     20.878      0.122
        90.     22.121   8.64E-02
        90.     23.238   6.81E-02
        90.     24.478   5.38E-02
        90.     25.093   5.62E-02
        90.     25.961   4.83E-02
        90.      27.07   4.84E-02
        90.     28.187   3.81E-02
        90.     29.056   3.14E-02
        90.     30.046   2.76E-02
        90.     30.666   2.48E-02
        90.      31.28   2.71E-02
        90.      31.78   2.13E-02
        90.     32.033   1.72E-02
        90.     32.526   1.72E-02
        90.     33.146   1.54E-02
        90.     34.252   1.76E-02
        90.     35.125   1.27E-02
        90.     35.617   1.33E-02
        90.     36.112   1.22E-02
        90.     36.727   1.30E-02
        90.     37.104   1.03E-02
        90.     37.478   8.82E-03
        90.     38.212   1.10E-02
        90.      38.59   8.28E-03
        90.     38.598   6.38E-03
        90.     38.731   4.51E-03
        90.     39.604   3.26E-03
        90.     39.964   4.52E-03
        90.     40.329   5.49E-03
        90.     40.831   3.97E-03
        90.     40.967   2.63E-03
       120.     13.958     0.8462
       120.     14.578     0.6923
       120.     15.197     0.5792
       120.     15.693     0.4738
       120.     16.436     0.3791
       120.     17.057     0.2901
       120.     17.925     0.2122
       120.     18.791     0.1661
       120.     19.655     0.1421
       120.     20.276     0.1087
       120.     21.144   8.14E-02
       120.     22.133   6.23E-02
       120.     22.999   5.10E-02
       120.     23.988   3.90E-02
       120.     24.732   3.05E-02
       120.     25.475   2.39E-02
       120.     26.462   2.00E-02
       120.     27.446   1.91E-02
       120.     27.943   1.56E-02
       120.     28.677   1.75E-02
       120.     29.666   1.37E-02
       120.     30.286   1.10E-02
       120.     30.778   1.10E-02
       120.     31.399   8.20E-03
       120.     31.654   5.74E-03
       120.      32.15   4.80E-03
       120.     33.123   7.19E-03
       120.     33.493   6.57E-03
       120.     33.984   6.72E-03
       120.      34.98   4.02E-03
       120.     35.718   3.85E-03
       120.      36.22   2.58E-03
       120.     36.972   1.47E-03
       120.     37.334   1.89E-03
       120.     37.445   2.95E-03
       120.     37.806   4.03E-03
       120.     38.306   2.82E-03
       120.     38.682   2.11E-03
       120.     38.938   1.41E-03
       120.     39.191   1.08E-03
       150.     14.609     0.8248
       150.     15.479     0.6143
       150.     16.101     0.4898
       150.     16.847     0.3731
       150.     17.841     0.2717
       150.     18.711     0.2024
       150.     19.704     0.1542
       150.     20.327     0.1175
       150.     21.318   9.80E-02
       150.     22.187   7.64E-02
       150.     23.056   5.96E-02
       150.     23.926   4.54E-02
       150.     24.797   3.16E-02
       150.     26.162   2.20E-02
       150.     26.786   1.64E-02
       150.     27.286   1.22E-02
       150.     27.897   1.57E-02
       150.     28.893   1.02E-02
       150.     29.499   1.60E-02
       150.     30.124   1.12E-02
       150.     30.748   8.12E-03
       150.     31.364   8.31E-03
       150.     31.867   5.65E-03
       150.     32.484   5.52E-03
       150.     32.738   3.93E-03
       150.     33.239   2.86E-03
       150.     33.971   3.93E-03
       150.     34.471   3.00E-03
       150.     34.722   2.50E-03
       150.     35.335   2.93E-03
       150.     35.536   2.09E-03
       150.      35.72   1.52E-03
       150.     35.728   1.10E-03
       150.     35.858   8.41E-04
       150.     35.986   6.70E-04
       150.       36.6   7.68E-04
       150.     36.974   6.41E-04
       150.     37.582   9.01E-04
       150.     37.836   6.71E-04
       150.     38.087   5.60E-04
       150.     38.698   7.03E-04
       150.     39.197   5.60E-04
ENDDATA            220
ENDSUBENT          232
SUBENT        F0940013   20130408   20130502   20130411       F048
BIB                  3          4
REACTION   (50-SN-112(HE3,X)2-HE-4,,DA/DE)
SAMPLE     Sn-112 target with the thickness of 1.16 mg/cm2(isotope
           content 75%) was used.
STATUS     (CURVE) Fig.4(c)
ENDBIB               4
COMMON               1          3
E-ERR-DIG
MEV
 0.194
ENDCOMMON            3
DATA                 3        257
ANG-CM     E          DATA-CM
ADEG       MEV        MB/SR/MEV
        30.     13.195     0.7897
        30.      13.92     0.9882
        30.     14.524     1.2091
        30.     15.131     1.2935
        30.      16.23     1.0825
        30.     16.964      0.866
        30.       17.7     0.6775
        30.     18.433     0.5668
        30.     19.286     0.5546
        30.     20.144     0.3968
        30.     20.871     0.4541
        30.     21.607     0.3552
        30.      22.22     0.2842
        30.     22.824     0.3325
        30.     23.558     0.2844
        30.     24.048     0.2379
        30.     24.656     0.2434
        30.      25.51      0.213
        30.     26.603     0.2384
        30.     27.937     0.2853
        30.     28.428     0.2334
        30.     28.918     0.1997
        30.     29.763     0.2672
        30.     30.498     0.2186
        30.     31.465     0.2925
        30.     32.198     0.2448
        30.     33.053     0.2094
        30.     33.899     0.2741
        30.     34.504     0.3279
        30.     35.239     0.2509
        30.     35.852     0.2052
        30.     36.577     0.2511
        30.     37.181     0.3072
        30.     38.281     0.2514
        30.     38.653     0.1798
        30.     39.147      0.123
        30.     39.873     0.1539
        30.     40.231     0.2059
        30.      40.71     0.3012
        30.     41.188     0.4407
        30.     41.491     0.5766
        30.     41.661      0.451
        30.     41.924     0.3297
        30.     42.178     0.2016
        30.     42.267      0.126
        60.     12.579     0.8028
        60.     13.547     1.0124
        60.     14.637     1.2191
        60.      15.98     1.0146
        60.     16.838     0.7875
        60.     17.573     0.6254
        60.     18.309     0.4854
        60.     19.291     0.3515
        60.     20.271     0.2606
        60.      21.13     0.1931
        60.     22.109     0.1534
        60.     23.575     0.1191
        60.     24.182     0.1277
        60.     25.158     0.1139
        60.     26.246      0.147
        60.     26.745   9.05E-02
        60.     27.362   6.26E-02
        60.      28.09   6.71E-02
        60.     28.947   5.58E-02
        60.     29.795   6.27E-02
        60.     30.527   5.86E-02
        60.     31.255   6.28E-02
        60.     32.113   4.76E-02
        60.     32.485   3.70E-02
        60.     33.096   3.29E-02
        60.     33.577   4.15E-02
        60.     33.815   5.11E-02
        60.     34.428   4.25E-02
        60.     34.796   3.79E-02
        60.     35.521   4.56E-02
        60.     36.252   4.36E-02
        60.     36.974   6.03E-02
        60.     37.456   7.09E-02
        60.     37.528   5.50E-02
        60.     37.716   3.63E-02
        60.     37.727   2.51E-02
        60.     37.733   1.69E-02
        60.     37.741   1.34E-02
        60.     37.989   1.12E-02
        60.     39.078   1.38E-02
        60.     39.566   1.31E-02
        60.     39.945   1.82E-02
        60.     41.013   2.19E-02
        60.     41.128   2.96E-02
        60.     41.607   3.99E-02
        60.     41.983   2.58E-02
        60.     41.989   1.95E-02
        60.     42.121   1.32E-02
        60.     42.252   9.11E-03
        90.     13.191     1.0992
        90.     14.528     1.1239
        90.     15.627     0.9487
        90.     16.484     0.7511
        90.     17.341     0.5821
        90.     18.198     0.4609
        90.     18.935     0.3497
        90.     19.427     0.2768
        90.     20.286      0.197
        90.     21.024     0.1402
        90.     21.884   9.56E-02
        90.     22.499   6.95E-02
        90.     23.478   5.62E-02
        90.     23.964   5.63E-02
        90.     25.187   4.36E-02
        90.     25.673   4.46E-02
        90.     26.406   3.76E-02
        90.     27.506   3.11E-02
        90.     27.999   2.31E-02
        90.     28.979   1.71E-02
        90.     29.827   2.03E-02
        90.     30.561   1.68E-02
        90.     31.164   2.12E-02
        90.     32.026   1.36E-02
        90.     32.629   1.68E-02
        90.      33.85   1.42E-02
        90.       34.1   1.05E-02
        90.     34.713   8.53E-03
        90.     35.083   6.75E-03
        90.     35.089   5.23E-03
        90.     35.336   4.50E-03
        90.     35.939   5.70E-03
        90.     36.311   4.14E-03
        90.     36.439   3.14E-03
        90.     36.808   2.65E-03
        90.     37.163   3.97E-03
        90.     37.277   5.70E-03
        90.     37.446   8.54E-03
        90.     37.625   1.20E-02
        90.     37.796   9.11E-03
        90.     37.882   6.62E-03
        90.     38.132   4.91E-03
        90.     38.616   5.47E-03
        90.     38.869   3.65E-03
        90.     38.997   2.65E-03
        90.     39.126   1.97E-03
        90.     39.497   1.49E-03
        90.     40.098   2.06E-03
        90.     40.333   2.95E-03
        90.     40.691   3.98E-03
        90.     40.941   3.02E-03
        90.     41.314   2.15E-03
        90.     41.553   2.55E-03
        90.     41.668   3.36E-03
        90.     41.787   3.90E-03
        90.     42.279   3.02E-03
        90.     42.408   2.20E-03
       120.     13.423     1.2419
       120.     14.637     1.3877
       120.     15.735     1.1901
       120.     16.471     0.8744
       120.     17.084     0.6864
       120.     17.697     0.5155
       120.     18.555     0.3788
       120.     19.169     0.2723
       120.     20.028     0.1873
       120.     20.888     0.1206
       120.     21.626   7.76E-02
       120.     22.119   5.46E-02
       120.     22.734   3.84E-02
       120.     23.229   2.58E-02
       120.     23.963   2.03E-02
       120.     24.932   2.53E-02
       120.     25.425   1.86E-02
       120.     26.033   1.86E-02
       120.      26.28   1.52E-02
       120.     26.769   1.31E-02
       120.     27.015   1.17E-02
       120.      27.62   1.40E-02
       120.     27.869   1.03E-02
       120.      28.24   7.53E-03
       120.     28.842   1.05E-02
       120.     29.323   1.43E-02
       120.     29.694   1.00E-02
       120.     29.944   7.06E-03
       120.     30.557   5.54E-03
       120.     31.414   4.16E-03
       120.     31.896   5.19E-03
       120.     32.258   6.19E-03
       120.      32.43   4.35E-03
       120.     32.558   3.13E-03
       120.     32.641   2.35E-03
       120.     32.767   1.88E-03
       120.     33.015   1.48E-03
       120.     33.373   2.20E-03
       120.     33.489   2.93E-03
       120.     33.728   3.57E-03
       120.       33.8   2.51E-03
       120.     33.984   1.88E-03
       120.     34.231   1.55E-03
       120.     34.954   2.25E-03
       120.     35.323   1.77E-03
       120.     35.451   1.27E-03
       120.     35.578   9.74E-04
       120.     36.024   9.74E-04
       120.     36.059   1.33E-03
       120.     36.143   1.97E-03
       120.     36.165   2.93E-03
       120.     36.523   4.17E-03
       120.     36.895   3.00E-03
       120.     37.144   2.16E-03
       120.     37.172   1.58E-03
       120.     37.278   1.16E-03
       120.     37.403   9.33E-04
       150.      13.79     1.3547
       150.      14.64     1.4809
       150.     15.494     1.2687
       150.     16.105     1.0396
       150.     16.718     0.7796
       150.      17.33     0.5847
       150.     18.309     0.4195
       150.     19.165     0.3077
       150.     19.655     0.2412
       150.     20.268     0.1731
       150.     20.638     0.1188
       150.     21.131   8.15E-02
       150.     21.986   6.39E-02
       150.       22.6   4.39E-02
       150.     23.333   3.51E-02
       150.     23.582   2.31E-02
       150.      24.32   1.39E-02
       150.     25.169   1.55E-02
       150.     25.662   1.02E-02
       150.     26.153   7.63E-03
       150.     27.001   9.74E-03
       150.     27.613   7.47E-03
       150.     27.985   4.79E-03
       150.     28.355   3.44E-03
       150.      29.21   2.58E-03
       150.     30.059   3.08E-03
       150.     30.308   2.16E-03
       150.     30.557   1.48E-03
       150.     30.916   2.11E-03
       150.     31.033   3.01E-03
       150.     31.394   3.85E-03
       150.     31.642   2.89E-03
       150.     31.647   1.98E-03
       150.     31.774   1.42E-03
       150.     32.502   1.59E-03
       150.     32.551   1.11E-03
       150.     32.636   6.84E-04
       150.     33.007   4.69E-04
       150.     33.363   8.54E-04
       150.     33.479   1.22E-03
       150.     33.719   1.55E-03
       150.     33.966   1.16E-03
       150.     34.094   7.81E-04
       150.     34.098   5.73E-04
       150.     34.579   8.93E-04
       150.     34.819   1.09E-03
       150.     35.188   7.99E-04
       150.     35.438   5.13E-04
       150.     36.175   3.22E-04
ENDDATA            259
ENDSUBENT          272
ENDENTRY            13
