ENTRY            F0963   20090227   20090508   20090508       F035
SUBENT        F0963001   20090227   20090508   20090508       F035
BIB                 11         40
TITLE      Mechanism of the Si(d,p) reactions below 3 MeV.
AUTHOR     (B.H.Wildenthal,R.W.Krone,F.W.Prosser Jr)
INSTITUTE  (1USAKAN)
REFERENCE  (J,PR,135,B680,1964)
FACILITY   (VDG) H.V.E.C. 3 MeV Van de Graaff accelerator.
INC-SOURCE The beam was collimated to an area of approximately
           0.04 cm2 and limited to a maximum current of 1 mu-A.
DETECTOR   (SIBAR) Two silicon surface barrier particle detectors
            (the rotating detectors were ORTEC model SBFJ,
           0.25 cm2 in active area with a 500 mu depletion depth)
           were mounted to rotate about the target at radial
           distances of 6.2 and 16.2 cm. The angular position of
           these detectors is controlled and monitored remotely to
           within +-3/4 degr. For use primarily in measuring the
           excitation functions, an additional detector (the fixed
           detector was an RCA model C-4, 0.2 cm2 active area with
           a 450 mu depletion depth) was mounted at the 135 degr.
           port hole on a sliding arm that allowed the detector to
           be positioned anywhere from 1 to 25 cm from the target.
           Gold or tantalum foils of thickness sufficient to stop
           the elastically scattered deuterons were mounted in
           front of the detectors.
METHOD     (BCINT)
SAMPLE     Natural silicon or silicon enriched (68% 30Si)
           with 30Si was evaporated onto the backings.
           Target backings were constructed of gold leaf
            (190 mu-g/cm2) mounted over 1.3-cm apertures in
           tantalum blanks. The thickest targets employed in the
           experiment were less than 10 keV thick to 2 MeV
           deuterons.
ERR-ANALYS (DATA-ERR)The error in the scale of the cross sections,
           a root-square value derived from uncertainties in the
           target thickness, charge collection, solid angle
           measurements, and counting statistics, were taken into
           account. The extent to which oxygen, visible in the
           experimental spectra, contributed to the weight of the
           sample, is an unknown quantity, introducing a maximum
           possible correction of less than 10%.
           (ERR-DIG) Data digitizing error
HISTORY    (20090227C)
ENDBIB              40
COMMON               1          3
DATA-ERR
PER-CENT
 18.
ENDCOMMON            3
ENDSUBENT           47
SUBENT        F0963002   20090227   20090508   20090508       F035
BIB                  4         11
REACTION   (14-SI-28(D,P)14-SI-29,PAR,DA)
SAMPLE     The thickness of the target was measured by
           weighing the amount of silicon deposited on thin
           aluminum strips which were placed in the evaporation
           chamber so as to receive a coating of silicon equal to
           that received by the target. The weighing procedure
           gave results reproducible to +-1 mu-g/cm2. The error
           assigned includes an estimate of the uncertainty in
           the uniformity of the deposited layer.
ERR-ANALYS (EN-ERR-DIG) Energy digitizing error
STATUS     (CURVE) Fig.4,5
ENDBIB              11
COMMON               2          3
EN-ERR-DIG ERR-DIG
MEV        MB/SR
 0.002      0.012
ENDCOMMON            3
DATA                 4        571
E-LVL      ANG        EN         DATA
MEV        ADEG       MEV        MB/SR
         0.        30.      1.971     0.2699
         0.        30.     1.9887    0.36533
         0.        30.      2.006    0.68298
         0.        30.     2.0239    0.55619
         0.        30.     2.0397    0.60928
         0.        30.     2.0573    0.74174
         0.        30.     2.0933    0.45113
         0.        30.     2.1094    0.27142
         0.        30.     2.1308    0.44625
         0.        30.     2.1467    0.38294
         0.        30.     2.1645    0.38313
         0.        30.     2.1864    0.27226
         0.        30.     2.2003    0.25125
         0.        30.     2.2214    0.68534
         0.        30.     2.2355    0.51618
         0.        30.     2.2573    0.43177
         0.        30.     2.2753    0.28382
         0.        30.     2.2929     0.4057
         0.        30.     2.3126    0.45883
         0.        30.     2.3319    0.76592
         0.        30.     2.3496    0.85077
         0.        30.     2.3697    0.64993
         0.        30.     2.3895    0.59724
         0.        30.     2.4078    0.26411
         0.        30.     2.4254    0.36483
         0.        30.     2.4452    0.35975
         0.        30.     2.4648    0.43933
         0.        30.     2.4778     1.0268
         0.        30.     2.4856     1.1009
         0.        30.     2.5054     1.0324
         0.        30.     2.5233     1.0008
         0.        30.      2.541     1.0381
         0.        30.     2.5605     1.2393
         0.        30.     2.5829    0.76338
         0.        30.     2.6027    0.77418
         0.        30.     2.6184    0.81139
         0.        30.     2.6429    0.27727
         0.        30.     2.6626    0.35156
         0.        30.     2.6799     0.6745
         0.        30.     2.6991      1.008
         0.        30.     2.7207     1.1141
         0.        30.     2.7441      1.363
         0.        30.      2.764      1.268
         0.        30.     2.7824    0.81848
         0.        30.     2.8036     1.1785
         0.        30.     2.8253     1.2211
         0.        30.     2.8493      1.015
         0.        30.     2.8678    0.59719
         0.        30.     2.8874    0.70323
         0.        30.     2.9113    0.53947
         0.        30.     2.9324         1.
         0.        30.       2.95     1.1113
         0.        30.      2.976    0.88938
         0.        30.     2.9944    0.49805
         0.       135.     1.9655    0.38941
         0.       135.     1.9772    0.24195
         0.       135.     1.9989    0.19443
         0.       135.     2.0189    0.45745
         0.       135.     2.0348    0.48365
         0.       135.     2.0526    0.55721
         0.       135.     2.0725    0.69918
         0.       135.     2.0842    0.50435
         0.       135.     2.1039     0.4779
         0.       135.     2.1218    0.57251
         0.       135.     2.1377    0.70924
         0.       135.     2.1595    0.75645
         0.       135.     2.1732    0.61425
         0.       135.     2.1951    0.70357
         0.       135.      2.211    0.80872
         0.       135.     2.2302    0.28225
         0.       135.     2.2479    0.20318
         0.       135.     2.2678    0.33988
         0.       135.      2.292    0.84498
         0.       135.     2.3083     1.3501
         0.       135.     2.3281     1.2974
         0.       135.     2.3455    0.92355
         0.       135.     2.3654     1.1076
         0.       135.     2.3834     1.3075
         0.       135.     2.4008    0.94947
         0.       135.     2.4201    0.49143
         0.       135.     2.4378    0.39657
         0.       135.     2.4603     1.1648
         0.       135.     2.4758    0.85946
         0.       135.     2.4976    0.84878
         0.       135.     2.5154    0.85918
         0.       135.     2.5351    0.88009
         0.       135.     2.5545     0.4431
         0.       135.     2.5763    0.50611
         0.       135.      2.596     0.5007
         0.       135.     2.6137    0.37952
         0.       135.     2.6333    0.24254
         0.       135.      2.653    0.15818
         0.       135.     2.6709    0.32648
         0.       135.     2.6968    0.49472
         0.       135.     2.7185    0.43667
         0.       135.     2.7322    0.35236
         0.       135.       2.75    0.30486
         0.       135.     2.7718    0.42576
         0.       135.     2.7958    0.66244
         0.       135.     2.8155    0.64651
         0.       135.     2.8354    0.74111
         0.       135.     2.8592    0.82515
         0.       135.     2.8807    0.55657
         0.       135.     2.8945    0.52489
         0.       135.     2.9205    0.84576
         0.       135.     2.9422     0.8035
         0.       135.     2.9596    0.40863
      1.273        30.     1.9674    0.72046
      1.273        30.     1.9833    0.84541
      1.273        30.     2.0072     1.3662
      1.273        30.     2.0366    0.73587
      1.273        30.      2.074    0.58471
      1.273        30.       2.09    0.88153
      1.273        30.     2.1078    0.92314
      1.273        30.     2.1451    0.48032
      1.273        30.      2.163    0.63651
      1.273        30.     2.1808    0.74583
      1.273        30.     2.2008     1.1676
      1.273        30.     2.2186     1.2093
      1.273        30.     2.2383     1.2092
      1.273        30.     2.2563     1.6727
      1.273        30.     2.2761     1.7403
      1.273        30.     2.2936     1.0163
      1.273        30.     2.3134     1.1256
      1.273        30.     2.3312     1.1672
      1.273        30.     2.3469    0.87032
      1.273        30.     2.3668     1.1619
      1.273        30.     2.3866     1.1723
      1.273        30.     2.4081      0.792
      1.273        30.     2.4239    0.79716
      1.273        30.     2.4437    0.81793
      1.273        30.     2.4616     1.1564
      1.273        30.     2.4793    0.96887
      1.273        30.     2.4992     1.1146
      1.273        30.     2.5209    0.99478
      1.273        30.     2.5386    0.93743
      1.273        30.     2.5609     2.1822
      1.273        30.     2.5789     2.5884
      1.273        30.     2.6007     2.7497
      1.273        30.     2.6206     2.9736
      1.273        30.     2.6423     3.0152
      1.273        30.     2.6601     3.0516
      1.273        30.     2.6839     3.1401
      1.273        30.     2.6993     2.3692
      1.273        30.     2.7208     1.7129
      1.273        30.     2.7405      1.692
      1.273        30.     2.7607     2.6503
      1.273        30.     2.7806     2.8429
      1.273        30.        2.8     2.1241
      1.273        30.     2.8258     2.2438
      1.273        30.     2.8478     2.8583
      1.273        30.     2.8675     2.7385
      1.273        30.     2.8932     2.7436
      1.273        30.     2.9107     2.2592
      1.273        30.     2.9263     1.7435
      1.273        30.     2.9521     1.8893
      1.273        30.     2.9723     2.9517
      1.273        30.     2.9959     2.6808
      1.273       135.     1.9672     1.0744
      1.273       135.      1.983     1.1321
      1.273       135.     2.0009      1.615
      1.273       135.     2.0226     1.3368
      1.273       135.     2.0423    0.97979
      1.273       135.     2.0541    0.55458
      1.273       135.     2.0739    0.60181
      1.273       135.     2.0897    0.93775
      1.273       135.     2.1075    0.94298
      1.273       135.      2.143    0.58599
      1.273       135.     2.1649     1.1949
      1.273       135.     2.1806    0.91666
      1.273       135.     2.2004    0.69617
      1.273       135.     2.2181    0.65415
      1.273       135.     2.2339    0.58065
      1.273       135.     2.2557    0.66986
      1.273       135.     2.2755    0.96381
      1.273       135.     2.2913     1.1475
      1.273       135.     2.3092      1.452
      1.273       135.     2.3329      1.347
      1.273       135.     2.3466    0.75901
      1.273       135.     2.3644    0.55427
      1.273       135.     2.3841    0.50175
      1.273       135.     2.4039    0.34425
      1.273       135.     2.4217    0.36523
      1.273       135.     2.4414    0.52794
      1.273       135.     2.4652     0.6434
      1.273       135.      2.479    0.85861
      1.273       135.     2.4989     1.1946
      1.273       135.     2.5206     1.1315
      1.273       135.     2.5384     1.5462
      1.273       135.     2.5581      1.079
      1.273       135.     2.5799     1.1262
      1.273       135.     2.5976      1.016
      1.273       135.     2.6213    0.81122
      1.273       135.     2.6352    0.79546
      1.273       135.     2.6549    0.93717
      1.273       135.     2.6767     1.0369
      1.273       135.     2.6984     1.0211
      1.273       135.     2.7181    0.72714
      1.273       135.     2.7399     1.0368
      1.273       135.     2.7597      1.399
      1.273       135.     2.7815      1.294
      1.273       135.     2.7992     1.0525
      1.273       135.      2.817    0.76903
      1.273       135.     2.8605    0.82148
      1.273       135.     2.8822    0.92119
      1.273       135.      2.902    0.86868
      1.273       135.     2.9237     1.0629
      1.273       135.     2.9435     1.1469
      1.273       135.     2.9672     1.2623
      2.028        30.     1.9666    0.43436
      2.028        30.     1.9845    0.30824
      2.028        30.     2.0041    0.47505
      2.028        30.     2.0196    0.73779
      2.028        30.     2.0416    0.48544
      2.028        30.     2.0572    0.71283
      2.028        30.     2.0786     1.0009
      2.028        30.     2.0996      1.597
      2.028        30.     2.1119     1.2536
      2.028        30.     2.1318     1.1427
      2.028        30.     2.1479    0.89029
      2.028        30.      2.164    0.57224
      2.028        30.     2.1878    0.55223
      2.028        30.     2.2035     0.6079
      2.028        30.     2.2236    0.34039
      2.028        30.     2.2965    0.50761
      2.028        30.     2.3117     1.0582
      2.028        30.     2.3354     1.0332
      2.028        30.     2.3509     1.3464
      2.028        30.     2.3685     1.5132
      2.028        30.     2.3887     1.1497
      2.028        30.      2.411     0.6398
      2.028        30.     2.4305    0.84197
      2.028        30.     2.4477     1.3219
      2.028        30.     2.4635     1.3271
      2.028        30.     2.4851     1.4989
      2.028        30.     2.5087     1.6102
      2.028        30.     2.5269     1.2265
      2.028        30.     2.5488     1.1257
      2.028        30.     2.5666     1.0551
      2.028        30.     2.5869    0.65631
      2.028        30.      2.622     1.0556
      2.028        30.     2.6453     1.4143
      2.028        30.     2.6634     1.1114
      2.028        30.     2.6852     1.0712
      2.028        30.     2.7042     1.6723
      2.028        30.     2.7259     1.7432
      2.028        30.      2.743     2.3494
      2.028        30.     2.7634      1.789
      2.028        30.     2.8056     1.2236
      2.028        30.     2.8253     1.2238
      2.028        30.     2.8529     1.2695
      2.028        30.     2.8749     1.0474
      2.028        30.     2.8966     1.1536
      2.028        30.     2.9167    0.84067
      2.028        30.     2.9342      1.063
      2.028        30.     2.9574     1.5026
      2.028        30.     2.9788      1.831
      2.028        30.     2.9997     2.5231
      2.028       135.     1.9709    0.67514
      2.028       135.     1.9847    0.65486
      2.028       135.     2.0084    0.73104
      2.028       135.     2.0223    0.47726
      2.028       135.     2.0381    0.29454
      2.028       135.     2.0579    0.25397
      2.028       135.     2.0757    0.39613
      2.028       135.     2.0933    0.87332
      2.028       135.     2.1111    0.87842
      2.028       135.     2.1309    0.75156
      2.028       135.     2.1507    0.66529
      2.028       135.     2.1685    0.47751
      2.028       135.     2.1844    0.24403
      2.028       135.     2.2002    0.44203
      2.028       135.     2.2238     0.5639
      2.028       135.     2.2397     0.4624
      2.028       135.     2.2595    0.38122
      2.028       135.     2.2772    0.52338
      2.028       135.     2.2988     1.0716
      2.028       135.     2.3166    0.99553
      2.028       135.     2.3325     0.8585
      2.028       135.     2.3503    0.55396
      2.028       135.     2.3701    0.48801
      2.028       135.     2.3879     0.5591
      2.028       135.     2.4096     0.5896
      2.028       135.     2.4274    0.61501
      2.028       135.     2.4432     0.6861
      2.028       135.     2.4668    0.96025
      2.028       135.     2.4885     1.0923
      2.028       135.     2.5064    0.81311
      2.028       135.     2.5261    0.84868
      2.028       135.     2.5479    0.88425
      2.028       135.     2.5657    0.63555
      2.028       135.     2.5835    0.55944
      2.028       135.     2.6072    0.72192
      2.028       135.     2.6249     0.9453
      2.028       135.     2.6467    0.90472
      2.028       135.     2.6665    0.65603
      2.028       135.     2.6843     0.6256
      2.028       135.     2.7059     1.1028
      2.028       135.     2.7237     1.2653
      2.028       135.     2.7494     1.2399
      2.028       135.     2.7612     1.1841
      2.028       135.      2.783      1.174
      2.028       135.     2.8026     1.6157
      2.028       135.     2.8302     1.7274
      2.028       135.     2.8696     2.3467
      2.028       135.     2.8894     2.2554
      2.028       135.     2.9132     1.8595
      2.028       135.     2.9311     1.3367
      2.028       135.     2.9509     1.2961
      2.028       135.     2.9767      1.083
      2.426        30.     1.9743    0.58161
      2.426        30.     1.9881    0.54075
      2.426        30.     2.0059    0.74477
      2.426        30.     2.0237    0.91819
      2.426        30.     2.0413     0.8416
      2.426        30.      2.057     0.7089
      2.426        30.     2.0748    0.74966
      2.426        30.     2.0944    0.60674
      2.426        30.       2.11    0.40261
      2.426        30.     2.1277    0.38725
      2.426        30.     2.1455    0.42801
      2.426        30.     2.1632    0.48408
      2.426        30.     2.1829    0.46361
      2.426        30.     2.1968    0.68806
      2.426        30.     2.2207     1.2492
      2.426        30.     2.2366     1.5757
      2.426        30.     2.2561     1.2236
      2.426        30.     2.2736    0.69293
      2.426        30.     2.2932    0.57042
      2.426        30.      2.311    0.88159
      2.426        30.     2.3327    0.98356
      2.426        30.     2.3485    0.98861
      2.426        30.     2.3661    0.77937
      2.426        30.     2.3877    0.66196
      2.426        30.     2.4035     0.6415
      2.426        30.     2.4192    0.68737
      2.426        30.     2.4429    0.72812
      2.426        30.     2.4625    0.57499
      2.426        30.     2.4782    0.50352
      2.426        30.     2.5038    0.58507
      2.426        30.     2.5176    0.60544
      2.426        30.     2.5393    0.78904
      2.426        30.     2.5589    0.60021
      2.426        30.     2.5767    0.76342
      2.426        30.     2.5965    0.89091
      2.426        30.     2.6182     1.0235
      2.426        30.     2.6358    0.85507
      2.426        30.     2.6555    0.77338
      2.426        30.     2.6773     1.2478
      2.426        30.     2.6972      1.559
      2.426        30.      2.719     1.9824
      2.426        30.     2.7408     2.3139
      2.426        30.     2.7624     2.1251
      2.426        30.     2.7799      1.625
      2.426        30.     2.8013     1.1862
      2.426        30.     2.8189    0.86981
      2.426        30.     2.8426    0.99219
      2.426        30.     2.8662     1.0686
      2.426        30.     2.8859     1.0788
      2.426        30.     2.9079     1.7318
      2.426        30.     2.9296      1.798
      2.426        30.     2.9492     1.7419
      2.426        30.     2.9709     1.6806
      2.426        30.     2.9926     1.9611
      2.426       135.     1.9747     0.6631
      2.426       135.     1.9883    0.54051
      2.426       135.      2.008    0.57094
      2.426       135.     2.0217    0.49427
      2.426       135.     2.0413    0.43286
      2.426       135.     2.0572    0.55517
      2.426       135.     2.0769      0.606
      2.426       135.     2.0964    0.46806
      2.426       135.     2.1122     0.4577
      2.426       135.      2.128    0.50858
      2.426       135.     2.1456    0.46759
      2.426       135.     2.1618    0.76338
      2.426       135.     2.1797    0.89077
      2.426       135.     2.2012     0.7528
      2.426       135.     2.2191     0.9057
      2.426       135.     2.2391     1.1147
      2.426       135.     2.2569     1.2217
      2.426       135.     2.2766     1.1807
      2.426       135.      2.296    0.97131
      2.426       135.     2.3099     1.0987
      2.426       135.       2.33     1.3996
      2.426       135.     2.3512     1.0779
      2.426       135.     2.3648    0.91453
      2.426       135.     2.3882    0.74593
      2.426       135.     2.4056    0.53146
      2.426       135.     2.4233    0.50579
      2.426       135.     2.4411    0.60256
      2.426       135.     2.4627    0.58195
      2.426       135.     2.4804    0.51545
      2.426       135.      2.502    0.50504
      2.426       135.     2.5195    0.36201
      2.426       135.     2.5413    0.47916
      2.426       135.     2.5556    0.80047
      2.426       135.      2.581    0.71859
      2.426       135.     2.5988    0.73373
      2.426       135.     2.6163     0.5907
      2.426       135.     2.6379    0.58539
      2.426       135.     2.6599    0.79439
      2.426       135.     2.6799     1.0595
      2.426       135.     2.7018     1.2226
      2.426       135.      2.719    0.87546
      2.426       135.     2.7366    0.74774
      2.426       135.     2.7581    0.65059
      2.426       135.      2.778    0.79837
      2.426       135.     2.7979    0.93085
      2.426       135.      2.821    0.60407
      2.426       135.     2.8624    0.66491
      2.426       135.       2.88    0.53208
      2.426       135.     2.9035    0.46553
      2.426       135.     2.9252    0.48063
      2.426       135.     2.9469    0.54676
      2.426       135.     2.9691    0.90372
      3.067        30.     1.9826    0.47645
      3.067        30.     2.0062    0.43984
      3.067        30.     2.0216    0.28936
      3.067        30.     2.0353    0.22699
      3.067        30.     2.0571    0.29404
      3.067        30.      2.077    0.43365
      3.067        30.     2.0869    0.43351
      3.067        30.     2.1082    0.27777
      3.067        30.     2.1221    0.31384
      3.067        30.     2.1421    0.50526
      3.067        30.      2.162    0.58788
      3.067        30.     2.1774    0.44777
      3.067        30.      2.199    0.42155
      3.067        30.     2.2176    0.80989
      3.067        30.     2.2353    0.79928
      3.067        30.      2.253    0.81457
      3.067        30.     2.2768    0.87641
      3.067        30.     2.2864    0.77264
      3.067        30.     2.3061    0.79309
      3.067        30.     2.3245     1.1037
      3.067        30.     2.3498    0.97899
      3.067        30.     2.3653    0.83888
      3.067        30.     2.3808    0.75575
      3.067        30.     2.3997    0.35652
      3.067        30.     2.4232    0.29401
      3.067        30.      2.443    0.36627
      3.067        30.     2.4627    0.37635
      3.067        30.     2.4751     0.6456
      3.067        30.     2.5004     1.4484
      3.067        30.     2.5199     1.3963
      3.067        30.     2.5417     1.4322
      3.067        30.     2.5561     1.7481
      3.067        30.     2.5764     1.1053
      3.067        30.     2.5951    0.60763
      3.067        30.     2.6203    0.44146
      3.067        30.     2.6369    0.82983
      3.067        30.     2.6549    0.96429
      3.067        30.     2.6804    0.92247
      3.067        30.     2.6979    0.81342
      3.067        30.     2.7217    0.89598
      3.067        30.     2.7398     1.1082
      3.067        30.     2.7559      1.253
      3.067        30.     2.7798     1.4133
      3.067        30.     2.8005    0.95703
      3.067        30.      2.824     0.8738
      3.067        30.     2.8417    0.86836
      3.067        30.      2.865    0.70741
      3.067        30.     2.8889    0.85733
      3.067        30.     2.9102    0.66532
      3.067        30.     2.9301    0.79975
      3.067        30.     2.9539    0.89267
      3.067        30.      2.974     1.0737
      3.067        30.     2.9909     1.6486
      3.067       135.     1.9862    0.36242
      3.067       135.      2.008    0.43987
      3.067       135.     2.0197    0.34128
      3.067       135.     2.0354    0.32036
      3.067       135.     2.0532    0.37195
      3.067       135.     2.0727     0.2888
      3.067       135.     2.0884     0.2627
      3.067       135.     2.1101    0.25206
      3.067       135.     2.1239    0.31407
      3.067       135.     2.1418     0.3812
      3.067       135.     2.1612    0.25142
      3.067       135.     2.1752     0.3756
      3.067       135.     2.1968    0.31316
      3.067       135.     2.2167    0.44763
      3.067       135.     2.2343     0.3645
      3.067       135.     2.2499    0.31249
      3.067       135.     2.2737     0.3951
      3.067       135.     2.2896    0.50371
      3.067       135.     2.3054    0.49833
      3.067       135.     2.3252    0.57063
      3.067       135.     2.3469    0.59108
      3.067       135.     2.3622    0.37327
      3.067       135.     2.3859    0.40924
      3.067       135.     2.3997    0.41943
      3.067       135.     2.4195    0.45027
      3.067       135.     2.4607    0.41349
      3.067       135.     2.4784      0.377
      3.067       135.     2.5001    0.39227
      3.067       135.     2.5139    0.44909
      3.067       135.     2.5376    0.49025
      3.067       135.     2.5575    0.58845
      3.067       135.     2.5771    0.53639
      3.067       135.     2.5946    0.41181
      3.067       135.     2.6162    0.40636
      3.067       135.     2.6384    0.72215
      3.067       135.     2.6783    0.96518
      3.067       135.     2.6994    0.68512
      3.067       135.      2.719    0.62788
      3.067       135.     2.7371    0.85564
      3.067       135.     2.7606    0.79317
      3.067       135.      2.782    0.64264
      3.067       135.        2.8     0.8134
      3.067       135.     2.8217    0.83385
      3.067       135.     2.8452    0.74547
      3.067       135.      2.886    0.47035
      3.067       135.     2.9036    0.41831
      3.067       135.     2.9256    0.57866
      3.067       135.     2.9475    0.71829
      3.067       135.     2.9675    0.89939
      4.935        30.      1.987     2.2414
      4.935        30.     2.0086     2.1882
      4.935        30.     2.0225     2.3142
      4.935        30.     2.0403     2.4906
      4.935        30.     2.0584     3.0238
      4.935        30.     2.0761     3.1238
      4.935        30.     2.0947     4.4466
      4.935        30.     2.1124     4.4957
      4.935        30.     2.1294     3.2966
      4.935        30.     2.1488     2.8105
      4.935        30.      2.163     3.4459
      4.935        30.     2.1848     3.7494
      4.935        30.     2.2027     4.0787
      4.935        30.     2.2214     5.6817
      4.935        30.     2.2389     5.2978
      4.935        30.     2.2605       5.27
      4.935        30.     2.2758     4.4787
      4.935        30.     2.2935     4.5023
      4.935        30.     2.3119     5.6213
      4.935        30.     2.3317     5.7721
      4.935        30.     2.3517     6.2795
      4.935        30.     2.3695     6.4305
      4.935        30.     2.3909     5.9188
      4.935        30.     2.4102     5.2799
      4.935        30.     2.4279     5.3035
      4.935        30.     2.4473     4.9194
      4.935        30.     2.4694      5.554
      4.935        30.     2.4869     5.2719
      4.935        30.     2.5065      5.168
      4.935        30.     2.5205     5.5232
      4.935        30.     2.5463     5.7243
      4.935        30.     2.5604     6.3342
      4.935        30.     2.5823      6.765
      4.935        30.     2.6038     6.4571
      4.935        30.     2.6231     5.7672
      4.935        30.     2.6448     5.9178
      4.935        30.     2.6628     6.4254
      4.935        30.     2.6826     6.6017
      4.935        30.     2.7024      6.778
      4.935        30.     2.7241     6.8521
      4.935        30.     2.7403     7.5383
      4.935        30.     2.7656     7.0771
      4.935        30.     2.7873     7.2277
      4.935        30.     2.8082     5.9772
      4.935        30.     2.8339     6.1274
      4.935        30.     2.8541      6.915
      4.935        30.     2.8723     7.7793
      4.935        30.     2.8963     8.2863
      4.935        30.     2.9203     8.8952
      4.935        30.     2.9341     9.0466
      4.935        30.     2.9556     8.6623
      4.935        30.      2.977     8.3288
      4.935        30.     2.9968     8.4287
ENDDATA            573
ENDSUBENT          593
SUBENT        F0963003   20090227   20090508   20090508       F035
BIB                  3          3
REACTION   (14-SI-30(D,P)14-SI-31,PAR,DA)
ERR-ANALYS (EN-ERR-DIG) Energy digitizing error
STATUS     (CURVE) Fig.6
ENDBIB               3
COMMON               2          3
EN-ERR-DIG ERR-DIG
MEV        MB/SR
 0.002      0.003
ENDCOMMON            3
DATA                 4        202
E-LVL      ANG        EN         DATA
MEV        ADEG       MEV        MB/SR
         0.        30.     2.0073    0.38074
         0.        30.     2.0251    0.41836
         0.        30.     2.0409    0.44158
         0.        30.     2.0591    0.42172
         0.        30.     2.0772    0.69497
         0.        30.     2.0928     1.0458
         0.        30.     2.1142     1.1409
         0.        30.      2.148    0.60117
         0.        30.     2.1679    0.62732
         0.        30.     2.1834    0.70513
         0.        30.     2.2053    0.71982
         0.        30.     2.2215    0.41545
         0.        30.     2.2383     0.3065
         0.        30.     2.2572    0.46194
         0.        30.     2.2794    0.44502
         0.        30.     2.2954    0.44526
         0.        30.     2.3141    0.64093
         0.        30.     2.3362    0.62975
         0.        30.     2.3503    0.61559
         0.        30.     2.3721    0.65613
         0.        30.      2.392    0.67654
         0.        30.     2.4076    0.45262
         0.        30.     2.4272    0.51038
         0.        30.     2.4433    0.78647
         0.        30.     2.4675    0.76671
         0.        30.     2.4873    0.79861
         0.        30.     2.5069     1.1466
         0.        30.     2.5234      1.075
         0.        30.     2.5433     1.3885
         0.        30.     2.5621     1.8457
         0.        30.     2.5816     1.3517
         0.        30.     2.6031     1.1422
         0.        30.     2.6208     0.9126
         0.        30.     2.6412    0.85256
         0.        30.     2.6625    0.96781
         0.        30.     2.6813     1.1319
         0.        30.     2.7006     1.2385
         0.        30.     2.7222     1.3077
         0.        30.     2.7428     1.5149
         0.        30.     2.7659     1.3544
         0.        30.     2.7913     1.1708
         0.        30.     2.8063      1.036
         0.        30.     2.8156    0.84631
         0.        30.     2.8287    0.69722
         0.        30.     2.8349     1.2318
         0.        30.     2.8564     1.0367
         0.        30.     2.8751     1.2151
         0.        30.     2.8942     1.0717
         0.        30.     2.9155     1.1755
         0.        30.     2.9372    0.93729
         0.        30.     2.9572    0.93758
         0.        30.     2.9777     1.1591
         0.        30.     3.0011    0.96983
         0.       135.     2.0064    0.15766
         0.       135.     2.0222    0.18969
         0.       135.     2.0381    0.21882
         0.       135.     2.0572    0.34338
         0.       135.      2.078    0.52865
         0.       135.     2.0981    0.51449
         0.       135.     2.1126    0.44823
         0.       135.     2.1505    0.46902
         0.       135.      2.164    0.54725
         0.       135.       2.18    0.83939
         0.       135.     2.2042    0.81951
         0.       135.      2.215    0.69828
         0.       135.     2.2396    0.62639
         0.       135.      2.256    0.85495
         0.       135.      2.273     1.2887
         0.       135.     2.2919     1.4537
         0.       135.     2.3127       1.35
         0.       135.     2.3288     1.0439
         0.       135.     2.3501    0.87656
         0.       135.     2.3676    0.95196
         0.       135.     2.3863     1.1314
         0.       135.     2.4088    0.78204
         0.       135.     2.4273     0.7245
         0.       135.     2.4437    0.66694
         0.       135.     2.4637    0.67012
         0.       135.     2.4845     0.5606
         0.       135.     2.5038    0.66782
         0.       135.     2.5246     0.8502
         0.       135.     2.5438     0.9632
         0.       135.     2.5599    0.66864
         0.       135.     2.5775    0.44635
         0.       135.     2.5996      0.438
         0.       135.     2.6231    0.52505
         0.       135.     2.6424    0.62938
         0.       135.     2.6613    0.49382
         0.       135.     2.6825    0.61841
         0.       135.     2.7002    0.66202
         0.       135.     2.7253    0.51787
         0.       135.     2.7421     0.4054
         0.       135.     2.7635    0.21207
         0.       135.     2.7846      0.354
         0.       135.     2.8015    0.50454
         0.       135.     2.8251    0.57136
         0.       135.     2.8461    0.43871
         0.       135.     2.8625    0.38693
         0.       135.     2.8898    0.49716
         0.       135.     2.9064    0.69104
         0.       135.     2.9326    0.67119
      0.752        30.     2.0063    0.53559
      0.752        30.     2.0235    0.41094
      0.752        30.     2.0409    0.48107
      0.752        30.     2.0593    0.64426
      0.752        30.     2.0763    0.54578
      0.752        30.     2.0966    0.52294
      0.752        30.     2.1145    0.53495
      0.752        30.     2.1493    0.46299
      0.752        30.     2.1692    0.66983
      0.752        30.     2.1804    0.75728
      0.752        30.     2.1995    0.44951
      0.752        30.     2.2226    0.34534
      0.752        30.     2.2405    0.15383
      0.752        30.     2.2584    0.17165
      0.752        30.     2.2776    0.25055
      0.752        30.     2.2935    0.26542
      0.752        30.      2.316    0.21938
      0.752        30.     2.3327    0.15577
      0.752        30.     2.3543    0.19983
      0.752        30.     2.3703    0.20598
      0.752        30.     2.3851    0.52899
      0.752        30.      2.409    0.54402
      0.752        30.     2.4291    0.52991
      0.752        30.     2.4449    0.35581
      0.752        30.     2.4677     0.4813
      0.752        30.     2.4846    0.59213
      0.752        30.     2.5013    0.73493
      0.752        30.     2.5229    0.97377
      0.752        30.     2.5425    0.81429
      0.752        30.     2.5634    0.73623
      0.752        30.     2.5796    0.51562
      0.752        30.     2.6049    0.38823
      0.752        30.     2.6217    0.30718
      0.752        30.     2.6447    0.21754
      0.752        30.     2.6635    0.54354
      0.752        30.      2.678     1.0991
      0.752        30.      2.694     1.3001
      0.752        30.     2.7177     1.1319
      0.752        30.     2.7428    0.83011
      0.752        30.     2.7651    0.80442
      0.752        30.     2.7811     1.0053
      0.752        30.      2.802      1.125
      0.752        30.     2.8232     1.2097
      0.752        30.     2.8347     1.4571
      0.752        30.     2.8455     1.3817
      0.752        30.     2.8684    0.89089
      0.752        30.     2.8948    0.25476
      0.752        30.     2.9141    0.32494
      0.752        30.     2.9342    0.32536
      0.752        30.     2.9531    0.84033
      0.752        30.     2.9766    0.89025
      0.752        30.     2.9926     1.3005
      0.752       135.     2.0056    0.22035
      0.752       135.     2.0258    0.20635
      0.752       135.     2.0381    0.17497
      0.752       135.     2.0586    0.12649
      0.752       135.     2.0777    0.23316
      0.752       135.     2.0965    0.37143
      0.752       135.     2.1153    0.28269
      0.752       135.      2.152    0.20578
      0.752       135.      2.166    0.21753
      0.752       135.      2.186    0.21502
      0.752       135.     2.2021    0.20669
      0.752       135.     2.2244    0.17836
      0.752       135.     2.2427    0.14996
      0.752       135.     2.2617    0.27386
      0.752       135.     2.2743      0.208
      0.752       135.     2.2962    0.22277
      0.752       135.     2.3143    0.21735
      0.752       135.     2.3289    0.14866
      0.752       135.     2.3523    0.21805
      0.752       135.     2.3704    0.21263
      0.752       135.     2.3901    0.24747
      0.752       135.     2.4055    0.32533
      0.752       135.     2.4232    0.36014
      0.752       135.     2.4495    0.32901
      0.752       135.     2.4662    0.26322
      0.752       135.     2.4832    0.37273
      0.752       135.     2.5049    0.41335
      0.752       135.     2.5242     0.4999
      0.752       135.     2.5427     0.4399
      0.752       135.     2.5636     0.3512
      0.752       135.     2.5836    0.57282
      0.752       135.     2.6056    0.58759
      0.752       135.     2.6187    0.45565
      0.752       135.     2.6425    0.72044
      0.752       135.      2.663    0.89322
      0.752       135.      2.684     0.7758
      0.752       135.     2.7009    0.68415
      0.752       135.     2.7273    0.64728
      0.752       135.     2.7446     0.4953
      0.752       135.     2.7621    0.33758
      0.752       135.     2.7873    0.20011
      0.752       135.      2.805    0.23779
      0.752       135.     2.8282    0.33591
      0.752       135.     2.8485    0.31042
      0.752       135.     2.8621    0.35377
      0.752       135.     2.8907    0.52382
      0.752       135.     2.9077    0.40919
      0.752       135.     2.9325    0.32631
      0.752       135.     2.9459    0.39552
ENDDATA            204
ENDSUBENT          216
SUBENT        F0963004   20090227   20090508   20090508       F035
BIB                  4         13
REACTION   (14-SI-28(D,P)14-SI-29,PAR,SIG)
SAMPLE     The thickness of the target was measured by
           weighing the amount of silicon deposited on thin
           aluminum strips which were placed in the evaporation
           chamber so as to receive a coating of silicon equal to
           that received by the target.
           The target had a thickness of 13+-2 mu-g/cm2 and the
           mass was assumed to be pure natural silicon.
           The error assigned includes an estimate of the
           uncertainty  in the uniformity of the deposited layer.
ERR-ANALYS (EN-ERR-DIG) Energy digitizing error
           (DATA-ERR1)   Error from the graphic bars
STATUS     (CURVE) Fig.7
ENDBIB              13
COMMON               2          3
EN-ERR-DIG ERR-DIG
MEV        MB
 0.001      0.08
ENDCOMMON            3
DATA                 4         81
E-LVL      EN         DATA       DATA-ERR1
MEV        MEV        MB         MB
         0.     2.0113      4.929    0.89588
         0.     2.0608     8.2171    0.67182
         0.     2.1046     7.3255    0.52239
         0.     2.2774     9.4307    0.67164
         0.     2.3885     13.396    0.59702
         0.     2.4387     5.4155    0.59701
         0.     2.4739     13.702     0.5972
         0.     2.5458      8.858    0.67164
         0.     2.6434     6.3295    0.59701
         0.     2.7267     9.7699    0.74609
         0.     2.7523      13.28    0.37313
         0.     2.7882     11.417    0.52239
         0.     2.9431     14.491      0.672
         0.     3.0047     13.676    0.59702
      1.273     2.0084     17.989    0.52257
      1.273     2.0568     7.3212    0.74627
      1.273     2.1063     11.206    0.52257
      1.273     2.2771     14.281    0.67164
      1.273     2.3907     10.038    0.52239
      1.273     2.4425     7.4307    0.52275
      1.273     2.4722     10.344    0.52257
      1.273     2.5474     15.351    0.59702
      1.273     2.6446     17.748    0.82089
      1.273     2.7265     12.755    0.44776
      1.273     2.7501     15.817    0.59702
      1.273     2.7874     23.507    0.67164
      1.273     3.0024     18.452    0.44758
      2.028     2.0069     8.5865    0.82086
      2.028     2.0588     5.9806    0.67138
      2.028      2.104     13.075    0.67161
      2.028     2.2755     6.1547    0.52259
      2.028     2.3925     10.198    0.59722
      2.028     2.4403     8.3378    0.52259
      2.028     2.4737     13.715    0.59722
      2.028     2.5456     10.215    0.52236
      2.028     2.6464     16.719    0.52236
      2.028      2.726     15.982    0.37312
      2.028     2.7496     19.194    0.89548
      2.028     2.7856     16.288    0.44774
      2.028     2.9408     14.365    0.67184
      2.028      3.004     19.895    0.52236
      2.426     2.0089     8.2882    0.67161
      2.426     2.0587     7.2492    0.52236
      2.426     2.1086     5.1655    0.52259
      2.426     2.2751     11.602    0.52259
      2.426     2.3905     10.496    0.52236
      2.426     2.4424     7.2933    0.59699
      2.426     2.4741     8.5655    0.52236
      2.426     2.5457     7.9021    0.52236
      2.426     2.6451     8.6598    0.59722
      2.426     2.7261     15.087    0.44774
      2.426     2.7518     16.433    0.52236
      2.426     2.7858     14.571    0.59676
      2.426     2.9412     10.186    0.52214
      2.426     3.0045      13.85    0.59699
      3.067     1.9993     4.8889     0.4582
      3.067      2.055     4.7416    0.45801
      3.067     2.0988     3.4482    0.61068
      3.067     2.2696     6.5182    0.68682
      3.067      2.383     5.2316    0.68682
      3.067     2.4348     3.9389    0.68701
      3.067     2.4685     4.9345    0.53473
      3.067     2.5437     10.285    0.76354
      3.067     2.6392     9.2259    0.68701
      3.067     2.7248     7.0205    0.68701
      3.067     2.7465     9.9234    0.76334
      3.067     2.7824     9.0108    0.68682
      3.067     2.9376     6.4306    0.53434
      3.067      3.001     10.177    0.53415
      4.935     2.0013     11.763     1.0691
      4.935     2.0569     13.606     0.9164
      4.935     2.1005     15.294     1.0691
      4.935     2.2674     18.379     1.2214
      4.935     2.4662     18.876     1.2217
      4.935     2.5436     25.151     1.3744
      4.935      2.639     23.032     1.3744
      4.935     2.7245     23.507     1.0687
      4.935     2.7483      24.58     1.2217
      4.935     2.7822     23.976     1.0687
      4.935      2.935     30.876     1.0687
      4.935     2.9966      31.04     1.0691
ENDDATA             83
ENDSUBENT          105
SUBENT        F0963005   20090227   20090508   20090508       F035
BIB                  4         12
REACTION   (14-SI-28(D,P)14-SI-29,PAR,DA)
SAMPLE     The thickness of the target was measured by
           weighing the amount of silicon deposited on thin
           aluminum strips which were placed in the evaporation
           chamber so as to receive a coating of silicon equal to
           that received by the target. The weighing procedure
           gave results reproducible to +-1 mu-g/cm2. The error
           assigned includes an estimate of the uncertainty in
           the uniformity of the deposited layer.
ERR-ANALYS (ANG-ERR-D)  Angle digitizing error
           (DATA-ERR1)  Error from the graphic bars
STATUS     (CURVE) Fig.16-18,20,21,23-25
ENDBIB              12
COMMON               2          3
ANG-ERR-D  ERR-DIG
ADEG       MB/SR
 0.92       0.006
ENDCOMMON            3
DATA                 5        238
E-LVL      EN         ANG-CM     DATA-CM    DATA-ERR1
MEV        MEV        ADEG       MB/SR      MB/SR
         0.      2.276     9.5785     1.0137
         0.      2.276     20.408    0.57301
         0.      2.276     30.534    0.24715
         0.      2.276     40.638    0.32129
         0.      2.276     50.728    0.63987
         0.      2.276     60.814     1.0177
         0.      2.276     71.254     1.3141
         0.      2.276     81.358     1.3808
         0.      2.276     91.473     1.2475
         0.      2.276      100.9    0.94388
         0.      2.276     110.67     0.6958
         0.      2.276     121.15     0.4218
         0.      2.276     130.22    0.23667
         0.      2.276     140.33    0.22563
         0.      2.276     150.08    0.32198
         0.      2.276     159.83    0.50352
         0.      2.276     169.92    0.77025
         0.      2.643     10.213     1.4868
         0.      2.643     21.073    0.81369
         0.      2.643     31.464    0.31811
         0.      2.643     40.823    0.31519
         0.      2.643     51.111    0.47176
         0.      2.643     61.693    0.70444
         0.      2.643     72.046    0.76681
         0.      2.643     82.128    0.72047
         0.      2.643     91.307    0.47479
         0.      2.643     101.81    0.32341
         0.      2.643     111.25    0.20094
         0.      2.643     120.96     0.1908
         0.      2.643     131.29     0.2894
         0.      2.643     141.24    0.42421
         0.      2.643     151.11    0.68219
         0.      2.643     160.99    0.93293
         0.      2.643     170.23     1.1039
         0.      3.001     11.481     2.5528 6.6472E-02
         0.      3.001     21.075      1.374 2.2135E-02
         0.      3.001      31.23    0.51265 4.4202E-02
         0.      3.001     41.743    0.44089 4.4337E-02
         0.      3.001     51.665     0.9298 4.4269E-02
         0.      3.001     62.596     1.5075 5.1782E-02
         0.      3.001     73.306     1.7899 7.3783E-02
         0.      3.001     82.463      1.622 3.6959E-02
         0.      3.001     92.059     1.2475 3.6891E-02
         0.      3.001     101.98    0.92473 5.1648E-02
         0.      3.001     111.53    0.65355 3.6891E-02
         0.      3.001     122.06    0.53751 4.4337E-02
         0.      3.001     131.21    0.40645 3.6891E-02
         0.      3.001     140.95    0.49687 4.4269E-02
         0.      3.001     151.16     1.1334 3.6891E-02
         0.      3.001      160.3      1.814 5.1648E-02
         0.      3.001     171.19     2.4802 4.4270E-02
      1.273      2.440     10.116    0.36226
      1.273      2.440    20.398    0.49768
      1.273      2.440     30.715    0.67854
      1.273      2.440     40.703    0.88594
      1.273      2.440     50.572    0.94185
      1.273      2.440     61.065    0.89923
      1.273      2.440     71.178    0.81877
      1.273      2.440     81.246     0.6815
      1.273      2.440     91.365    0.60861
      1.273      2.440     100.72    0.45626
      1.273      2.440      111.2    0.39848
      1.273      2.440     120.31     0.3825
      1.273      2.440     130.14    0.38918
      1.273      2.440     140.35     0.4337
      1.273      2.440     149.84    0.44798
      1.273      2.440     159.68    0.46602
      1.273      2.440     169.22    0.54848
      1.273      2.750     9.1511     1.5341
      1.273      2.750     19.053     1.5292
      1.273      2.750     29.594       1.46
      1.273      2.750     39.416     1.3795
      1.273      2.750     49.495     1.2085
      1.273      2.750     59.265      1.079
      1.273      2.750     70.558     1.0512
      1.273      2.750     80.814     1.0462
      1.273      2.750     91.821     1.0826
      1.273      2.750      101.7      1.055
      1.273      2.750     111.14    0.94823
      1.273      2.750     120.85    0.76216
      1.273      2.750     130.65    0.65909
      1.273      2.750     140.54    0.65034
      1.273      2.750     150.17     0.7171
      1.273      2.750     160.55    0.83282
      1.273      2.750     170.59    0.95235
      1.273      2.938     9.5616     1.2548
      1.273      2.938       19.6     1.3782
      1.273      2.938     29.723     1.5807
      1.273      2.938     40.272      1.519
      1.273      2.938     50.134     1.4763
      1.273      2.938     60.607      1.343
      1.273      2.938      71.39     1.1681
      1.273      2.938     81.256     1.1292
      1.273      2.938     91.508     1.1204
      1.273      2.938     101.39     1.0966
      1.273      2.938     111.31     1.1105
      1.273      2.938      120.5      1.098
      1.273      2.938     131.48     1.1118
      1.273      2.938     140.91    0.99745
      1.273      2.938     150.71    0.89816
      1.273      2.938     160.76    0.69695
      1.273      2.938     170.87    0.55234
      2.028      2.276     10.051    0.27894
      2.028      2.276     20.294    0.36512
      2.028      2.276     29.865    0.48924
      2.028      2.276     40.127    0.59814
      2.028      2.276     50.706    0.66535
      2.028      2.276     60.503    0.63037
      2.028      2.276     70.628    0.56505
      2.028      2.276     80.039    0.48466
      2.028      2.276     90.857    0.40792
      2.028      2.276     101.01    0.38048
      2.028      2.276     111.19    0.38334
      2.028      2.276       120.    0.43556
      2.028      2.276     130.18    0.43841
      2.028      2.276     140.06    0.50948
      2.028      2.276      149.2    0.53515
      2.028      2.276      160.1    0.56067
      2.028      2.276     168.92    0.61668
      3.067      2.440     9.7889    0.13086
      3.067      2.440     20.499    0.20881
      3.067      2.440     30.537    0.29941
      3.067      2.440     40.557    0.38243
      3.067      2.440     50.113    0.41749
      3.067      2.440     60.235    0.39446
      3.067      2.440     70.333    0.36132
      3.067      2.440      81.15    0.33575
      3.067      2.440     91.281     0.3165
      3.067      2.440     100.76       0.32
      3.067      2.440     110.23    0.31718
      3.067      2.440     120.77    0.32065
      3.067      2.440     130.63     0.3355
      3.067      2.440     140.51    0.35919
      3.067      2.440     150.68    0.35635
      3.067      2.440     159.84    0.37501
      3.067      2.440      169.1    0.43154
      3.067      2.726     10.639     2.0244
      3.067      2.726     20.421     2.1963
      3.067      2.726     30.209     2.4431
      3.067      2.726     41.366     2.3677
      3.067      2.726     50.768     2.1726
      3.067      2.726     61.192     1.6853
      3.067      2.726     70.918     1.2055
      3.067      2.726     80.657    0.86808
      3.067      2.726     90.771    0.83772
      3.067      2.726     101.25    0.97214
      3.067      2.726     111.03      1.159
      3.067      2.726     120.11      1.286
      3.067      2.726     130.59     1.3905
      3.067      2.726     141.06       1.45
      3.067      2.726     149.43     1.4422
      3.067      2.726     159.53     1.3294
      3.067      2.726     169.29     1.1867
      3.067      2.785     10.274    0.91856
      3.067      2.785     20.431     1.1543
      3.067      2.785     30.604     1.4912
      3.067      2.785      40.73     1.5472
      3.067      2.785     51.528     1.4571
      3.067      2.785     61.255     1.2172
      3.067      2.785     71.329    0.96605
      3.067      2.785      81.42    0.81604
      3.067      2.785     91.537    0.82334
      3.067      2.785     101.32    0.93925
      3.067      2.785     111.11     1.0701
      3.067      2.785     121.24     1.1486
      3.067      2.785     130.67     1.2009
      3.067      2.785     141.13     1.1819
      3.067      2.785      150.2     1.1443
      3.067      2.785      159.6     1.0617
      3.067      2.785     169.36     1.0091
      4.935      2.062     10.246     1.6562
      4.935      2.062     20.559     2.2213
      4.935      2.062     30.453     2.5418
      4.935      2.062     41.024     2.7802
      4.935      2.062     51.223     2.9372
      4.935      2.062     62.034     2.7837
      4.935      2.062     72.169     2.7123
      4.935      2.062     82.303     2.6408
      4.935      2.062     92.774     2.5201
      4.935      2.062     101.93     2.6941
      4.935      2.062     112.47     2.8183
      4.935      2.062     122.65     2.9264
      4.935      2.062     131.77     2.9698
      4.935      2.062     141.57     2.9638
      4.935      2.062     151.03     2.9744
      4.935      2.062     160.13     2.9688
      4.935      2.062     170.64     2.9951
      4.935      2.472     11.009     2.9047
      4.935      2.472     20.901     3.7932
      4.935      2.472      31.15     4.8159
      4.935      2.472     40.676      5.285
      4.935      2.472     52.642     5.0324
      4.935      2.472     62.138     4.6457
      4.935      2.472     72.338     4.2254
      4.935      2.472     82.195     4.0904
      4.935      2.472     92.747     3.7037
      4.935      2.472     102.59     3.2666
      4.935      2.472      112.8     3.0477
      4.935      2.472     122.66     2.9295    0.15098
      4.935      2.472     132.87      2.828    0.18454
      4.935      2.472     142.03     2.8441    0.18454
      4.935      2.472     151.53     2.8265    0.15096
      4.935      2.472     161.75     2.9432    0.28521
      4.935      2.472     170.56     3.0264    0.28527
      4.935      2.643     10.079     2.3093
      4.935      2.643     21.094      4.131
      4.935      2.643     31.309      5.594
      4.935      2.643     41.752     5.3754
      4.935      2.643     51.749     4.8143
      4.935      2.643     62.091     4.2366
      4.935      2.643     72.198     4.0672
      4.935      2.643     82.788     4.3709
      4.935      2.643     92.654     4.5935
      4.935      2.643     102.47     4.6201
      4.935      2.643     112.33     4.8427     0.2283
      4.935      2.643      122.1     4.7224    0.30991
      4.935      2.643     132.54     4.4875    0.35887
      4.935      2.643     141.24     4.3026    0.45702
      4.935      2.643     152.03     4.0512    0.50577
      4.935      2.643      161.1     3.9477    0.63656
      4.935      2.643     170.55     3.9256    0.71838
      4.935      3.001     10.704     4.2806
      4.935      3.001     20.989     6.3101
      4.935      3.001     31.598     7.5509
      4.935      3.001     41.445     7.1474
      4.935      3.001     51.294     6.7607
      4.935      3.001     61.861     6.8102
      4.935      3.001     72.088     7.1785
      4.935      3.001     82.658     7.2952
      4.935      3.001     93.209     6.8749
      4.935      3.001     102.69     6.0855
      4.935      3.001     112.53     5.4303
      4.935      3.001     122.38     5.0101
      4.935      3.001     132.58     4.6234    0.20129
      4.935      3.001     141.74     4.6562    0.25171
      4.935      3.001      151.6     4.7393    0.36911
      4.935      3.001     161.47     4.8392    0.40264
      4.935      3.001     170.63     4.9224    0.43625
ENDDATA            240
ENDSUBENT          261
SUBENT        F0963006   20090227   20090508   20090508       F035
BIB                  3          4
REACTION   (14-SI-30(D,P)14-SI-31,PAR,DA)
ERR-ANALYS (ANG-ERR-D) Angle digitizing error
           (DATA-ERR1) Error from the graphic bars
STATUS     (CURVE) Fig.19,22
ENDBIB               4
COMMON               2          3
ANG-ERR-D  ERR-DIG
ADEG       MB/SR
 0.526      0.003
ENDCOMMON            3
DATA                 5         50
E-LVL      EN         ANG-CM     DATA-CM    DATA-ERR1
MEV        MEV        ADEG       MB/SR      MB/SR
      0.752      2.938     9.1498     1.0379
      0.752      2.938     20.094    0.44187
      0.752      2.938     30.568    0.23345
      0.752      2.938     41.018    0.56329
      0.752      2.938     51.122    0.90511
      0.752      2.938     60.838     1.1895
      0.752      2.938     70.998     1.0457
      0.752      2.938     80.817    0.92102
      0.752      2.938     91.583    0.61211
      0.752      2.938     101.72    0.42762
      0.752      2.938     110.88    0.38431
      0.752      2.938     121.49    0.39597
      0.752      2.938     131.41    0.43875
      0.752      2.938     141.34    0.49111
      0.752      2.938     151.26    0.54346
      0.752      2.938     160.51    0.63411
      0.752      2.938     170.49    0.77019
      3.533      2.938     9.7962     1.5116    0.42028
      3.533      2.938      20.79     3.3891    0.54287
      3.533      2.938     30.925     6.4396    0.24528
      3.533      2.938     41.762      6.846    0.22788
      3.533      2.938     61.398     4.4707    0.36775
      3.533      2.938     71.255     4.3163     0.4378
      3.533      2.938     82.169     4.1448    0.52535
      3.533      2.938     92.024     4.0079    0.64794
      3.533      2.938     102.26     3.6611    0.63031
      3.533      2.938     112.46     3.5769    0.59552
      3.533      2.938       122.     3.1072    0.64782
      3.533      2.938     132.58     2.8479    0.59563
      3.533      2.938      141.4     2.5356    0.40277
      3.533      2.938     150.56      2.346    0.42051
      3.533      2.938     160.41     2.2792    0.26268
      3.533      2.938      170.6      2.265     0.2803
      3.533      3.001     9.7684     1.7218     0.4204
      3.533      3.001      19.99     4.1244    0.50773
      3.533      3.001     31.581     6.7901    0.24528
      3.533      3.001     41.367     7.1786    0.24528
      3.533      3.001     51.767     5.5708    0.28042
      3.533      3.001     61.694     4.8911    0.33272
      3.533      3.001     71.544     4.7893    0.36752
      3.533      3.001     82.051     5.0379    0.50784
      3.533      3.001      92.18     5.4791    0.47293
      3.533      3.001     102.14     4.5717    0.50784
      3.533      3.001     112.41     3.8921    0.47305
      3.533      3.001     122.28     3.6852    0.52535
      3.533      3.001      132.2      3.058    0.43791
      3.533      3.001     142.06     2.9036    0.43803
      3.533      3.001     150.49     2.8713    0.45554
      3.533      3.001     159.97      2.927    0.38514
      3.533      3.001     170.51     2.8954    0.36786
ENDDATA             52
ENDSUBENT           65
SUBENT        F0963007   20090227   20090508   20090508       F035
BIB                  4         11
REACTION   (14-SI-28(D,P)14-SI-29,PAR,DA,,REL)
SAMPLE     The thickness of the target was measured by
           weighing the amount of silicon deposited on thin
           aluminum strips which were placed in the evaporation
           chamber so as to receive a coating of silicon equal to
           that received by the target. The weighing procedure
           gave results reproducible to +-1 mu-g/cm2. The error
           assigned includes an estimate of the uncertainty in
           the uniformity of the deposited layer.
ERR-ANALYS (ANG-ERR-D) Angle digitizing error
STATUS     (CURVE) Fig.26,27
ENDBIB              11
COMMON               2          3
ANG-ERR-D  ERR-DIG
ADEG       ARB-UNITS
 0.25       0.013
ENDCOMMON            3
DATA                 4         25
E-LVL      EN         ANG-CM     DATA-CM
MEV        MEV        ADEG       ARB-UNITS
      1.273      2.643      10.11     7.1059
      1.273      2.643     21.284     7.2801
      1.273      2.643     31.053     7.3137
      1.273      2.643     41.799     6.2556
      1.273      2.643     52.199     5.2503
      1.273      2.643     61.883     3.9635
      1.273      2.643     71.935     2.9584
      1.273      2.643     82.368     2.4637
      1.273      2.643      91.76     2.0572
      1.273      2.643     101.87     1.9147
      1.273      2.643     112.34     2.0186
      1.273      2.643     121.41     2.0171
      1.273      2.643     131.18     2.0683
      1.273      2.643     140.96     2.2956
      1.273      2.643     151.11     2.7869
      1.273      2.643     161.26     3.3134
      1.273      2.643     170.35     3.6112
      4.935      2.938      10.61     2.3658
      4.935      2.938     21.226     3.6931
      4.935      2.938     31.125     4.8281
      4.935      2.938      40.53     4.4584
      4.935      2.938     50.973     3.9834
      4.935      2.938     61.765     3.4909
      4.935      2.938     72.229     3.2259
      4.935      2.938     80.969     3.2238
ENDDATA             27
ENDSUBENT           47
SUBENT        F0963008   20090227   20090508   20090508       F035
BIB                  3          3
REACTION   (14-SI-30(D,P)14-SI-31,PAR,DA,,REL/AV)
ERR-ANALYS (ANG-ERR-D) Angle digitizing error
STATUS     (CURVE) Fig.27
ENDBIB               3
COMMON               5          3
E-LVL      EN-MIN     EN-MAX     ANG-ERR-D  ERR-DIG
MEV        MEV        MEV        ADEG       ARB-UNITS
  3.533      2.938      3.001     0.29       0.013
ENDCOMMON            3
DATA                 2          8
ANG-CM     DATA-CM
ADEG       ARB-UNITS
     9.7063     1.7229
     20.379     3.8765
     30.456     7.0736
     40.576     7.1233
     51.249     5.6949
     61.275     4.7882
     71.727      4.664
     81.838     4.6268
ENDDATA             10
ENDSUBENT           22
ENDENTRY             8
