ENTRY            F0998   20090302   20090508   20090508       F035
SUBENT        F0998001   20090302   20090508   20090508       F035
BIB                 14         25
TITLE      Measurement of the excitation function for the
           7Li(t,p)9Li reaction using detection on delayed
           neutrons.
AUTHOR     (L.N.Generalov,S.N.Abramovich,Yu.I.Vinogradov)
INSTITUTE  (4RUSEPA)
REFERENCE  (J,IZV,73,167,2009)
           (J,BAS,73,156,2009)
FACILITY   (VDGT)
PART-DET   (N)
DETECTOR   (D4PI) Neutrons were detected by the 4-pi detector with
           SNM-18 3He counters enclosed in a polyethylene
           moderator shaped as a cylinder 420 mm long and 520 mm
           in diameter.
METHOD     (ACTIV)
           (BCINT)
MONITOR    (3-LI-7(P,N)4-BE-7,,SIG)
MONIT-REF  (,K.K.Seharan+,J,NIM,133,253,1976)
SAMPLE     The target was a LiF layer (210 mu-g/cm2) of natural
           isotope composition on a tantalum backing 300 mu-m
           thick. The energy thickness of the layer in the triton
           energy range under study was 20-28 keV.
ERR-ANALYS (ERR-SYS) Systematic error
           (ERR-S)   Statistical error is about 1.5%.
STATUS     (APRVD) Entry approved by L.N.Generalov (4.03.2009)
HISTORY    (20090302C)
ENDBIB              25
COMMON               4          3
ERR-SYS    EN-NRM     MONIT      MONIT-ERR
PER-CENT   MEV        MB         MB
 11.2       2.890      287.4      14.4
ENDCOMMON            3
ENDSUBENT           32
SUBENT        F0998002   20090302   20090508   20090508       F035
BIB                  3          3
REACTION   (3-LI-7(T,P)3-LI-9,,SIG)
DECAY-DATA (3-LI-9,178.3MSEC,B-)
STATUS     (TABLE) Data were presented by author (Fig.4)
ENDBIB               3
NOCOMMON             0          0
DATA                 3        237
EN         DATA       ERR-S
MEV        MB         MB
      4.983   22.85627    0.34284
      4.983    22.9025    0.34354
      5.033    23.3699    0.35055
      5.033   23.00502    0.34508
      5.083   24.20443    0.36307
      5.083   23.98814    0.35982
      5.133   24.88474    0.37327
      5.133   24.18656     0.3628
      5.183   24.14033    0.36211
      5.183   24.24306    0.36365
      5.243   23.21581    0.34824
      5.243    24.1917    0.36288
      5.282   24.34578    0.36519
      5.282    24.1917    0.36288
      5.333    24.1917    0.36288
      5.333   24.70532    0.37058
      5.383   24.96213    0.37443
      5.383   25.16788    0.37752
      5.433   24.38139    0.36572
      5.433   23.98814    0.35982
      5.483   24.85328     0.3728
      5.533   24.18476    0.36277
      5.582   23.06172    0.34593
      5.633   20.64553    0.30968
      5.633    21.2354    0.31853
      5.683   19.47758    0.29216
      5.683   20.18543    0.30278
      5.734   17.00096    0.25501
      5.734   17.82276    0.26734
      5.783   19.36363    0.29045
      5.783   20.05566    0.30083
      5.834   20.54496    0.30817
      5.834   21.23933    0.31859
      5.884   20.73204    0.31098
      5.884   21.46949    0.32204
      5.934    22.5481    0.33822
      5.934    21.3154    0.31973
      5.984    21.9677    0.32952
      5.984   21.16131    0.31742
      6.033   23.31853    0.34978
      6.033   21.98311    0.32975
      6.084    23.3699    0.35055
      6.084   22.80491    0.34207
      6.184   23.11309     0.3467
      6.184   23.98625    0.35979
      6.234   22.90764    0.34361
      6.234   22.59946    0.33899
      6.283   24.03761    0.36056
      6.283   24.29442    0.36442
      6.333   24.29442    0.36442
      6.333   24.75668    0.37135
      6.384   25.16788    0.37752
      6.384   25.56113    0.38342
      6.434   24.80804    0.37212
      6.434    24.6026    0.36904
      6.484   24.91077    0.37366
      6.484   25.21894    0.37828
      6.484   25.57848    0.38368
      6.484   24.65396    0.36981
      6.533   25.96884    0.38953
      6.533   25.24976    0.37875
      6.583   25.16758    0.37751
      6.583   25.42439    0.38137
      6.634   24.80804    0.37212
      6.634   26.34892    0.39523
      6.684   24.75668    0.37135
      6.684    23.7808    0.35671
      6.784   25.57848    0.38368
      6.784    26.0921    0.39138
      6.884   25.36451    0.38047
      6.884   25.75776    0.38637
      6.966   25.75776    0.38637
      6.966   25.36451    0.38047
      6.984   26.26898    0.39403
      6.984   25.57848    0.38368
      7.066   25.36451    0.38047
      7.066   25.56113    0.38342
      7.167   26.74088    0.40111
      7.167     26.151    0.39227
      7.235   25.16788    0.37752
      7.235   24.57801    0.36867
      7.267     26.151    0.39227
      7.267   26.74088    0.40111
      7.367   26.54425    0.39816
      7.367   27.13412    0.40701
      7.467   26.74088    0.40111
      7.467   26.54425    0.39816
      7.485   25.78393    0.38676
      7.485   25.62984    0.38445
      7.568   28.31387    0.42471
      7.568   28.11724    0.42176
      7.668   29.10036    0.43651
      7.668   29.49361     0.4424
      7.735   28.70712    0.43061
      7.735    29.3793    0.44069
      7.768   30.86998    0.46305
      7.768   31.45985     0.4719
      7.868   32.04973    0.48075
      7.868   31.45985     0.4719
      7.968    32.6396    0.48959
      7.984   31.94742    0.47921
      7.984   32.30696     0.4846
      8.035   32.66649       0.49
      8.035     32.384    0.48576
      8.069   33.62272    0.50434
      8.069   34.60584    0.51909
      8.085   32.80004      0.492
      8.085   31.94742    0.47921
      8.119   33.62272    0.50434
      8.119   33.81934    0.50729
      8.135   32.87194    0.49308
      8.135   33.23148    0.49847
      8.169   34.60584    0.51909
      8.169   34.40922    0.51614
      8.185    34.9778    0.52467
      8.185   33.48829    0.50232
      8.219   34.80246    0.52204
      8.219   35.19571    0.52794
      8.235   33.53965    0.50309
      8.235   34.20737    0.51311
      8.269   34.40922    0.51614
      8.269   33.62272    0.50434
      8.319   33.22947    0.49844
      8.319   32.04973    0.48075
      8.369   32.83622    0.49254
      8.369   33.81934    0.50729
      8.419   34.60584    0.51909
      8.419   35.19571    0.52794
      8.469   36.57208    0.54858
      8.519   35.58896    0.53383
      8.519   36.17883    0.54268
      8.569   36.17883    0.54268
      8.569   36.17883    0.54268
      8.619   36.17883    0.54268
      8.619   35.78558    0.53678
       8.72   35.78558    0.53678
       8.72   35.78558    0.53678
       8.77   35.19571    0.52794
       8.77   35.19571    0.52794
       8.82   35.58896    0.53383
       8.82   35.19571    0.52794
       8.87   35.19571    0.52794
       8.87   35.98221    0.53973
       8.92   34.60584    0.51909
       8.92   34.80246    0.52204
       8.97   34.40922    0.51614
       8.97   34.21259    0.51319
       9.02   34.01597    0.51024
       9.02   34.80246    0.52204
       9.07   33.42609    0.50139
       9.07   33.62272    0.50434
       9.12   32.83622    0.49254
       9.12   33.22947    0.49844
       9.17   31.06661      0.466
       9.17   31.65648    0.47485
      9.221   30.67336     0.4601
      9.221   31.45985     0.4719
      9.271    31.8531     0.4778
      9.271   32.24635     0.4837
      9.322   32.44297    0.48664
      9.322   32.04973    0.48075
      9.371   31.45985     0.4719
      9.371   32.04973    0.48075
      9.421   31.45985     0.4719
      9.421   31.06661      0.466
      9.471   31.06661      0.466
      9.471   30.47673    0.45715
      9.521   30.28011     0.4542
      9.521   30.47673    0.45715
      9.571   30.08349    0.45125
      9.571   29.49361     0.4424
      9.621   29.49361     0.4424
      9.621   29.10036    0.43651
      9.671   29.29699    0.43945
      9.671   29.10036    0.43651
      9.721   29.10036    0.43651
      9.721   29.29699    0.43945
      9.771   28.90374    0.43356
      9.771   28.51049    0.42766
      9.821   29.88686     0.4483
      9.821   29.88686     0.4483
      9.871   28.70712    0.43061
      9.871   27.52737    0.41291
      9.921   28.31387    0.42471
      9.921   28.51049    0.42766
      9.971   27.33075    0.40996
      9.971   28.31387    0.42471
     10.022   27.33075    0.40996
     10.022   27.52737    0.41291
     10.072   28.11724    0.42176
     10.072   27.33075    0.40996
     10.122   27.33075    0.40996
     10.122   27.52737    0.41291
     10.172   27.92062    0.41881
     10.172   27.92062    0.41881
     10.222   27.33075    0.40996
     10.222    26.9375    0.40406
     10.272     27.724    0.41586
     10.272   27.52737    0.41291
     10.322   26.34763    0.39521
     10.322    26.9375    0.40406
     10.372   25.75776    0.38637
     10.372   27.52737    0.41291
     10.422   27.13412    0.40701
     10.422   26.74088    0.40111
     10.472   26.54425    0.39816
     10.472   26.34763    0.39521
     10.522     26.151    0.39227
     10.522     26.151    0.39227
     10.572     26.151    0.39227
     10.572   25.56113    0.38342
     10.622   25.56113    0.38342
     10.622     26.151    0.39227
     10.672   24.57801    0.36867
     10.672   26.54425    0.39816
     10.672   25.56113    0.38342
     10.722     26.151    0.39227
     10.722    26.9375    0.40406
     10.772   26.74088    0.40111
     10.772   26.74088    0.40111
     10.823   26.34763    0.39521
     10.823     26.151    0.39227
     10.872     26.151    0.39227
     10.872   25.75776    0.38637
     10.923   23.98814    0.35982
     10.923   24.18476    0.36277
     10.973   26.34763    0.39521
     10.973   26.34763    0.39521
     11.024     26.151    0.39227
     11.024   25.75776    0.38637
     11.073   24.97126    0.37457
     11.073   25.16788    0.37752
     11.123   25.56113    0.38342
     11.123   25.36451    0.38047
     11.172   25.75776    0.38637
     11.222   25.16788    0.37752
     11.272   24.97126    0.37457
ENDDATA            239
ENDSUBENT          247
ENDENTRY             2
