ENTRY            20412   19840110              20050926       0000
SUBENT        20412001   19840110              20050926       0000
BIB                 11         29
INSTITUTE  (2FR CAD)
REFERENCE  (R,EANDC(E)-148,7201) CADARACHE REPORT, DATA GIVEN.
           (T,FORT,,72) THESIS. TABLES.
           (C,72VIENNA,119,7211) R-MATRIX ANALYSIS.
           (C,72VIENNA,113,7211) LI-GLASS, GRAPH.
           (C,66PARIS,1,267,6610)    ASSOCIATED PARTICLE METHOD.
           (C,70HELSINKI,1,253,7006) ASSOCIATED PARTICLE METHOD.
           (P,EANDC(E)-162,4,7504) ABSTRACT.
           (P,EANDC(E)-150U,,7203) ABSTRACT.
AUTHOR     (E.FORT, J.P.MARQUETTE)
TITLE      -STUDY OF THE LI-6(N,A)T CROSS-SECTIONS IN THE ENERGY
            RANGE BETWEEN 20 KEV AND 1700 KEV.- (IN FRENCH)
FACILITY   (VDG  )    CADARACHE 5 MEV VAN DE GRAAFF, PULSED SOURCE
METHOD     (MANGB)    AS NEUTRON DETECTOR, LI-GLASS SCINTILLATOR
            WAS USED RELATIVE TO A FLAT RESPONSE COUNTER WHICH WAS
            CALIBRATED RELATIVE TO MANGANESE SULFATE BATH,
           (TOF  )    TIME OF FLIGHT, TO SEPARATE DIRECT NEUTRONS
            FROM THOSE SCATTERED BY THE TARGET BACKLING.
MONITOR    .ABSOLUTE. THE FLAT RESPONCE COUNTER WAS
            CALIBRATED RELATIVE TO MANGANESE SULFATE BATH.
STATUS     .DATA FROM TABLES  IN THESIS.
HISTORY    (720925C)
           (750430E)
           (801125A) ERR-ANALYS REVISED.
           (801204E)
CORRECTION .CORRECTED FOR SCATTERING BY AIR.
ERR-ANALYS (ERR-T) TOTAL ERROR GIVEN IN TABLES.
           (ERR-1) COUNTER EFFICIENCIES (ABOUT 2.6 PERC.)
           (ERR-2) LI-6 CONCENTRATION (2.5 PERC.). SEE TEXT.
ENDBIB              29
COMMON               2          3
ERR-1      ERR-2
PER-CENT   PER-CENT
 2.6000E+00 2.5000E+00
ENDCOMMON            3
ENDSUBENT           36
SUBENT        20412002   19840110              20050926       0000
BIB                  6         15
REACTION   (3-LI-6(N,T)2-HE-4,,SIG) CROSS SECTION.
INC-SOURCE (P-LI7)    PROTON-LITHIUM 7.
SAMPLE     .= LI-6 GLASS SCINTILLATOR.
           .LI-6 SCINTILLATOR AT 110 DEG FOR INCIDENT PROTON BEAM,
            DISTANCE OF DETECTOR-TARGET VARIES 29 TO 100 CM.
DETECTOR   (GLASD)    LI-6 GLASS SCINTILLATOR NE 905,
            DETECTOR (2) 3. * 26.3 MM, FIXED ON PHOTOCATHODE 56AVP
            2 BF3 COUNTERS AS FLAT RESPONCE COUNTERS IN
            A MONOENERGETIC NEUTRON BEAM.
STATUS     .FROM TABLE 1 OF REPORT EANDC(E)-148'U'.
            SAME AS TABLE 2 IN THESIS.
HISTORY    (720925C)
           (750430E)
           (801125A) REACTION RE-CODED.
           (801204E)
ENDBIB              15
NOCOMMON             0          0
DATA                 4         25
EN         EN-RSL     DATA       ERR-T
MEV        MEV        B          PER-CENT
 1.4000E-02 1.5000E-03 1.2100E+00 3.8000E+00
 1.9000E-02 1.6000E-03 1.0500E+00 3.7000E+00
 2.4300E-02 2.0000E-03 9.5300E-01 3.5000E+00
 3.4300E-02 2.5000E-03 8.6600E-01 3.5000E+00
 3.9600E-02 2.5000E-03 8.7000E-01 3.5000E+00
 4.5600E-02 2.5000E-03 7.6100E-01 3.4000E+00
 5.1000E-02 2.5000E-03 7.1400E-01 3.4000E+00
 5.7500E-02 2.5000E-03 6.9600E-01 3.3000E+00
 6.3000E-02 2.5000E-03 6.5300E-01 3.3000E+00
 6.9000E-02 3.0000E-03 6.1400E-01 3.4000E+00
 8.1500E-02 3.0000E-03 5.8500E-01 3.6000E+00
 8.7500E-02 3.0000E-03 6.8200E-01 3.5000E+00
 9.3400E-02 3.0000E-03 6.2800E-01 3.6000E+00
 9.9400E-02 3.0000E-03 6.3600E-01 3.6000E+00
 1.0540E-01 3.0000E-03 6.6500E-01 3.6000E+00
 1.1150E-01 3.0000E-03 7.1600E-01 3.6000E+00
 1.1750E-01 3.0000E-03 6.7800E-01 3.6000E+00
 1.2360E-01 3.0000E-03 7.6700E-01 3.7000E+00
 1.2970E-01 3.0000E-03 7.4300E-01 3.8000E+00
 1.3580E-01 3.0000E-03 7.4000E-01 3.7000E+00
 1.4370E-01 3.0000E-03 7.7200E-01 3.7000E+00
 1.4800E-01 3.0000E-03 8.7600E-01 3.7000E+00
 1.5400E-01 3.0000E-03 8.8700E-01 3.8000E+00
 1.6240E-01 3.0000E-03 9.0700E-01 4.1000E+00
 1.6800E-01 3.0000E-03 9.7000E-01 4.1000E+00
ENDDATA             27
ENDSUBENT           47
SUBENT        20412003   19840110              20050926       0000
BIB                  6         15
REACTION   (3-LI-6(N,T)2-HE-4,,SIG) CROSS SECTION.
INC-SOURCE (P-LI7)    PROTON-LITHIUM 7.
SAMPLE     .= LI-6 GLASS SCINTILLATOR.
           .LI-6 SCINTILLATOR AT 135 DEG FOR INCIDENT PROTON BEAM,
            DISTANCES OF DETECTOR-TARGET ARE 40 AND 80 CM.
DETECTOR   (GLASD)    LI-6 GLASS SCINTILLATOR NE 905,
            DETECTOR (3) 12.7 * 25.4 MM, FIXED ON PHOTOCATHODE.
            2 BF3 COUNTERS AS FLAT RESPONCE COUNTERS IN
            A MONOENERGETIC NEUTRON BEAM.
STATUS     .FROM TABLE 2 OF REPORT EANDC(E)-148'U'.
            SAME AS TABLE 3 IN THESIS.
HISTORY    (720925C)
           (750430E)
           (801125A) REACTION RE-CODED.
           (801204E)
ENDBIB              15
NOCOMMON             0          0
DATA                 4         20
EN         EN-RSL     DATA       ERR-T
MEV        MEV        B          PER-CENT
 2.1000E-02 1.5000E-03 9.5500E-01 4.7000E+00
 2.5000E-02 2.0000E-03 1.0030E+00 3.2000E+00
 2.9000E-02 2.5000E-03 1.0550E+00 4.7000E+00
 3.3500E-02 2.5000E-03 9.9000E-01 4.7000E+00
 3.8000E-02 2.5000E-03 8.3200E-01 3.2000E+00
 4.2000E-02 2.5000E-03 8.0700E-01 3.4000E+00
 5.1300E-02 2.5000E-03 7.6400E-01 3.4000E+00
 6.0600E-02 2.5000E-03 7.7100E-01 4.7000E+00
 7.0600E-02 3.0000E-03 6.6800E-01 4.1000E+00
 7.5500E-02 3.0000E-03 6.6900E-01 3.2000E+00
 8.0300E-02 3.0000E-03 6.6700E-01 3.9000E+00
 9.0200E-02 3.0000E-03 6.2900E-01 4.9000E+00
 1.0000E-01 3.0000E-03 6.2700E-01 5.1000E+00
 1.1160E-01 3.0000E-03 6.3900E-01 4.6000E+00
 1.1990E-01 3.0000E-03 6.8800E-01 5.0000E+00
 1.4240E-01 3.0000E-03 6.8100E-01 5.6000E+00
 1.5300E-01 3.0000E-03 8.3700E-01 6.5000E+00
 1.5830E-01 3.0000E-03 7.9300E-01 6.5000E+00
 1.6370E-01 3.0000E-03 9.4500E-01 5.6000E+00
 1.7440E-01 3.0000E-03 1.1000E+00 8.4000E+00
ENDDATA             22
ENDSUBENT           42
SUBENT        20412004   19840110              20050926       0000
BIB                  6         16
REACTION   (3-LI-6(N,T)2-HE-4,,SIG) TOTAL CROSS SECTION.
INC-SOURCE (P-LI7)    PROTON-LITHIUM 7.
SAMPLE     .= LI-6 GLASS SCINTILLATOR.
           .LI-6 SCINTILLATOR AT 20 DEG. FOR INCIDENT PROTON BEAM.
            DISTANCE OF DETECTOR-TARGET IS 25 CM.
DETECTOR   (GLASD)    LI-6 GLASS SCINTILLATOR NE 905,
            DETECTOR (1)  0.92 * 44.4 MM, PLACED AT 5.25CM FROM
            PHOTOCATHODE (56AVP).
            2 BF3 COUNTERS AS FLAT RESPONCE COUNTERS IN
            A MONOENERGETIC NEUTRON BEAM.
STATUS     .FROM TABLE 3 OF REPORT EANDC(E)-148'U'.
            SAME AS TABLE 4, PART 1 IN THESIS.
HISTORY    (720925C)
           (750430E)
           (801125A) REACTION RE-CODED.
           (801204E)
ENDBIB              16
NOCOMMON             0          0
DATA                 4         18
EN         EN-RSL     DATA       ERR-T
MEV        MEV        B          PER-CENT
 1.2200E-01 5.0000E-03 6.1000E-01 3.5000E+00
 1.3700E-01 5.0000E-03 7.2000E-01 3.5000E+00
 1.5000E-01 4.9000E-03 7.9500E-01 3.5000E+00
 1.6400E-01 4.8000E-03 9.5700E-01 3.5000E+00
 1.7700E-01 4.7000E-03 1.1660E+00 3.5000E+00
 1.9000E-01 4.6000E-03 1.4770E+00 3.5000E+00
 2.0200E-01 4.5000E-03 1.8500E+00 3.5000E+00
 2.1500E-01 4.4000E-03 2.2640E+00 3.5000E+00
 2.2700E-01 4.3000E-03 2.6700E+00 3.5000E+00
 2.3900E-01 4.2000E-03 2.9520E+00 3.5000E+00
 2.4500E-01 4.1000E-03 2.9660E+00 3.6100E+00
 2.5700E-01 4.0000E-03 2.6100E+00 3.6000E+00
 2.6300E-01 4.0000E-03 2.5250E+00 3.6000E+00
 2.7500E-01 3.9000E-03 2.1910E+00 3.7000E+00
 2.8600E-01 3.8000E-03 1.8530E+00 4.1000E+00
 2.9500E-01 3.7000E-03 1.4570E+00 4.5000E+00
 3.0500E-01 3.6000E-03 1.3310E+00 4.6000E+00
 3.1700E-01 3.6000E-03 1.1850E+00 4.6000E+00
ENDDATA             20
ENDSUBENT           41
SUBENT        20412005   19840110              20050926       0000
BIB                  6         15
REACTION   (3-LI-6(N,T)2-HE-4,,SIG) CROSS SECTION.
INC-SOURCE (P-LI7)    PROTON-LITHIUM 7.
SAMPLE     .= LI-6 GLASS SCINTILLATOR.
           .LI-6 SCINTILLATOR AT 20 DEG. FOR INCIDENT PROTON BEAM.
            DISTANCE OF DETECTOR-TARGET IS 30 CM.
DETECTOR   (GLASD)    LI-6 GLASS SCINTILLATOR NE 905,
            DETECTOR (2) 3. * 26.3 MM, FIXED ON PHOTOCATHODE 56AVP
            2 BF3 COUNTERS AS FLAT RESPONCE COUNTERS IN
            A MONOENERGETIC NEUTRON BEAM.
STATUS     .FROM TABLE 3 OF REPORT EANDC(E)-148'U'.
            SAME AS TABLE 4, PART 2 IN THESIS.
HISTORY    (720925C)
           (750430E)
           (801125A) REACTION RE-CODED.
           (801204E)
ENDBIB              15
NOCOMMON             0          0
DATA                 4         19
EN         EN-RSL     DATA       ERR-T
MEV        MEV        B          PER-CENT
 1.2200E-01 4.0000E-03 6.8800E-01 3.5000E+00
 1.3700E-01 4.0000E-03 7.4300E-01 3.5000E+00
 1.5000E-01 3.9000E-03 8.7700E-01 3.5000E+00
 1.6400E-01 3.9000E-03 9.9800E-01 3.5000E+00
 1.7700E-01 3.8000E-03 1.2250E+00 3.5000E+00
 1.9000E-01 3.8000E-03 1.5120E+00 3.5000E+00
 2.0200E-01 3.7000E-03 1.9230E+00 3.5000E+00
 2.1500E-01 3.7000E-03 2.3340E+00 3.5000E+00
 2.2700E-01 3.6000E-03 2.8000E+00 3.5000E+00
 2.3900E-01 3.6000E-03 3.0920E+00 3.5000E+00
 2.4500E-01 3.5000E-03 3.0340E+00 3.6000E+00
 2.5100E-01 3.5000E-03 2.8240E+00 3.7000E+00
 2.5700E-01 3.4000E-03 2.8000E+00 3.6000E+00
 2.6300E-01 3.4000E-03 2.7160E+00 3.6000E+00
 2.7500E-01 3.3000E-03 2.4790E+00 3.7000E+00
 2.8600E-01 3.2000E-03 2.0860E+00 4.1000E+00
 2.9500E-01 3.1000E-03 1.7330E+00 4.5000E+00
 3.0500E-01 3.0000E-03 1.5250E+00 4.6000E+00
 3.1700E-01 3.0000E-03 1.2650E+00 4.6000E+00
ENDDATA             21
ENDSUBENT           41
SUBENT        20412006   19840110              20050926       0000
BIB                  6         16
REACTION   (3-LI-6(N,T)2-HE-4,,SIG) CROSS SECTION.
INC-SOURCE (P-LI7)    PROTON-LITHIUM 7.
SAMPLE     .= LI-6 GLASS SCINTILLATOR.
           .LI-6 SCINTILLATOR AT 20 DEG. FOR INCIDENT PROTON BEAM.
            DISTANCES OF DETECTOR-TARGET ARE 25 AND 30 CM.
DETECTOR   (GLASD)    LI-6 GLASS SCINTILLATOR NE 905,
            DETECTOR (1)  0.92 * 44.4 MM, PLACED AT 5.25CM FROM
            PHOTOCATHODE (56AVP).
            2 BF3 COUNTERS AS FLAT RESPONCE COUNTERS IN
            A MONOENERGETIC NEUTRON BEAM.
STATUS     .FROM TABLE 4 OF REPORT EANDC(E)-148'U'.
            SAME AS TABLE 5, PART 1 IN THESIS.
HISTORY    (720925C)
           (750430E)
           (801125A) REACTION RE-CODED.
           (801204E)
ENDBIB              16
NOCOMMON             0          0
DATA                 4         18
EN         EN-RSL     DATA       ERR-T
MEV        MEV        B          PER-CENT
 5.1500E-01 6.0000E-03 3.8100E-01 3.4000E+00
 5.9400E-01 6.0000E-03 3.1200E-01 3.6000E+00
 6.7500E-01 6.0000E-03 2.7800E-01 3.5000E+00
 7.1500E-01 6.0000E-03 2.7800E-01 3.4000E+00
 7.5600E-01 6.0000E-03 2.6500E-01 3.4000E+00
 7.9600E-01 6.0000E-03 2.5100E-01 3.5000E+00
 8.3700E-01 6.0000E-03 2.5200E-01 3.6000E+00
 8.7700E-01 6.0000E-03 2.5200E-01 3.4000E+00
 9.5600E-01 6.0000E-03 2.5400E-01 3.5000E+00
 1.0350E+00 6.0000E-03 2.5600E-01 3.5000E+00
 1.1530E+00 6.0000E-03 2.1700E-01 3.5000E+00
 1.2320E+00 6.0000E-03 2.4500E-01 3.6000E+00
 1.3100E+00 6.0000E-03 2.3500E-01 3.7000E+00
 1.3890E+00 6.0000E-03 2.5500E-01 3.5000E+00
 1.4660E+00 6.0000E-03 2.5000E-01 3.4000E+00
 1.5480E+00 6.0000E-03 2.4900E-01 3.4000E+00
 1.6220E+00 6.0000E-03 2.4600E-01 3.4000E+00
 1.7000E+00 6.0000E-03 2.5500E-01 3.4000E+00
ENDDATA             20
ENDSUBENT           41
SUBENT        20412007   19840110              20050926       0000
BIB                  6         15
REACTION   (3-LI-6(N,T)2-HE-4,,SIG) CROSS SECTION.
INC-SOURCE (P-LI7)    PROTON-LITHIUM 7.
SAMPLE     .= LI-6 GLASS SCINTILLATOR.
           .LI-6 SCINTILLATOR AT 20 DEG. FOR INCIDENT PROTON BEAM.
            DISTANCE OF DETECTOR-TARGET IS 30 CM.
DETECTOR   (GLASD)    LI-6 GLASS SCINTILLATOR NE 905,
            DETECTOR (2) 3. * 26.3 MM, FIXED ON PHOTOCATHODE 56AVP
            2 BF3 COUNTERS AS FLAT RESPONCE COUNTERS IN
            A MONOENERGETIC NEUTRON BEAM.
STATUS     .FROM TABLE 4 OF REPORT EANDC(E)-148'U'.
            SAME AS TABLE 5, PART 2 IN THESIS.
HISTORY    (720925C)
           (750430E)
           (801125A) REACTION RE-CODED.
           (801204E)
ENDBIB              15
NOCOMMON             0          0
DATA                 4         18
EN         EN-RSL     DATA       ERR-T
MEV        MEV        B          PER-CENT
 5.1500E-01 6.0000E-03 4.1600E-01 3.4000E+00
 5.9400E-01 6.0000E-03 3.2500E-01 3.6000E+00
 6.7500E-01 6.0000E-03 2.8900E-01 3.5000E+00
 7.1500E-01 6.0000E-03 2.8800E-01 3.4000E+00
 7.5600E-01 6.0000E-03 2.7700E-01 3.4000E+00
 7.9600E-01 6.0000E-03 2.6100E-01 3.5000E+00
 8.3700E-01 6.0000E-03 2.5900E-01 3.6000E+00
 8.7700E-01 6.0000E-03 2.5500E-01 3.4000E+00
 9.5600E-01 6.0000E-03 2.5900E-01 3.5000E+00
 1.0350E+00 6.0000E-03 2.5600E-01 3.5000E+00
 1.1530E+00 6.0000E-03 2.4400E-01 3.5000E+00
 1.2320E+00 6.0000E-03 2.5100E-01 3.6000E+00
 1.3100E+00 6.0000E-03 2.4000E-01 3.7000E+00
 1.3890E+00 6.0000E-03 2.4700E-01 3.5000E+00
 1.4660E+00 6.0000E-03 2.4300E-01 3.4000E+00
 1.5480E+00 6.0000E-03 2.5000E-01 3.4000E+00
 1.6220E+00 6.0000E-03 2.4000E-01 3.4000E+00
 1.7000E+00 6.0000E-03 2.4900E-01 3.4000E+00
ENDDATA             20
ENDSUBENT           40
ENDENTRY             7
