ENTRY            C0723   20001023   20010329
SUBENT        C0723001   20001023   20010329
BIB                  9         12
INSTITUTE  (1USAMHD,1USACLU,1USAMSU,1USAMRY,1USAOBR)
REFERENCE  (J,PR/C,62,014607,200007)
AUTHOR     (K.A.G.RAO,A.NADASEN,D.SISAN,W.YUHASZ,D.MERCER,
           S.M.AUSTIN,P.G.ROOS,R.E.WARNER)
TITLE      4He+4He elastic scattering at 280 and 620 MeV
FACILITY   (CYCLO,1USAMSU)
INC-SPECT  Incident energy resolution estimated <1%.
ERR-ANALYS (ERR-S) Statistical uncertainty.
STATUS     (APRVD) approved by A. Nadasen, 23 October 2000.
           Data received by email from A. Nadasen, 17 August 2000.
HISTORY    (20000817C) VM
           (20001023A) Author approval received.
ENDBIB              12
NOCOMMON             0          0
ENDSUBENT           15
SUBENT        C0723002   20000817   20010329
BIB                  4          8
REACTION   (2-HE-4(A,EL)2-HE-4,,DA)
SAMPLE     High purity 4He gas filling the entire scattering
            chamber.
DETECTOR   (TELES) 3 detector telescopes consisting of 2 position-
            sensitive silicon strip detectors.
MONITOR    Silicon detectors calibrated using 228Th alpha source.
           NaI(Tl) detectors calibrated using forward angle
            alpha-alpha scattering.
ENDBIB               8
COMMON               1          3
EN
MEV
 280.
ENDCOMMON            3
DATA                 3         23
ANG-CM     DATA-CM    ERR-S
ADEG       MB/SR      MB/SR
  13.24       6.343E+2   6.343E+0
  17.31       1.781E+2   1.781E+0
  21.39       8.127E+1   8.127E-1
  25.45       4.607E+1   4.607E-1
  29.52       2.067E+1   2.067E-1
  33.59       7.066E+0   7.066E-2
  37.65       2.544E+0   2.664E-2
  41.70       1.293E+0   1.841E-2
  45.76       6.328E-1   1.186E-2
  49.81       3.164E-1   8.403E-3
  53.86       1.206E-1   4.953E-3
  57.90       6.295E-2   3.711E-3
  60.92       3.453E-2   3.403E-3
  65.97       1.305E-2   1.317E-3
  70.00       7.614E-3   9.844E-4
  74.03       9.923E-3   1.309E-3
  78.05       6.759E-3   8.038E-4
  82.06       9.392E-3   1.056E-3
  86.07       1.424E-2   1.665E-3
  90.08       1.302E-2   1.693E-3
  94.07       1.608E-2   2.434E-3
  98.07       1.067E-2   1.447E-3
 102.1        1.166E-2   1.719E-3
ENDDATA             25
ENDSUBENT           42
SUBENT        C0723003   20000817   20010329
BIB                  4          9
REACTION   (2-HE-4(A,EL)2-HE-4,,DA)
SAMPLE     High purity 4He gas contained in a cell at the center
            of evacuated scattering chamber.
DETECTOR   (TELES) 3 detector telescopes consisting of a double
            slit system followed by a surface-barrier silicon
            detector, then a NaI(Tl) scintillation detector.
MONITOR    Silicon detectors calibrated using 228Th alpha source.
           NaI(Tl) detectors calibrated using forward angle
            alpha-alpha scattering.
ENDBIB               9
COMMON               1          3
EN
MEV
 620.
ENDCOMMON            3
DATA                 3         10
ANG-CM     DATA-CM    ERR-S
ADEG       MB/SR      MB/SR
 20.798     0.266600   0.008000
 31.165     0.033650   0.001260
 41.494     0.003630   0.000327
 51.776     0.001470   0.000122
 62.002     0.000970   0.000113
 72.166     0.000670   0.000117
 82.262     0.000450   0.000101
 92.289     0.000584   0.000088
102.247     0.000520   0.000100
112.137     0.000598   0.000115
ENDDATA             12
ENDSUBENT           30
ENDENTRY             3
