ENTRY            C0755   20010119   20010330
SUBENT        C0755001   20010119   20010330
BIB                 12         26
INSTITUTE  (1USACOL)
REFERENCE  (J,PR,122,232,196104)
AUTHOR     (H.SMOTRICH,K.W.JONES,L.C.MCDERMOTT,R.E.BENENSON)
TITLE      Eleastic Scattering of Alpha Particles by N15
FACILITY   (VDG)
SAMPLE     Nitrogen gas sample, 15N concentration averaged 15
            atom%.  Major contaminants were 16O and 14N.
            Target thicknesses varied such that beam energy loss
            in target was 2-4 keV.
METHOD     (BCINT)
DETECTOR   (CSICR)
MONITOR    Beam energy calibrated using 7Li(p,n)7Be threshold
            energy.
ERR-ANALYS (DATA-ERR) Estimate of over-all rms uncertainty;
           includes uncertainties due to:
           . geometry (0.28%),
           . counting statistics (average 3.0%),
           . uncertainty in background (average 1.0%),
           . maximum angular uncertainty (maximum 1.3%),
           . current integration (0.7%),
           . gas pressure (average 0.5%),
           . target gas impuruties (maximum 5.0%),
           Maximum error in scattering angle 0.2 degrees.
           (EN-ERR) Approximate uncertainty in energy scale.
STATUS     No reply from K.W. Jones to author proof.
HISTORY    (20001201C) VM
ENDBIB              26
COMMON               3          3
EN-ERR     EN-RSL     DATA-ERR
PER-CENT   PER-CENT   PER-CENT
  0.1        0.1        6.2
ENDCOMMON            3
ENDSUBENT           33
SUBENT        C0755002   20001201   20010330
BIB                  3          5
REACTION   (7-N-15(A,EL)7-N-15,,DA,,RTH)
STATUS     (CURVE) Data downloaded from SIGMABASE Web site.
            Data given for other angles at 90.0-140.8
            degrees(c.m.) in Figs. 3-6 of reference.
COMMENT    Multiple measurements at some energies.
ENDBIB               5
COMMON               1          3
ANG-CM
ADEG
169.1
ENDCOMMON            3
DATA                 2        633
EN         DATA-CM
KEV        NO-DIM
 1743.       1.00
 1752.       1.00
 1753.       0.94
 1755.       0.95
 1757.       0.99
 1760.       1.00
 1765.       1.02
 1767.       0.98
 1770.       0.96
 1774.       1.03
 1782.       1.03
 1787.       0.98
 1790.       0.94
 1797.       0.94
 1814.       0.97
 1822.       0.94
 1827.       0.92
 1829.       0.91
 1834.       0.90
 1839.       0.90
 1842.       0.87
 1847.       0.74
 1847.       0.71
 1850.       0.70
 1852.       0.68
 1855.       0.66
 1860.       0.60
 1863.       0.43
 1866.       0.35
 1871.       0.18
 1875.       1.74
 1878.       1.64
 1878.       1.58
 1881.       1.48
 1881.       1.52
 1884.       1.42
 1886.       1.36
 1892.       1.31
 1894.       1.27
 1902.       1.23
 1907.       1.19
 1914.       1.17
 1924.       1.17
 1932.       1.14
 1939.       1.13
 1946.       1.14
 1951.       1.13
 1956.       1.12
 1961.       1.11
 1971.       1.05
 1981.       1.00
 1986.       1.05
 1994.       0.98
 2011.       0.98
 2013.       1.03
 2033.       1.02
 2040.       0.98
 2048.       1.04
 2053.       1.01
 2057.       1.07
 2060.       1.02
 2065.       0.99
 2067.       1.03
 2070.       1.00
 2077.       1.00
 2082.       1.03
 2085.       0.98
 2097.       1.01
 2099.       0.98
 2102.       1.03
 2107.       1.00
 2109.       1.06
 2124.       1.05
 2126.       1.00
 2131.       1.06
 2136.       1.01
 2141.       1.07
 2148.       1.03
 2151.       1.05
 2161.       1.08
 2161.       1.00
 2166.       1.06
 2168.       1.01
 2170.       1.05
 2175.       1.09
 2180.       1.06
 2180.       1.10
 2188.       1.07
 2193.       1.02
 2195.       1.04
 2200.       1.01
 2203.       1.03
 2210.       1.02
 2215.       1.00
 2217.       0.98
 2227.       0.99
 2230.       0.96
 2232.       1.10
 2234.       1.04
 2237.       1.08
 2242.       1.11
 2244.       1.05
 2249.       1.04
 2259.       0.99
 2262.       0.95
 2264.       0.99
 2264.       1.03
 2271.       0.98
 2279.       0.96
 2291.       1.04
 2296.       0.98
 2298.       1.04
 2301.       0.99
 2306.       0.99
 2310.       1.08
 2315.       1.04
 2320.       1.07
 2323.       0.96
 2325.       1.05
 2330.       0.99
 2333.       1.02
 2335.       1.02
 2340.       1.02
 2347.       1.05
 2350.       1.01
 2355.       0.99
 2360.       0.93
 2362.       1.00
 2367.       1.03
 2370.       0.99
 2372.       0.92
 2375.       0.95
 2379.       1.02
 2384.       0.96
 2392.       1.01
 2399.       0.95
 2404.       1.02
 2407.       0.95
 2409.       0.96
 2411.       0.96
 2414.       0.96
 2416.       0.94
 2416.       0.96
 2419.       0.92
 2424.       0.99
 2431.       0.98
 2436.       1.05
 2441.       0.96
 2446.       0.97
 2453.       1.07
 2460.       1.00
 2465.       1.08
 2468.       1.01
 2473.       1.09
 2475.       1.04
 2480.       1.07
 2482.       1.05
 2487.       1.10
 2490.       0.98
 2497.       1.11
 2499.       1.16
 2505.       1.07
 2507.       1.02
 2509.       1.07
 2512.       1.03
 2519.       1.01
 2524.       1.01
 2527.       0.99
 2532.       1.05
 2536.       1.08
 2541.       1.06
 2544.       1.08
 2549.       1.06
 2551.       1.06
 2556.       1.04
 2564.       1.05
 2568.       1.06
 2571.       1.08
 2576.       1.01
 2578.       1.12
 2581.       1.07
 2588.       1.07
 2590.       1.16
 2595.       1.11
 2603.       1.25
 2606.       1.52
 2608.       3.02
 2615.       0.94
 2621.       1.01
 2624.       1.01
 2630.       1.08
 2633.       1.28
 2639.       0.36
 2639.       0.42
 2642.       0.42
 2648.       0.90
 2654.       0.83
 2693.       0.86
 2699.       0.94
 2702.       0.94
 2708.       0.94
 2726.       0.96
 2732.       0.96
 2735.       0.89
 2747.       0.90
 2753.       0.84
 2759.       0.84
 2762.       0.91
 2783.       0.93
 2795.       0.87
 2798.       0.87
 2804.       0.80
 2807.       0.80
 2810.       0.80
 2813.       0.80
 2816.       0.73
 2819.       0.65
 2822.       0.58
 2822.       0.66
 2825.       0.51
 2825.       0.58
 2828.       0.43
 2831.       0.35
 2831.       0.35
 2834.       0.36
 2842.       1.44
 2863.       1.62
 2863.       1.54
 2866.       1.71
 2869.       1.79
 2872.       2.11
 2872.       1.87
 2880.       4.35
 2887.       0.77
 2890.       0.70
 2893.       0.70
 2896.       0.78
 2902.       0.87
 2905.       1.03
 2920.       1.12
 2923.       1.29
 2929.       1.62
 2929.       1.46
 2932.       2.04
 2932.       2.20
 2932.       1.71
 2932.       1.79
 2932.       1.96
 2940.       6.85
 2953.       0.57
 2959.       0.40
 2989.       0.59
 2998.       0.50
 3001.       0.59
 3043.       0.70
 3046.       0.70
 3055.       0.71
 3058.       0.71
 3061.       0.71
 3073.       0.81
 3076.       0.63
 3082.       0.82
 3091.       0.82
 3094.       0.92
 3097.       0.92
 3100.       1.01
 3106.       0.93
 3112.       1.02
 3115.       1.02
 3133.       1.13
 3139.       1.23
 3151.       1.24
 3153.       1.53
 3159.       1.63
 3165.       1.55
 3171.       1.65
 3174.       1.65
 3177.       1.66
 3180.       1.47
 3180.       1.56
 3183.       1.37
 3186.       1.28
 3189.       1.57
 3192.       3.04
 3207.       2.78
 3210.       2.88
 3213.       2.98
 3213.       2.98
 3216.       3.19
 3216.       3.09
 3219.       3.29
 3221.       5.29
 3231.       2.12
 3234.       2.12
 3234.       2.12
 3237.       2.13
 3240.       2.23
 3243.       2.24
 3243.       2.34
 3246.       2.34
 3249.       2.45
 3255.       2.46
 3258.       2.67
 3264.       2.58
 3267.       2.68
 3270.       2.69
 3273.       2.69
 3285.       2.72
 3291.       2.73
 3294.       2.73
 3300.       2.85
 3303.       3.06
 3306.       2.86
 3309.       2.97
 3312.       2.97
 3315.       2.98
 3318.       2.99
 3330.       3.01
 3333.       2.91
 3336.       2.92
 3339.       3.03
 3339.       2.92
 3342.       3.03
 3342.       3.03
 3345.       3.04
 3348.       3.05
 3351.       3.37
 3360.       2.96
 3369.       3.30
 3375.       3.10
 3387.       3.12
 3390.       3.02
 3393.       3.02
 3398.       3.15
 3404.       3.16
 3410.       3.17
 3443.       3.12
 3464.       3.17
 3470.       3.29
 3479.       3.31
 3482.       3.09
 3488.       3.56
 3494.       3.23
 3500.       3.24
 3506.       3.25
 3509.       3.37
 3512.       3.62
 3512.       3.50
 3518.       3.87
 3521.       1.62
 3521.       1.62
 3527.       1.62
 3530.       2.34
 3530.       2.10
 3533.       2.47
 3536.       2.71
 3536.       2.59
 3539.       2.72
 3542.       2.84
 3545.       2.85
 3560.       3.00
 3563.       3.12
 3569.       3.13
 3572.       3.26
 3572.       3.26
 3575.       3.51
 3575.       3.39
 3578.       3.89
 3578.       3.64
 3578.       3.76
 3583.       7.59
 3593.       2.69
 3596.       2.69
 3602.       2.82
 3605.       2.95
 3626.       3.24
 3626.       2.99
 3632.       3.13
 3632.       3.51
 3641.       2.77
 3662.       0.87
 3668.       0.75
 3674.       0.75
 3677.       0.88
 3683.       0.89
 3686.       1.02
 3689.       1.15
 3692.       1.29
 3695.       1.42
 3698.       1.68
 3703.       6.42
 3710.       2.75
 3713.       2.10
 3716.       1.84
 3731.       1.59
 3740.       1.60
 3746.       1.74
 3752.       1.74
 3755.       1.75
 3761.       1.75
 3767.       1.90
 3773.       2.04
 3779.       2.19
 3788.       2.47
 3794.       2.62
 3797.       2.90
 3802.       3.12
 3827.       4.61
 3829.       5.48
 3836.       5.22
 3844.       5.82
 3851.       5.56
 3868.       6.79
 3880.       7.72
 3885.       7.75
 3887.       8.35
 3890.       9.25
 3897.       9.59
 3921.      15.15
 3931.      14.32
 3951.       4.69
 3951.       5.30
 3954.       4.08
 3959.       3.48
 3964.       3.18
 3971.       2.89
 3976.       2.90
 3981.       2.91
 3986.       3.23
 3991.       2.93
 3993.       2.93
 4000.       2.95
 4005.       3.28
 4015.       3.30
 4020.       3.94
 4022.       3.63
 4034.       3.98
 4039.       4.31
 4049.       4.02
 4059.       4.69
 4061.       4.05
 4083.       5.42
 4093.       5.12
 4100.       6.13
 4105.       5.82
 4110.       6.17
 4117.       6.20
 4127.       6.23
 4127.       4.90
 4132.       8.26
 4132.       6.92
 4142.       8.64
 4144.       9.66
 4144.       9.66
 4147.      10.01
 4149.      10.03
 4151.      10.38
 4154.      10.39
 4156.      10.74
 4159.      10.76
 4166.      12.50
 4171.      12.88
 4176.      13.94
 4190.      16.80
 4195.      17.19
 4202.      17.60
 4207.      17.29
 4212.      18.38
 4217.      18.43
 4224.      17.45
 4237.      14.74
 4254.      10.62
 4269.       5.70
 4286.       6.12
 4291.       6.49
 4301.       6.89
 4306.       6.91
 4320.       6.97
 4323.       7.35
 4337.       7.04
 4337.       7.41
 4342.       7.80
 4345.       7.44
 4347.       7.82
 4352.       7.47
 4355.       7.85
 4359.       7.87
 4364.       8.27
 4369.       8.29
 4374.       8.69
 4379.       8.71
 4386.       9.12
 4389.       9.51
 4396.      10.31
 4401.      10.71
 4406.      11.12
 4413.      13.45
 4423.      13.14
 4440.      18.28
 4444.      21.03
 4447.      19.89
 4452.      21.88
 4456.      23.49
 4461.      26.28
 4466.      28.29
 4478.      31.60
 4490.      35.34
 4495.      35.03
 4505.      33.20
 4510.      33.27
 4515.      30.95
 4525.      30.29
 4527.      28.32
 4532.      27.58
 4537.      26.03
 4549.      24.56
 4572.       9.65
 4579.       9.28
 4584.       8.07
 4592.       7.68
 4597.       8.12
 4604.       7.74
 4624.       8.66
 4628.       9.10
 4633.       8.28
 4643.       9.17
 4648.       9.19
 4653.       9.64
 4660.       9.68
 4675.      10.61
 4692.      13.29
 4697.      13.32
 4702.      14.22
 4704.       5.56
 4712.       4.28
 4717.       2.98
 4724.       2.12
 4731.       2.57
 4731.       2.14
 4736.       2.58
 4744.       3.92
 4751.       4.38
 4756.       3.95
 4775.       6.24
 4783.       3.57
 4785.       4.48
 4790.       4.94
 4795.       7.21
 4797.       6.77
 4800.       7.68
 4810.       7.30
 4819.       8.38
 4824.       8.39
 4841.       8.44
 4847.       8.99
 4853.       9.54
 4855.       9.02
 4870.      10.14
 4875.       9.62
 4895.      10.23
 4906.      10.27
 4912.       9.74
 4918.      10.31
 4937.      10.94
 4940.      10.39
 4946.      10.41
 4951.      11.55
 4968.      11.06
 4994.      11.72
 4997.      12.30
 5002.      12.32
 5002.      13.46
 5008.      11.78
 5011.      11.22
 5016.      12.38
 5022.      10.69
 5028.      11.28
 5030.      10.72
 5053.      10.22
 5059.       9.08
 5061.       9.08
 5078.       8.55
 5092.       6.82
 5095.       6.23
 5098.       5.65
 5101.       4.47
 5106.       3.88
 5109.       4.48
 5112.       5.07
 5118.       5.08
 5120.       3.89
 5126.       3.90
 5129.       2.70
 5135.       2.71
 5135.       2.71
 5137.       2.71
 5140.       2.71
 5143.       2.71
 5203.      16.27
 5208.      16.30
 5214.      18.19
 5217.      21.92
 5220.      29.37
 5226.      29.43
 5228.      27.60
 5234.      26.41
 5237.      26.43
 5242.      28.36
 5248.      28.42
 5254.      28.48
 5256.      26.62
 5267.      15.37
 5276.      12.25
 5279.      10.99
 5284.      10.38
 5287.      11.66
 5290.       7.85
 5298.       2.77
 5301.       3.41
 5321.       4.70
 5335.       5.37
 5338.       6.67
 5363.       7.36
 5366.       6.72
 5369.       6.72
 5377.       7.39
 5403.       7.44
 5434.       7.51
 5462.       6.89
 5470.       6.90
 5476.       7.59
 5482.       8.97
 5487.       8.30
ENDDATA            635
ENDSUBENT          649
ENDENTRY             2
