ENTRY            C0752   20001130   20020815
SUBENT        C0752001   20001130   20020815
BIB                  8         14
INSTITUTE  (1USARIC)
REFERENCE  (J,PR/B,140,616,196511)
AUTHOR     (B.K.Barnes,T.A.Belote,J.R.Risser)
TITLE      Level Assignments in O17 from C13(alpha,alpha)C13
            and C13(alpha,n)O16
FACILITY   (VDG)
SAMPLE     Thin self-supporting foils of 41.6% 13C-enriched
            methyl iodide and 56.7% 13C-enriched methane.
            Targets were typically 15 microg/cm2 thick.
MONITOR    ((MONIT1)6-C-13(P,EL)6-C-13,,DA) Used to determine targ
           ((MONIT2)6-C-12(P,EL)6-C-12,,DA)  thickness.
           Beam energy calibrated using 13C(p,n)13N threshold at
            3.236 MeV and 13C(alpha,n)16O resonance at 2.800 MeV.
HISTORY    (20001130C) VM
ENDBIB              14
COMMON               4          3
EN-NRM     ANG-NRM    MONIT1     MONIT2
MEV        ADEG       MB/SR      MB/SR
  3.00     165.        68.6       73.6
ENDCOMMON            3
ENDSUBENT           21
SUBENT        C0752002   20020712   20020815
BIB                  6         10
REACTION   (6-C-13(A,EL)6-C-13,,DA,,RTH)
DETECTOR   (SOLST)
CORRECTION Corrected for scattering from 12C.
ERR-ANALYS Uncertainty in cross section is mainly due to
            background subtraction and is estimated to be < 20%,
            except in region 3-3.3 Mev at 169.6 degrees where
            they are estimated to be <30%.
STATUS     (CURVE) Data downloaded from SIGMABASE Web site.
           (DEP,C0752004) Divided by Rutherford scattering.
HISTORY    (20020614A) Comments corrected, dependent status added.
ENDBIB              10
COMMON               2          3
ANG-CM     DATA-ERR
ADEG       PER-CENT
169.6       20.
ENDCOMMON            3
DATA                 2        221
EN         DATA-CM
MEV        NO-DIM
  1.977      1.19
  1.981      1.10
  1.993      1.18
  2.001      1.22
  2.001      1.15
  2.009      1.19
  2.013      1.17
  2.025      1.14
  2.045      1.10
  2.053      1.18
  2.053      1.11
  2.061      1.22
  2.069      1.09
  2.072      0.70
  2.081      1.28
  2.089      1.32
  2.093      1.19
  2.101      1.23
  2.105      1.20
  2.113      1.17
  2.117      1.25
  2.121      1.18
  2.125      1.33
  2.133      1.31
  2.141      1.31
  2.145      1.36
  2.157      1.49
  2.165      1.42
  2.169      1.46
  2.173      1.28
  2.181      1.44
  2.185      1.33
  2.205      1.35
  2.209      1.40
  2.213      1.32
  2.217      1.45
  2.221      1.29
  2.229      1.30
  2.237      1.31
  2.249      1.41
  2.253      1.33
  2.261      1.59
  2.269      1.39
  2.273      1.48
  2.277      1.53
  2.281      1.49
  2.289      1.58
  2.297      1.55
  2.305      1.61
  2.313      1.49
  2.317      1.53
  2.325      1.72
  2.329      1.73
  2.333      1.47
  2.341      1.70
  2.345      1.57
  2.353      1.54
  2.361      1.55
  2.369      1.51
  2.373      1.56
  2.377      1.47
  2.385      1.53
  2.389      1.54
  2.397      1.45
  2.401      1.36
  2.409      1.27
  2.417      1.38
  2.425      1.48
  2.433      1.35
  2.441      1.36
  2.457      1.42
  2.465      1.33
  2.469      1.39
  2.477      1.50
  2.489      1.51
  2.497      1.47
  2.501      1.52
  2.505      1.53
  2.513      1.38
  2.521      1.44
  2.524      1.34
  2.537      1.46
  2.541      1.41
  2.545      1.42
  2.552      1.37
  2.557      1.48
  2.564      1.33
  2.568      1.17
  2.580      1.18
  2.584      1.30
  2.592      1.30
  2.597      1.47
  2.605      1.59
  2.621      1.61
  2.629      1.62
  2.641      1.75
  2.645      1.70
  2.653      1.77
  2.661      1.78
  2.661      1.72
  2.673      1.73
  2.677      1.62
  2.689      1.64
  2.693      1.76
  2.705      1.84
  2.709      1.84
  2.713      2.21
  2.713      1.97
  2.721      2.16
  2.721      2.40
  2.725      3.02
  2.725      2.59
  2.729      3.77
  2.737      4.84
  2.746      7.59
  2.751      8.24
  2.758      7.85
  2.765      2.92
  2.765      3.74
  2.769      2.17
  2.773      1.93
  2.781      1.68
  2.784      1.37
  2.788      1.05
  2.796      0.67
  2.800      0.55
  2.808      0.55
  2.824      0.62
  2.828      0.69
  2.836      0.69
  2.840      0.76
  2.844      0.83
  2.852      0.76
  2.864      0.91
  2.868      0.84
  2.876      0.98
  2.880      0.85
  2.900      0.93
  2.912      0.93
  2.928      0.94
  2.932      0.95
  2.944      0.95
  2.960      0.89
  2.968      0.89
  2.972      0.90
  2.980      0.97
  2.988      0.91
  2.992      0.83
  2.996      0.84
  3.008      0.84
  3.012      0.70
  3.016      0.77
  3.024      0.85
  3.032      0.70
  3.040      0.56
  3.048      0.63
  3.052      0.64
  3.056      0.64
  3.060      0.64
  3.068      0.56
  3.076      0.88
  3.088      0.57
  3.092      0.65
  3.100      0.50
  3.108      0.74
  3.116      0.82
  3.124      0.82
  3.132      0.66
  3.140      0.75
  3.148      0.75
  3.160      0.59
  3.176      0.60
  3.188      0.44
  3.196      0.52
  3.200      0.35
  3.208      0.44
  3.220      0.44
  3.224      0.36
  3.232      0.27
  3.244      0.36
  3.252      0.28
  3.264      0.19
  3.272      0.10
  3.280      0.28
  3.284      0.54
  3.288      0.63
  3.289      2.68
  3.293      3.04
  3.297      4.39
  3.301      7.00
  3.305      6.93
  3.310      7.21
  3.317      6.98
  3.321      3.27
  3.325      3.01
  3.337      2.66
  3.344      2.31
  3.348      2.13
  3.352      2.32
  3.357      2.69
  3.361      2.61
  3.364      2.24
  3.364      2.06
  3.372      2.06
  3.377      2.73
  3.381      2.64
  3.385      2.74
  3.389      2.84
  3.401      2.76
  3.405      2.58
  3.413      2.78
  3.421      2.79
  3.429      3.00
  3.433      2.81
  3.441      2.92
  3.460      2.56
  3.476      2.58
  3.480      2.39
  3.488      2.30
  3.492      2.31
  3.528      2.35
ENDDATA            223
ENDSUBENT          242
SUBENT        C0752003   20020712   20020815
BIB                  5          9
REACTION   (6-C-13(A,N)8-O-16,,DA)
DETECTOR   (LONGC)
ERR-ANALYS Uncertainty in cross section is mainly due to
            background subtraction and is estimated to be < 20%.
           Digitizing error in energy 0.005 MeV
           Digitizing error in data 0.001 b/sr.
STATUS     (CURVE) Data scanned from Fig.3 of reference at
            RFNC-VNIIEF.
HISTORY    (20020614A) Data added.
ENDBIB               9
COMMON               1          3
ANG
ADEG
  0.
ENDCOMMON            3
DATA                 2        286
EN         DATA
MEV        B/SR
  1.976     0.2988E-03
  1.980     0.6037E-03
  1.988     0.2947E-03
  1.993     0.7522E-03
  2.000     0.9542E-03
  2.004     0.5958E-03
  2.010     0.8488E-03
  2.015     0.1255E-02
  2.023     0.8447E-03
  2.027     0.1200E-02
  2.036     0.1351E-02
  2.041     0.1553E-02
  2.046     0.1654E-02
  2.057     0.1701E-02
  2.062     0.2107E-02
  2.067     0.1952E-02
  2.074     0.2154E-02
  2.079     0.2051E-02
  2.086     0.2048E-02
  2.089     0.1690E-02
  2.096     0.1586E-02
  2.098     0.1891E-02
  2.103     0.1686E-02
  2.107     0.1379E-02
  2.113     0.1376E-02
  2.122     0.1373E-02
  2.128     0.1473E-02
  2.133     0.1676E-02
  2.140     0.2082E-02
  2.146     0.1927E-02
  2.151     0.2129E-02
  2.156     0.1873E-02
  2.163     0.2176E-02
  2.174     0.2632E-02
  2.181     0.3395E-02
  2.181     0.3854E-02
  2.186     0.4975E-02
  2.195     0.5023E-02
  2.199     0.5889E-02
  2.208     0.7008E-02
  2.212     0.7670E-02
  2.217     0.7975E-02
  2.222     0.9249E-02
  2.228     0.8940E-02
  2.230     0.9348E-02
  2.236     0.8938E-02
  2.241     0.9498E-02
  2.246     0.8271E-02
  2.254     0.7861E-02
  2.259     0.8063E-02
  2.264     0.7041E-02
  2.270     0.5407E-02
  2.280     0.5148E-02
  2.284     0.5708E-02
  2.291     0.5298E-02
  2.296     0.5347E-02
  2.304     0.4528E-02
  2.310     0.4832E-02
  2.314     0.4270E-02
  2.322     0.4420E-02
  2.329     0.5030E-02
  2.335     0.4926E-02
  2.338     0.5231E-02
  2.347     0.5126E-02
  2.353     0.6451E-02
  2.360     0.6908E-02
  2.367     0.7926E-02
  2.372     0.1017E-01
  2.375     0.1155E-01
  2.384     0.1506E-01
  2.391     0.1751E-01
  2.410     0.2128E-01
  2.417     0.2128E-01
  2.417     0.2225E-01
  2.423     0.2143E-01
  2.428     0.1984E-01
  2.434     0.1734E-01
  2.443     0.1617E-01
  2.446     0.1453E-01
  2.451     0.1407E-01
  2.459     0.1264E-01
  2.466     0.1182E-01
  2.471     0.1116E-01
  2.475     0.9931E-02
  2.489     0.9366E-02
  2.490     0.8600E-02
  2.499     0.8291E-02
  2.505     0.7779E-02
  2.509     0.6604E-02
  2.519     0.6652E-02
  2.522     0.6294E-02
  2.530     0.6444E-02
  2.534     0.5984E-02
  2.542     0.6389E-02
  2.555     0.5926E-02
  2.562     0.6332E-02
  2.569     0.6738E-02
  2.574     0.6838E-02
  2.578     0.6531E-02
  2.580     0.5714E-02
  2.590     0.4384E-02
  2.595     0.2903E-02
  2.602     0.2339E-02
  2.605     0.1828E-02
  2.615     0.1978E-02
  2.621     0.2231E-02
  2.630     0.2279E-02
  2.634     0.2839E-02
  2.641     0.2888E-02
  2.647     0.3804E-02
  2.654     0.9873E-02
  2.661     0.1712E-01
  2.669     0.1732E-01
  2.670     0.1568E-01
  2.674     0.1364E-01
  2.674     0.1410E-01
  2.676     0.1196E-01
  2.680     0.9405E-02
  2.683     0.6955E-02
  2.688     0.5882E-02
  2.690     0.5524E-02
  2.694     0.4809E-02
  2.697     0.4553E-02
  2.700     0.4093E-02
  2.708     0.4192E-02
  2.711     0.3834E-02
  2.714     0.3578E-02
  2.719     0.3780E-02
  2.722     0.4188E-02
  2.724     0.3881E-02
  2.730     0.4185E-02
  2.734     0.4490E-02
  2.734     0.4745E-02
  2.736     0.5714E-02
  2.738     0.6580E-02
  2.745     0.6425E-02
  2.748     0.6730E-02
  2.751     0.6372E-02
  2.754     0.5606E-02
  2.756     0.4738E-02
  2.760     0.4379E-02
  2.764     0.3970E-02
  2.769     0.3509E-02
  2.777     0.4986E-02
  2.779     0.5904E-02
  2.781     0.9015E-02
  2.786     0.1376E-01
  2.790     0.1922E-01
  2.792     0.2177E-01
  2.794     0.1830E-01
  2.795     0.2085E-01
  2.801     0.1625E-01
  2.805     0.1064E-01
  2.806     0.1237E-01
  2.810     0.7832E-02
  2.815     0.4617E-02
  2.821     0.3084E-02
  2.821     0.3492E-02
  2.827     0.3082E-02
  2.831     0.2009E-02
  2.831     0.2315E-02
  2.837     0.9359E-03
  2.843     0.5257E-03
  2.851     0.1186E-02
  2.856     0.1185E-02
  2.864     0.1182E-02
  2.870     0.1129E-02
  2.875     0.9235E-03
  2.885     0.7671E-03
  2.891     0.1174E-02
  2.900     0.1579E-02
  2.905     0.1016E-02
  2.912     0.1268E-02
  2.922     0.7040E-03
  2.930     0.8036E-03
  2.938     0.1209E-02
  2.943     0.9525E-03
  2.949     0.1154E-02
  2.955     0.1254E-02
  2.963     0.1813E-02
  2.970     0.1607E-02
  2.977     0.1809E-02
  2.984     0.2521E-02
  2.993     0.2518E-02
  2.995     0.3027E-02
  3.002     0.4096E-02
  3.006     0.4860E-02
  3.009     0.6084E-02
  3.015     0.7051E-02
  3.021     0.9447E-02
  3.030     0.1103E-01
  3.034     0.1174E-01
  3.038     0.1311E-01
  3.042     0.1281E-01
  3.046     0.1337E-01
  3.047     0.1362E-01
  3.047     0.1408E-01
  3.047     0.1449E-01
  3.056     0.1347E-01
  3.056     0.1418E-01
  3.061     0.1418E-01
  3.066     0.1295E-01
  3.066     0.1346E-01
  3.071     0.1331E-01
  3.076     0.1280E-01
  3.078     0.1244E-01
  3.079     0.1152E-01
  3.085     0.1152E-01
  3.090     0.1101E-01
  3.096     0.1126E-01
  3.105     0.1090E-01
  3.109     0.1034E-01
  3.121     0.1038E-01
  3.127     0.1059E-01
  3.142     0.1053E-01
  3.146     0.1114E-01
  3.155     0.1149E-01
  3.161     0.1083E-01
  3.167     0.1200E-01
  3.173     0.1384E-01
  3.184     0.1388E-01
  3.186     0.1450E-01
  3.187     0.1500E-01
  3.191     0.1597E-01
  3.197     0.1607E-01
  3.200     0.1592E-01
  3.203     0.1796E-01
  3.208     0.1729E-01
  3.212     0.1816E-01
  3.214     0.1913E-01
  3.220     0.2010E-01
  3.220     0.2107E-01
  3.226     0.2127E-01
  3.226     0.2183E-01
  3.231     0.2142E-01
  3.234     0.2305E-01
  3.234     0.2412E-01
  3.244     0.2463E-01
  3.251     0.2427E-01
  3.256     0.2682E-01
  3.259     0.2901E-01
  3.263     0.3023E-01
  3.264     0.3207E-01
  3.272     0.3360E-01
  3.272     0.3401E-01
  3.277     0.3457E-01
  3.281     0.3405E-01
  3.283     0.3569E-01
  3.289     0.3645E-01
  3.292     0.3604E-01
  3.292     0.3737E-01
  3.294     0.3645E-01
  3.300     0.3486E-01
  3.308     0.3496E-01
  3.313     0.3455E-01
  3.314     0.3491E-01
  3.315     0.3430E-01
  3.318     0.3318E-01
  3.322     0.3282E-01
  3.325     0.3088E-01
  3.330     0.2935E-01
  3.330     0.3103E-01
  3.338     0.2939E-01
  3.340     0.2914E-01
  3.345     0.2745E-01
  3.346     0.2704E-01
  3.353     0.2725E-01
  3.356     0.2781E-01
  3.363     0.2811E-01
  3.364     0.2893E-01
  3.368     0.2872E-01
  3.371     0.2979E-01
  3.372     0.2918E-01
  3.373     0.2826E-01
  3.380     0.2300E-01
  3.380     0.2591E-01
  3.385     0.1831E-01
  3.392     0.1637E-01
  3.399     0.1254E-01
  3.406     0.8607E-02
  3.414     0.7380E-02
  3.420     0.4980E-02
  3.426     0.3856E-02
  3.434     0.3547E-02
  3.441     0.3086E-02
  3.447     0.2777E-02
ENDDATA            288
ENDSUBENT          306
SUBENT        C0752004   20020712   20020815
BIB                  6          9
REACTION   (6-C-13(A,EL)6-C-13,,DA)
DETECTOR   (SOLST)
CORRECTION Corrected for scattering from 12C.
ERR-ANALYS Uncertainty in cross section is mainly due to
            background subtraction and is estimated to be < 20%.
           Digitizing error in energy 0.005 MeV
           Digitizing error in data 0.1 b/sr.
STATUS     (CURVE) Data scanned from Fig.2 at RFNC-VNIIEF.
HISTORY    (20020614C)
ENDBIB               9
NOCOMMON             0          0
DATA                 3        893
ANG-CM     EN         DATA-CM
ADEG       MEV        B/SR
 54.7        1.99      0.1844E+01
 54.7        1.99      0.1934E+01
 54.7        2.00      0.1822E+01
 54.7        2.00      0.1849E+01
 54.7        2.01      0.1844E+01
 54.7        2.01      0.1882E+01
 54.7        2.02      0.1844E+01
 54.7        2.03      0.1767E+01
 54.7        2.03      0.1879E+01
 54.7        2.04      0.1794E+01
 54.7        2.05      0.1748E+01
 54.7        2.06      0.1627E+01
 54.7        2.06      0.1608E+01
 54.7        2.07      0.1704E+01
 54.7        2.07      0.1652E+01
 54.7        2.08      0.1652E+01
 54.7        2.08      0.1602E+01
 54.7        2.09      0.1545E+01
 54.7        2.10      0.1564E+01
 54.7        2.10      0.1515E+01
 54.7        2.11      0.1479E+01
 54.7        2.12      0.1485E+01
 54.7        2.12      0.1446E+01
 54.7        2.13      0.1380E+01
 54.7        2.13      0.1471E+01
 54.7        2.14      0.1545E+01
 54.7        2.14      0.1523E+01
 54.7        2.15      0.1471E+01
 54.7        2.16      0.1495E+01
 54.7        2.16      0.1372E+01
 54.7        2.17      0.1430E+01
 54.7        2.18      0.1364E+01
 54.7        2.18      0.1339E+01
 54.7        2.19      0.1378E+01
 54.7        2.19      0.1369E+01
 54.7        2.20      0.1427E+01
 54.7        2.20      0.1353E+01
 54.7        2.21      0.1353E+01
 54.7        2.21      0.1328E+01
 54.7        2.22      0.1301E+01
 54.7        2.22      0.1309E+01
 54.7        2.23      0.1309E+01
 54.7        2.24      0.1287E+01
 54.7        2.24      0.1281E+01
 54.7        2.25      0.1227E+01
 54.7        2.26      0.1270E+01
 54.7        2.26      0.1249E+01
 54.7        2.26      0.1227E+01
 54.7        2.27      0.1219E+01
 54.7        2.27      0.1251E+01
 54.7        2.28      0.1188E+01
 54.7        2.29      0.1249E+01
 54.7        2.29      0.1183E+01
 54.7        2.30      0.1199E+01
 54.7        2.30      0.1238E+01
 54.7        2.31      0.1177E+01
 54.7        2.32      0.1196E+01
 54.7        2.32      0.1161E+01
 54.7        2.33      0.1177E+01
 54.7        2.34      0.1172E+01
 54.7        2.34      0.1163E+01
 54.7        2.35      0.1172E+01
 54.7        2.35      0.1079E+01
 54.7        2.36      0.1100E+01
 54.7        2.37      0.1128E+01
 54.7        2.37      0.1109E+01
 54.7        2.37      0.1111E+01
 54.7        2.38      0.1114E+01
 54.7        2.39      0.1183E+01
 54.7        2.39      0.1150E+01
 54.7        2.40      0.1147E+01
 54.7        2.40      0.1117E+01
 54.7        2.41      0.1133E+01
 54.7        2.41      0.1062E+01
 54.7        2.42      0.1103E+01
 54.7        2.43      0.1051E+01
 54.7        2.43      0.1070E+01
 54.7        2.44      0.1043E+01
 54.7        2.44      0.1078E+01
 54.7        2.45      0.1037E+01
 54.7        2.45      0.1026E+01
 54.7        2.46      0.1056E+01
 54.7        2.46      0.9961E+00
 54.7        2.46      0.1010E+01
 54.7        2.47      0.1029E+01
 54.7        2.47      0.1002E+01
 54.7        2.47      0.1076E+01
 54.7        2.47      0.1032E+01
 54.7        2.48      0.1054E+01
 54.7        2.48      0.1034E+01
 54.7        2.49      0.9988E+00
 54.7        2.49      0.1043E+01
 54.7        2.50      0.1021E+01
 54.7        2.51      0.9741E+00
 54.7        2.51      0.1018E+01
 54.7        2.52      0.9878E+00
 54.7        2.53      0.9467E+00
 54.7        2.53      0.8453E+00
 54.7        2.53      0.8261E+00
 54.7        2.54      0.9001E+00
 54.7        2.54      0.1010E+01
 54.7        2.55      0.9384E+00
 54.7        2.56      0.9165E+00
 54.7        2.57      0.9247E+00
 54.7        2.58      0.8698E+00
 54.7        2.59      0.9493E+00
 54.7        2.59      0.9684E+00
 54.7        2.60      0.1108E+01
 54.7        2.61      0.9218E+00
 54.7        2.61      0.8972E+00
 54.7        2.62      0.9519E+00
 54.7        2.62      0.9629E+00
 54.7        2.63      0.9492E+00
 54.7        2.64      0.9656E+00
 54.7        2.64      0.8998E+00
 54.7        2.64      0.9464E+00
 54.7        2.65      0.9437E+00
 54.7        2.65      0.9601E+00
 54.7        2.65      0.8916E+00
 54.7        2.66      0.9025E+00
 54.7        2.67      0.9464E+00
 54.7        2.67      0.9107E+00
 54.7        2.67      0.9601E+00
 54.7        2.67      0.8751E+00
 54.7        2.67      0.9327E+00
 54.7        2.67      0.9902E+00
 54.7        2.67      0.9025E+00
 54.7        2.68      0.9052E+00
 54.7        2.68      0.9326E+00
 54.7        2.68      0.9162E+00
 54.7        2.68      0.9025E+00
 54.7        2.69      0.9052E+00
 54.7        2.69      0.8970E+00
 54.7        2.70      0.8997E+00
 54.7        2.70      0.9161E+00
 54.7        2.70      0.8750E+00
 54.7        2.71      0.8997E+00
 54.7        2.71      0.8887E+00
 54.7        2.71      0.9024E+00
 54.7        2.71      0.9189E+00
 54.7        2.72      0.8914E+00
 54.7        2.72      0.9271E+00
 54.7        2.73      0.9133E+00
 54.7        2.73      0.8777E+00
 54.7        2.73      0.8311E+00
 54.7        2.74      0.8229E+00
 54.7        2.74      0.7846E+00
 54.7        2.75      0.7626E+00
 54.7        2.75      0.7379E+00
 54.7        2.76      0.7982E+00
 54.7        2.76      0.7900E+00
 54.7        2.76      0.8174E+00
 54.7        2.77      0.8804E+00
 54.7        2.77      0.9050E+00
 54.7        2.77      0.8749E+00
 54.7        2.78      0.9050E+00
 54.7        2.78      0.8749E+00
 54.7        2.79      0.8913E+00
 54.7        2.79      0.9050E+00
 54.7        2.79      0.9242E+00
 54.7        2.80      0.8666E+00
 54.7        2.80      0.8776E+00
 54.7        2.81      0.8940E+00
 54.7        2.81      0.8392E+00
 54.7        2.81      0.8638E+00
 54.7        2.82      0.8227E+00
 54.7        2.82      0.8392E+00
 54.7        2.82      0.8611E+00
 54.7        2.83      0.8556E+00
 54.7        2.83      0.8474E+00
 54.7        2.83      0.8255E+00
 54.7        2.84      0.8391E+00
 54.7        2.84      0.8227E+00
 54.7        2.84      0.8309E+00
 54.7        2.84      0.7843E+00
 54.7        2.85      0.7870E+00
 54.7        2.85      0.7953E+00
 54.7        2.86      0.7459E+00
 54.7        2.86      0.7870E+00
 54.7        2.86      0.8309E+00
 54.7        2.87      0.8144E+00
 54.7        2.87      0.8308E+00
 54.7        2.87      0.7541E+00
 54.7        2.88      0.8117E+00
 54.7        2.88      0.7651E+00
 54.7        2.89      0.7568E+00
 54.7        2.89      0.7842E+00
 54.7        2.89      0.8061E+00
 54.7        2.91      0.7951E+00
 54.7        2.91      0.7568E+00
 54.7        2.92      0.7677E+00
 54.7        2.93      0.7595E+00
 54.7        2.93      0.7841E+00
 54.7        2.94      0.7677E+00
 54.7        2.95      0.7649E+00
 54.7        2.95      0.7841E+00
 54.7        2.96      0.8197E+00
 54.7        2.97      0.7676E+00
 54.7        2.97      0.7484E+00
 54.7        2.98      0.7429E+00
 54.7        2.99      0.7703E+00
 54.7        3.00      0.7374E+00
 54.7        3.00      0.7127E+00
 54.7        3.01      0.7429E+00
 54.7        3.02      0.6744E+00
 54.7        3.02      0.7867E+00
 54.7        3.03      0.6880E+00
 54.7        3.03      0.6853E+00
 54.7        3.04      0.7209E+00
 54.7        3.04      0.6935E+00
 54.7        3.05      0.6524E+00
 54.7        3.06      0.7044E+00
 54.7        3.06      0.6880E+00
 54.7        3.07      0.6797E+00
 54.7        3.08      0.7318E+00
 54.7        3.08      0.6687E+00
 54.7        3.09      0.6961E+00
 54.7        3.10      0.6331E+00
 54.7        3.10      0.6769E+00
 54.7        3.11      0.6385E+00
 54.7        3.12      0.6659E+00
 54.7        3.12      0.6358E+00
 54.7        3.13      0.6221E+00
 54.7        3.14      0.6576E+00
 54.7        3.15      0.6412E+00
 54.7        3.16      0.6330E+00
 54.7        3.16      0.5727E+00
 54.7        3.17      0.5809E+00
 54.7        3.17      0.6000E+00
 54.7        3.18      0.5836E+00
 54.7        3.19      0.5863E+00
 54.7        3.19      0.5808E+00
 54.7        3.20      0.5863E+00
 54.7        3.20      0.5589E+00
 54.7        3.20      0.5287E+00
 54.7        3.21      0.5534E+00
 54.7        3.21      0.5369E+00
 54.7        3.22      0.5506E+00
 54.7        3.22      0.5260E+00
 54.7        3.23      0.5533E+00
 54.7        3.24      0.5150E+00
 54.7        3.24      0.5067E+00
 54.7        3.25      0.4930E+00
 54.7        3.25      0.5451E+00
 54.7        3.25      0.5040E+00
 54.7        3.26      0.5122E+00
 54.7        3.26      0.5341E+00
 54.7        3.27      0.4957E+00
 54.7        3.27      0.5313E+00
 54.7        3.27      0.5067E+00
 54.7        3.28      0.5258E+00
 54.7        3.28      0.4738E+00
 54.7        3.28      0.5121E+00
 54.7        3.28      0.4957E+00
 54.7        3.28      0.4710E+00
 54.7        3.29      0.5039E+00
 54.7        3.29      0.4683E+00
 54.7        3.29      0.4738E+00
 54.7        3.30      0.4381E+00
 54.7        3.30      0.4491E+00
 54.7        3.30      0.4162E+00
 54.7        3.30      0.4600E+00
 54.7        3.30      0.5285E+00
 54.7        3.30      0.4765E+00
 54.7        3.31      0.5422E+00
 54.7        3.31      0.6573E+00
 54.7        3.31      0.6408E+00
 54.7        3.31      0.6189E+00
 54.7        3.32      0.5860E+00
 54.7        3.32      0.6162E+00
 54.7        3.32      0.5942E+00
 54.7        3.33      0.5833E+00
 54.7        3.33      0.6079E+00
 54.7        3.33      0.5778E+00
 54.7        3.33      0.5942E+00
 54.7        3.34      0.6052E+00
 54.7        3.34      0.5914E+00
 54.7        3.35      0.5503E+00
 54.7        3.35      0.5777E+00
 54.7        3.35      0.5640E+00
 54.7        3.36      0.5914E+00
 54.7        3.37      0.5996E+00
 54.7        3.37      0.5750E+00
 54.7        3.37      0.5613E+00
 54.7        3.37      0.5503E+00
 54.7        3.38      0.5393E+00
 54.7        3.39      0.5831E+00
 54.7        3.39      0.5585E+00
 54.7        3.40      0.5612E+00
 54.7        3.41      0.5721E+00
 54.7        3.43      0.5968E+00
 54.7        3.44      0.5255E+00
 54.7        3.45      0.5309E+00
 54.7        3.46      0.5939E+00
 54.7        3.48      0.5473E+00
 54.7        3.49      0.5719E+00
 54.7        3.51      0.5390E+00
 54.7        3.52      0.4870E+00
 54.7        3.54      0.4787E+00
107.9        1.98      0.2345E+00
107.9        1.98      0.2487E+00
107.9        1.99      0.2471E+00
107.9        2.00      0.2208E+00
107.9        2.01      0.2339E+00
107.9        2.01      0.2312E+00
107.9        2.02      0.2323E+00
107.9        2.02      0.2235E+00
107.9        2.03      0.2185E+00
107.9        2.04      0.2196E+00
107.9        2.05      0.2125E+00
107.9        2.06      0.2070E+00
107.9        2.07      0.2065E+00
107.9        2.07      0.1944E+00
107.9        2.08      0.2185E+00
107.9        2.09      0.2147E+00
107.9        2.09      0.2026E+00
107.9        2.10      0.1938E+00
107.9        2.10      0.2103E+00
107.9        2.10      0.2009E+00
107.9        2.11      0.2059E+00
107.9        2.11      0.1998E+00
107.9        2.12      0.1905E+00
107.9        2.12      0.2113E+00
107.9        2.13      0.2092E+00
107.9        2.14      0.2059E+00
107.9        2.14      0.2015E+00
107.9        2.15      0.2004E+00
107.9        2.15      0.1905E+00
107.9        2.16      0.1872E+00
107.9        2.17      0.1905E+00
107.9        2.17      0.1927E+00
107.9        2.18      0.1965E+00
107.9        2.18      0.1943E+00
107.9        2.19      0.1916E+00
107.9        2.20      0.1932E+00
107.9        2.20      0.1844E+00
107.9        2.21      0.1778E+00
107.9        2.22      0.1757E+00
107.9        2.22      0.1855E+00
107.9        2.23      0.1822E+00
107.9        2.23      0.1784E+00
107.9        2.24      0.1701E+00
107.9        2.24      0.1756E+00
107.9        2.25      0.1680E+00
107.9        2.26      0.1756E+00
107.9        2.27      0.1833E+00
107.9        2.28      0.1756E+00
107.9        2.28      0.1728E+00
107.9        2.29      0.1701E+00
107.9        2.30      0.1624E+00
107.9        2.30      0.1586E+00
107.9        2.31      0.1580E+00
107.9        2.31      0.1564E+00
107.9        2.32      0.1750E+00
107.9        2.32      0.1706E+00
107.9        2.33      0.1695E+00
107.9        2.34      0.1640E+00
107.9        2.35      0.1635E+00
107.9        2.35      0.1580E+00
107.9        2.37      0.1580E+00
107.9        2.38      0.1580E+00
107.9        2.38      0.1635E+00
107.9        2.39      0.1563E+00
107.9        2.40      0.1602E+00
107.9        2.40      0.1563E+00
107.9        2.41      0.1563E+00
107.9        2.41      0.1700E+00
107.9        2.42      0.1667E+00
107.9        2.42      0.1557E+00
107.9        2.43      0.1519E+00
107.9        2.44      0.1557E+00
107.9        2.45      0.1541E+00
107.9        2.45      0.1508E+00
107.9        2.46      0.1595E+00
107.9        2.46      0.1552E+00
107.9        2.47      0.1551E+00
107.9        2.48      0.1502E+00
107.9        2.48      0.1546E+00
107.9        2.49      0.1442E+00
107.9        2.50      0.1442E+00
107.9        2.50      0.1420E+00
107.9        2.51      0.1403E+00
107.9        2.52      0.1447E+00
107.9        2.52      0.1398E+00
107.9        2.53      0.1419E+00
107.9        2.54      0.1398E+00
107.9        2.54      0.1414E+00
107.9        2.55      0.1387E+00
107.9        2.55      0.1348E+00
107.9        2.56      0.1299E+00
107.9        2.57      0.1310E+00
107.9        2.57      0.1364E+00
107.9        2.58      0.1342E+00
107.9        2.59      0.1337E+00
107.9        2.59      0.1309E+00
107.9        2.60      0.1298E+00
107.9        2.61      0.1227E+00
107.9        2.61      0.1243E+00
107.9        2.62      0.1320E+00
107.9        2.63      0.1227E+00
107.9        2.63      0.1342E+00
107.9        2.64      0.1221E+00
107.9        2.64      0.1276E+00
107.9        2.65      0.1260E+00
107.9        2.66      0.1248E+00
107.9        2.67      0.1216E+00
107.9        2.67      0.1199E+00
107.9        2.68      0.1210E+00
107.9        2.68      0.1177E+00
107.9        2.68      0.1216E+00
107.9        2.68      0.1259E+00
107.9        2.69      0.1254E+00
107.9        2.69      0.1166E+00
107.9        2.69      0.1133E+00
107.9        2.70      0.1204E+00
107.9        2.70      0.1188E+00
107.9        2.71      0.1204E+00
107.9        2.71      0.1177E+00
107.9        2.71      0.1226E+00
107.9        2.72      0.1215E+00
107.9        2.72      0.1199E+00
107.9        2.72      0.1259E+00
107.9        2.72      0.1215E+00
107.9        2.73      0.1171E+00
107.9        2.73      0.1226E+00
107.9        2.73      0.1242E+00
107.9        2.74      0.1199E+00
107.9        2.74      0.1231E+00
107.9        2.75      0.1193E+00
107.9        2.75      0.1089E+00
107.9        2.75      0.9628E-01
107.9        2.76      0.9463E-01
107.9        2.76      0.8586E-01
107.9        2.76      0.9243E-01
107.9        2.77      0.9024E-01
107.9        2.77      0.9462E-01
107.9        2.77      0.9900E-01
107.9        2.78      0.1012E+00
107.9        2.78      0.1001E+00
107.9        2.79      0.9899E-01
107.9        2.79      0.1006E+00
107.9        2.79      0.1094E+00
107.9        2.80      0.1138E+00
107.9        2.80      0.1176E+00
107.9        2.80      0.1220E+00
107.9        2.81      0.1253E+00
107.9        2.81      0.1231E+00
107.9        2.82      0.1247E+00
107.9        2.82      0.1214E+00
107.9        2.82      0.1170E+00
107.9        2.82      0.1138E+00
107.9        2.83      0.1121E+00
107.9        2.83      0.1083E+00
107.9        2.84      0.1061E+00
107.9        2.84      0.1082E+00
107.9        2.85      0.1066E+00
107.9        2.86      0.1039E+00
107.9        2.86      0.1082E+00
107.9        2.87      0.1099E+00
107.9        2.88      0.1066E+00
107.9        2.88      0.1082E+00
107.9        2.89      0.1011E+00
107.9        2.90      0.9779E-01
107.9        2.91      0.1038E+00
107.9        2.91      0.1049E+00
107.9        2.92      0.9942E-01
107.9        2.93      0.1076E+00
107.9        2.93      0.1071E+00
107.9        2.94      0.1087E+00
107.9        2.95      0.1076E+00
107.9        2.95      0.1109E+00
107.9        2.96      0.1065E+00
107.9        2.96      0.1081E+00
107.9        2.97      0.1054E+00
107.9        2.98      0.1049E+00
107.9        2.99      0.1059E+00
107.9        2.99      0.9826E-01
107.9        3.00      0.1026E+00
107.9        3.00      0.9770E-01
107.9        3.01      0.9989E-01
107.9        3.01      0.1054E+00
107.9        3.01      0.1021E+00
107.9        3.02      0.9166E-01
107.9        3.03      0.9494E-01
107.9        3.03      0.9933E-01
107.9        3.03      0.9439E-01
107.9        3.03      0.9932E-01
107.9        3.04      0.9658E-01
107.9        3.04      0.9986E-01
107.9        3.04      0.9602E-01
107.9        3.05      0.9383E-01
107.9        3.05      0.9766E-01
107.9        3.06      0.9875E-01
107.9        3.06      0.9382E-01
107.9        3.06      0.9217E-01
107.9        3.07      0.9765E-01
107.9        3.07      0.9655E-01
107.9        3.08      0.8997E-01
107.9        3.08      0.9599E-01
107.9        3.08      0.9380E-01
107.9        3.09      0.9325E-01
107.9        3.09      0.9105E-01
107.9        3.10      0.8940E-01
107.9        3.10      0.8721E-01
107.9        3.10      0.9214E-01
107.9        3.11      0.9323E-01
107.9        3.11      0.8939E-01
107.9        3.12      0.9103E-01
107.9        3.12      0.8774E-01
107.9        3.13      0.9157E-01
107.9        3.14      0.9265E-01
107.9        3.14      0.8772E-01
107.9        3.15      0.8990E-01
107.9        3.16      0.8661E-01
107.9        3.16      0.8441E-01
107.9        3.17      0.8441E-01
107.9        3.18      0.8769E-01
107.9        3.18      0.8220E-01
107.9        3.19      0.8330E-01
107.9        3.19      0.8055E-01
107.9        3.19      0.7672E-01
107.9        3.20      0.7890E-01
107.9        3.20      0.7671E-01
107.9        3.20      0.7999E-01
107.9        3.21      0.7725E-01
107.9        3.21      0.7341E-01
107.9        3.22      0.7615E-01
107.9        3.22      0.7395E-01
107.9        3.22      0.7888E-01
107.9        3.23      0.7121E-01
107.9        3.23      0.7394E-01
107.9        3.24      0.7503E-01
107.9        3.24      0.6900E-01
107.9        3.25      0.7229E-01
107.9        3.25      0.6626E-01
107.9        3.25      0.6844E-01
107.9        3.26      0.7283E-01
107.9        3.27      0.7008E-01
107.9        3.27      0.6405E-01
107.9        3.27      0.6240E-01
107.9        3.28      0.6623E-01
107.9        3.28      0.6404E-01
107.9        3.28      0.6185E-01
107.9        3.28      0.6623E-01
107.9        3.29      0.6349E-01
107.9        3.29      0.6512E-01
107.9        3.30      0.5964E-01
107.9        3.30      0.6347E-01
107.9        3.30      0.6786E-01
107.9        3.31      0.7223E-01
107.9        3.31      0.6073E-01
107.9        3.31      0.6785E-01
107.9        3.31      0.7387E-01
107.9        3.31      0.6620E-01
107.9        3.32      0.7168E-01
107.9        3.32      0.7387E-01
107.9        3.32      0.7167E-01
107.9        3.32      0.6729E-01
107.9        3.33      0.7057E-01
107.9        3.33      0.6673E-01
107.9        3.34      0.6399E-01
107.9        3.34      0.6618E-01
107.9        3.35      0.6781E-01
107.9        3.35      0.7055E-01
107.9        3.36      0.6671E-01
107.9        3.36      0.7054E-01
107.9        3.36      0.6725E-01
107.9        3.37      0.6506E-01
107.9        3.37      0.7108E-01
107.9        3.38      0.7272E-01
107.9        3.38      0.6505E-01
107.9        3.38      0.6998E-01
107.9        3.38      0.7381E-01
107.9        3.39      0.6449E-01
107.9        3.39      0.7161E-01
107.9        3.40      0.7215E-01
107.9        3.40      0.6832E-01
107.9        3.41      0.6995E-01
107.9        3.41      0.6611E-01
107.9        3.42      0.6994E-01
107.9        3.43      0.6884E-01
107.9        3.44      0.7267E-01
107.9        3.44      0.6992E-01
107.9        3.45      0.6992E-01
107.9        3.46      0.6717E-01
107.9        3.46      0.6936E-01
107.9        3.46      0.7210E-01
107.9        3.46      0.6936E-01
107.9        3.47      0.7373E-01
107.9        3.48      0.6715E-01
107.9        3.49      0.6715E-01
107.9        3.49      0.7043E-01
107.9        3.50      0.6823E-01
107.9        3.51      0.6822E-01
107.9        3.51      0.6986E-01
107.9        3.52      0.6821E-01
107.9        3.52      0.6547E-01
107.9        3.53      0.7094E-01
107.9        3.53      0.6217E-01
146.2        1.99      0.1194E+00
146.2        2.00      0.1208E+00
146.2        2.00      0.1194E+00
146.2        2.01      0.1163E+00
146.2        2.01      0.1116E+00
146.2        2.02      0.1152E+00
146.2        2.03      0.1147E+00
146.2        2.03      0.1130E+00
146.2        2.04      0.1104E+00
146.2        2.04      0.1051E+00
146.2        2.05      0.1043E+00
146.2        2.05      0.1018E+00
146.2        2.06      0.1032E+00
146.2        2.07      0.1037E+00
146.2        2.07      0.1029E+00
146.2        2.08      0.1009E+00
146.2        2.08      0.9952E-01
146.2        2.09      0.9532E-01
146.2        2.10      0.9420E-01
146.2        2.10      0.9951E-01
146.2        2.11      0.8888E-01
146.2        2.11      0.9279E-01
146.2        2.12      0.9391E-01
146.2        2.13      0.9139E-01
146.2        2.13      0.8971E-01
146.2        2.14      0.9502E-01
146.2        2.15      0.9865E-01
146.2        2.15      0.9613E-01
146.2        2.15      0.9949E-01
146.2        2.16      0.8830E-01
146.2        2.17      0.9976E-01
146.2        2.18      0.9444E-01
146.2        2.19      0.8465E-01
146.2        2.19      0.9248E-01
146.2        2.20      0.8800E-01
146.2        2.21      0.8772E-01
146.2        2.21      0.8995E-01
146.2        2.21      0.8716E-01
146.2        2.22      0.9414E-01
146.2        2.22      0.8407E-01
146.2        2.23      0.8519E-01
146.2        2.24      0.8603E-01
146.2        2.24      0.9078E-01
146.2        2.25      0.8462E-01
146.2        2.25      0.8965E-01
146.2        2.26      0.8462E-01
146.2        2.26      0.9245E-01
146.2        2.27      0.9021E-01
146.2        2.27      0.8881E-01
146.2        2.28      0.8908E-01
146.2        2.28      0.8628E-01
146.2        2.29      0.9215E-01
146.2        2.30      0.8600E-01
146.2        2.30      0.8012E-01
146.2        2.31      0.9382E-01
146.2        2.31      0.8683E-01
146.2        2.32      0.9410E-01
146.2        2.33      0.9522E-01
146.2        2.33      0.8542E-01
146.2        2.34      0.8654E-01
146.2        2.35      0.9073E-01
146.2        2.35      0.8625E-01
146.2        2.36      0.8793E-01
146.2        2.36      0.8289E-01
146.2        2.37      0.8960E-01
146.2        2.38      0.9044E-01
146.2        2.38      0.8400E-01
146.2        2.38      0.8344E-01
146.2        2.39      0.8316E-01
146.2        2.40      0.8484E-01
146.2        2.40      0.8483E-01
146.2        2.41      0.8231E-01
146.2        2.41      0.7783E-01
146.2        2.42      0.8986E-01
146.2        2.42      0.7643E-01
146.2        2.43      0.7867E-01
146.2        2.43      0.8398E-01
146.2        2.44      0.7670E-01
146.2        2.44      0.6943E-01
146.2        2.45      0.7390E-01
146.2        2.45      0.7166E-01
146.2        2.46      0.6746E-01
146.2        2.46      0.6439E-01
146.2        2.47      0.6746E-01
146.2        2.47      0.6522E-01
146.2        2.47      0.7082E-01
146.2        2.47      0.6774E-01
146.2        2.48      0.6941E-01
146.2        2.48      0.6466E-01
146.2        2.48      0.6717E-01
146.2        2.49      0.6773E-01
146.2        2.49      0.7416E-01
146.2        2.49      0.7220E-01
146.2        2.50      0.5710E-01
146.2        2.50      0.7024E-01
146.2        2.51      0.6772E-01
146.2        2.51      0.6520E-01
146.2        2.51      0.6381E-01
146.2        2.52      0.6576E-01
146.2        2.52      0.6436E-01
146.2        2.52      0.6072E-01
146.2        2.53      0.6771E-01
146.2        2.53      0.6380E-01
146.2        2.53      0.6212E-01
146.2        2.54      0.5764E-01
146.2        2.54      0.6603E-01
146.2        2.54      0.6016E-01
146.2        2.54      0.6463E-01
146.2        2.55      0.5624E-01
146.2        2.55      0.5652E-01
146.2        2.55      0.6267E-01
146.2        2.56      0.5987E-01
146.2        2.57      0.6854E-01
146.2        2.57      0.6434E-01
146.2        2.58      0.6378E-01
146.2        2.58      0.5454E-01
146.2        2.59      0.6153E-01
146.2        2.60      0.6013E-01
146.2        2.61      0.5929E-01
146.2        2.61      0.7103E-01
146.2        2.62      0.6907E-01
146.2        2.62      0.6655E-01
146.2        2.63      0.7047E-01
146.2        2.64      0.6655E-01
146.2        2.64      0.6319E-01
146.2        2.65      0.6430E-01
146.2        2.65      0.6598E-01
146.2        2.66      0.6318E-01
146.2        2.66      0.6598E-01
146.2        2.66      0.6626E-01
146.2        2.66      0.6877E-01
146.2        2.67      0.6346E-01
146.2        2.67      0.6457E-01
146.2        2.67      0.6625E-01
146.2        2.67      0.6094E-01
146.2        2.67      0.6261E-01
146.2        2.68      0.6429E-01
146.2        2.68      0.6485E-01
146.2        2.69      0.6093E-01
146.2        2.69      0.6177E-01
146.2        2.70      0.6176E-01
146.2        2.70      0.6372E-01
146.2        2.71      0.6428E-01
146.2        2.71      0.5980E-01
146.2        2.71      0.6372E-01
146.2        2.72      0.6539E-01
146.2        2.72      0.6063E-01
146.2        2.73      0.6399E-01
146.2        2.73      0.6427E-01
146.2        2.74      0.6930E-01
146.2        2.74      0.7377E-01
146.2        2.74      0.7937E-01
146.2        2.74      0.8692E-01
146.2        2.75      0.9810E-01
146.2        2.75      0.1121E+00
146.2        2.76      0.1129E+00
146.2        2.76      0.1115E+00
146.2        2.76      0.1071E+00
146.2        2.76      0.1015E+00
146.2        2.77      0.8830E-01
146.2        2.77      0.8271E-01
146.2        2.78      0.7516E-01
146.2        2.78      0.7655E-01
146.2        2.78      0.7124E-01
146.2        2.79      0.7012E-01
146.2        2.79      0.7291E-01
146.2        2.79      0.7822E-01
146.2        2.80      0.6508E-01
146.2        2.80      0.6172E-01
146.2        2.80      0.5584E-01
146.2        2.81      0.4969E-01
146.2        2.81      0.4186E-01
146.2        2.82      0.3430E-01
146.2        2.82      0.3402E-01
146.2        2.83      0.3458E-01
146.2        2.83      0.3513E-01
146.2        2.84      0.3457E-01
146.2        2.85      0.4296E-01
146.2        2.85      0.4268E-01
146.2        2.86      0.4155E-01
146.2        2.87      0.4267E-01
146.2        2.87      0.4462E-01
146.2        2.88      0.4350E-01
146.2        2.89      0.4350E-01
146.2        2.90      0.4098E-01
146.2        2.91      0.4321E-01
146.2        2.91      0.4517E-01
146.2        2.92      0.4432E-01
146.2        2.92      0.3537E-01
146.2        2.93      0.4935E-01
146.2        2.94      0.4571E-01
146.2        2.95      0.4431E-01
146.2        2.95      0.4347E-01
146.2        2.96      0.4291E-01
146.2        2.97      0.4626E-01
146.2        2.98      0.4989E-01
146.2        2.99      0.4541E-01
146.2        2.99      0.4653E-01
146.2        3.00      0.4093E-01
146.2        3.01      0.4149E-01
146.2        3.02      0.4092E-01
146.2        3.02      0.3896E-01
146.2        3.03      0.4148E-01
146.2        3.04      0.4427E-01
146.2        3.04      0.3588E-01
146.2        3.05      0.3615E-01
146.2        3.06      0.3727E-01
146.2        3.06      0.3839E-01
146.2        3.07      0.3782E-01
146.2        3.08      0.3558E-01
146.2        3.08      0.3250E-01
146.2        3.09      0.3446E-01
146.2        3.10      0.3781E-01
146.2        3.10      0.3725E-01
146.2        3.11      0.3557E-01
146.2        3.12      0.3473E-01
146.2        3.13      0.3248E-01
146.2        3.13      0.3472E-01
146.2        3.15      0.3331E-01
146.2        3.16      0.3611E-01
146.2        3.16      0.3079E-01
146.2        3.17      0.3051E-01
146.2        3.18      0.3274E-01
146.2        3.18      0.3106E-01
146.2        3.19      0.2882E-01
146.2        3.20      0.2518E-01
146.2        3.20      0.2742E-01
146.2        3.21      0.2657E-01
146.2        3.22      0.2657E-01
146.2        3.22      0.2713E-01
146.2        3.23      0.2517E-01
146.2        3.24      0.2544E-01
146.2        3.24      0.2656E-01
146.2        3.24      0.2404E-01
146.2        3.25      0.2488E-01
146.2        3.26      0.2571E-01
146.2        3.26      0.2431E-01
146.2        3.26      0.2236E-01
146.2        3.26      0.2151E-01
146.2        3.27      0.2207E-01
146.2        3.27      0.2347E-01
146.2        3.27      0.2179E-01
146.2        3.27      0.2487E-01
146.2        3.28      0.2347E-01
146.2        3.28      0.2179E-01
146.2        3.28      0.2626E-01
146.2        3.29      0.2961E-01
146.2        3.29      0.2821E-01
146.2        3.29      0.2542E-01
146.2        3.30      0.2905E-01
146.2        3.30      0.3241E-01
146.2        3.30      0.3353E-01
146.2        3.30      0.3744E-01
146.2        3.30      0.6149E-01
146.2        3.30      0.6037E-01
146.2        3.31      0.5282E-01
146.2        3.31      0.6653E-01
146.2        3.31      0.6009E-01
146.2        3.31      0.6345E-01
146.2        3.31      0.5729E-01
146.2        3.31      0.5030E-01
146.2        3.32      0.3296E-01
146.2        3.32      0.5589E-01
146.2        3.32      0.4051E-01
146.2        3.32      0.2457E-01
146.2        3.33      0.3128E-01
146.2        3.33      0.2764E-01
146.2        3.33      0.2456E-01
146.2        3.34      0.2680E-01
146.2        3.34      0.2456E-01
146.2        3.35      0.2791E-01
146.2        3.35      0.2595E-01
146.2        3.36      0.3406E-01
146.2        3.36      0.3042E-01
146.2        3.36      0.3210E-01
146.2        3.37      0.3126E-01
146.2        3.37      0.3545E-01
146.2        3.37      0.3014E-01
146.2        3.38      0.3349E-01
146.2        3.38      0.3461E-01
146.2        3.39      0.3852E-01
146.2        3.39      0.3544E-01
146.2        3.40      0.3572E-01
146.2        3.41      0.3935E-01
146.2        3.42      0.4130E-01
146.2        3.43      0.3459E-01
146.2        3.45      0.3206E-01
146.2        3.46      0.3122E-01
146.2        3.47      0.3764E-01
146.2        3.49      0.3708E-01
146.2        3.50      0.3959E-01
146.2        3.52      0.4070E-01
146.2        3.53      0.3650E-01
146.2        3.54      0.2922E-01
ENDDATA            895
ENDSUBENT          909
ENDENTRY             4
