ENTRY            30726     870113
SUBENT        30726001     870113
BIB                 12         15
INSTITUTE  (3RUMBUC)
REFERENCE  (P,INDC(SEC)-35,180,7308)
           (P,INDC(SEC)-35,174,7308) GRAPH.
AUTHOR     (S.RAPEANU,H.TEUTSCH,I.PADUREANU)
TITLE      NEUTRON TOTAL CROSS SECTION MEASUREMENT OF ZR IN THE
           CUT-OFF REGION (1.5 - 5.5 MILLI-EV)
FACILITY   (REAC,3RUMBUC)  VVR-S-REACTOR
SAMPLE     NATURAL ZR
METHOD     (TOF)  2.1M FLIGHT-PATH,RESOLUTION 3.5 PERCENT,
                  COOLED BE-FILTER,CHOPPER WITH CURVED SLITS
DETECTOR   (PROPC)  B-F3 COUNTERS
MONITOR    ABSOLUTE MEASUREMENTS
STATUS     DATA TAKEN FROM  P,INDC(SEC)-35(1973)180,TAB.
HISTORY    (861104C) DG
ERR-ANALYS NO INFORMATION
ENDBIB              15
NOCOMMON             0          0
ENDSUBENT           18
SUBENT        30726002     861201
BIB                  1          1
REACTION   (40-ZR-0(N,TOT),,SIG)
ENDBIB               1
NOCOMMON             0          0
DATA                 2         48
EN         DATA
MILLI-EV   B
 5.5100E+00 5.8800E+00
 5.2980E+00 6.3400E+00
 5.0970E+00 5.9800E+00
 4.9080E+00 5.9700E+00
 4.7290E+00 6.1000E+00
 4.5590E+00 6.2800E+00
 4.3990E+00 6.5000E+00
 4.2470E+00 6.6900E+00
 4.1020E+00 6.8800E+00
 3.9650E+00 6.9000E+00
 3.8350E+00 7.1900E+00
 3.7110E+00 7.7100E+00
 3.5930E+00 8.0500E+00
 3.4800E+00 8.2900E+00
 3.3730E+00 5.5100E+00
 3.2700E+00 4.1100E+00
 3.1720E+00 3.5000E+00
 3.0790E+00 3.2600E+00
 2.9890E+00 2.6200E+00
 2.9040E+00 2.6300E+00
 2.8220E+00 2.9400E+00
 2.7430E+00 2.5500E+00
 2.6680E+00 2.5700E+00
 2.5950E+00 2.3400E+00
 2.5260E+00 1.7600E+00
 2.4590E+00 1.9200E+00
 2.3950E+00 1.4100E+00
 2.3340E+00 1.3400E+00
 2.2750E+00 1.7000E+00
 2.2180E+00 1.1600E+00
 2.1630E+00 1.3200E+00
 2.1100E+00 1.6000E+00
 2.0590E+00 1.8700E+00
 2.0100E+00 1.5500E+00
 1.9620E+00 1.9300E+00
 1.9170E+00 2.1300E+00
 1.8730E+00 2.2800E+00
 1.8300E+00 2.8200E+00
 1.7890E+00 2.5400E+00
 1.7490E+00 1.9400E+00
 1.7100E+00 2.1900E+00
 1.6730E+00 1.6600E+00
 1.6370E+00 1.5100E+00
 1.6020E+00 1.7100E+00
 1.5680E+00 2.7900E+00
 1.5360E+00 4.0500E+00
 1.5040E+00 3.0800E+00
 1.4730E+00 2.8400E+00
ENDDATA             50
ENDSUBENT           56
ENDENTRY             2
