ENTRY            30782   20090909   20091224   20091223       3141
SUBENT        30782001   20090909   20091224   20091223       3141
BIB                  8         30
TITLE      Measurements of the cross sections of the reactions
           In-115(n,2n)In-114m and In-113(n,2n)In-112m
AUTHOR     (Li Jianwei,Wu Zhihua,Wu Songmao,Song Linggen,
           Xu Zhizheng,You Junsheng,Li Jianwei,Ding Meisong)
INSTITUTE  (3CPRFUD)
REFERENCE  (J,CNP,10,(1),52,198802) in Chinese. Detailed, Tables
             for In reactions
           (C,88MITO,,315,1988) Summary and graph given, also for
             Rh-103(n,n')
FACILITY   (VDG,3CPRFUD) 3MV Van de Graaff accelerator
           * Beam current is about 5-10 microAmp.
           * Targets were cooled with water or pressure air jet
INC-SOURCE Ti-T or Ti-D targets.
           -Neutron energy and energy spread were calculated
           according to reaction kinematics,thickness of target,
           solid angle sustained by sample to target and the angle
           of sample related to beam direction
           -Beam energy is calibrated with the reaction
            Li-7(p,n)Be-7 and Al-27(p,g)Si-28
           -Neutron flux was measured by means of:
           1)a B-F3 long counter located 3 m away from target at
             45 degree with beam direction
           2)recoil proton telescope with semi conductor detector
METHOD     (ACTIV)
HISTORY    (19880517C)-WD-
           (19900523A) VOF.-Complete revision and update.
                             Subentry 6 added.
           (20090725A) SD:Updated to new date formats,lower case.
            OS. Rearr.refs., changed title and authors seq.
            accord., added subentry 7
ENDBIB              30
NOCOMMON             0          0
ENDSUBENT           33
SUBENT        30782002   20090909   20091224   20091223       3141
BIB                  9         31
REACTION   (49-IN-115(N,2N)49-IN-114-M,,SIG)
DECAY-DATA (49-IN-114-M,49.51D,DG,190.0,0.967,XR,24.1)
MONITOR    (13-AL-27(N,A)11-NA-24,,SIG)
            sample purity   99.99%
MONIT-REF  (,MA HONGCHANG,R,HSJ-77133,1978) Data taken from
            evaluation report HSJ-77133(BP), 1978 in Chinese.
SAMPLE     Natural metal films.
            Element purity :     99.90 % (checked with pixe meth.)
            Abund. In-115  :     95.84 %
            Diameter       :     20.-30.    mm
            Thickness      :     300-500    mg/cm-2
INC-SOURCE (D-T)
DETECTOR   (GELI) Volume 130 cm3,calibrated with a set of standard
           gamma-sources.
           Efficiency corrections made due air absorption,window
           absorption,multigamma sum effect,solid angle,etc.
           (SOLST) Si(Li) detector for X-ray.
ERR-ANALYS (ERR-T)Total error was given for each energy point.
            The error items for 15.57 MeV were given
                                        as follows(in %):
             Full energy peak area 1.7  for In, 2.0  for Al
             Detector eff.point source 1.4 for In,
             Surface source correction 0.8 for In,  0.8 for Al
             Self-absorption correction 0.4 for In, 0.4 for Al
             Decay branch ratio         1.2 for In, 0.1 for Al
             Decay constant            0.02 for In, 0.4 for Al
             Neutron flux variation    0.03
             Standard cross section                2.5  for Al
             Amount of nuclei         0.1  for In, 0.1  for Al
STATUS     (TABLE) Data taken from
               J.Chinese Nucl.Phys.10(1), p.56, Tables 4 and 5
ENDBIB              31
NOCOMMON             0          0
DATA                 6         16
EN         EN-RSL     DATA       ERR-T      MONIT      MONIT-ERR
MEV        MEV        MB         MB         MB         MB
      12.70       0.25     1030.        74.      126.5        4.3
      12.99       0.25     1020.        59.      127.3        4.3
      13.19       0.18     1091.        61.      127.2        4.2
      13.72       0.21     1125.        55.      125.3        2.9
      14.16       0.28     1394.        68.      121.7        2.8
      14.71       0.36     1371.        73.      121.7        2.7
      15.08       0.39     1378.        67.      109.9        2.6
      15.20       0.44     1449.        68.      108.2        2.6
      15.27       0.23     1372.        67.      107.1        2.6
      15.56       0.54     1385.        53.      102.4        2.5
      15.75       0.09     1349.        62.       99.34       2.34
      16.07       0.36     1377.        77.       94.18       2.34
      16.46       0.31     1302.        49.       87.88       2.21
      17.13       0.49     1457.       105.       77.26       1.70
      17.60       0.41     1397.        96.       77.04       1.68
      18.26       0.15     1477.        92.       60.19       1.58
ENDDATA             18
ENDSUBENT           54
SUBENT        30782003   20090909   20091224   20091223       3141
BIB                  9         28
REACTION   (49-IN-115(N,2N)49-IN-114-M,,SIG)
DECAY-DATA (49-IN-114-M,49.51D,DG,190.0,0.967,XR,24.1)
MONITOR    (26-FE-56(N,P)25-MN-56,,SIG)
            Natural element was used. Its purity is 99.86%.
MONIT-REF  (,LU HANLIN,R,HSJ-77135,1977)Data taken from evaluation
            report HSJ-77133(BP), 1978 in Chinese.
SAMPLE     Natural metal films.
            Element purity :     99.90 % (checked with pixe meth.)
            Abund. In-115  :     95.84 %
            Diameter       :     20.-30.    mm
            Thickness      :     300-500    mg/cm-2
INC-SOURCE (D-T)
DETECTOR   (GELI) Volume 130 cm3,calibrated with a set of standard
           gamma-sources.
           Efficiency corrections made due air absorption,window
           absorption,multigamma sum effect,solid angle,etc.
           (SOLST) Si(Li) detector for X-ray.
ERR-ANALYS (ERR-T) The error items were given as follows in %.
             Full energy peak area 1.7 for In, 1.3 for Fe
             Detector eff.Point source  1.4 for In
             Surface source correction  0.8 for In, 0.8 for Fe
             Self-absorption correction 0.4 for In, 0.4 for Fe
             Decay branch ratio         1.2 for In, 1.0 for Fe
             Decay constant            0.02 for In, 0.6 for Fe
             Neutron flux variation    0.01
             Standard cross section                 2.3 for Fe
             Amount of nuclei           0.1 for In, 0.1 for Fe
STATUS     (TABLE) Data taken from J.Chin.Nucl.Phys.10,p.56,Tab4
ENDBIB              28
NOCOMMON             0          0
DATA                 6          1
EN         EN-RSL     DATA       ERR-T      MONIT      MONIT-ERR
MEV        MEV        MB         MB         MB         MB
      15.75       0.09     1293.        52.       91.43       2.29
ENDDATA              3
ENDSUBENT           36
SUBENT        30782004   20090909   20091224   20091223       3141
BIB                  9         33
REACTION   (49-IN-115(N,2N)49-IN-114-M,,SIG)
DECAY-DATA (49-IN-114-M,49.51D,DG,190.0,0.967,XR,24.1)
MONITOR    Absolute measurement.
           Telescope was used to measure incident neutron flux.
SAMPLE     Natural metal films.
            Element purity :     99.90 % (checked with pixe meth.)
            Abund. In-115  :     95.84 %
            Diameter       :     20.-30.    mm
            Thickness      :     300-500    mg/cm-2
INC-SOURCE (D-T)
DETECTOR   (GELI) Volume 130 cc,calibrated with a set of standard
           g-sources.
           Efficiency corrections made due air absorption,window
           absorption,multigamma sum effect,solid angle,etc.
           (SOLST) Si(Li) detector for X-ray.
ERR-ANALYS (ERR-T) The error items were given as follows (in %).
           (ERR-1) Full energy peak area  1.7
           (ERR-2) Detector eff.Point source  3.2
           (ERR-3) Surface source correction   0.8
           (ERR-4) Self-absorption correction  0.4
           (ERR-5) Decay branch ratio          1.2
           (ERR-6) Solid angle       2.0  for telescope
           (ERR-7) Scattering correction  1.8 for telescope
           (ERR-8) Neutron fluence        2.7
           (ERR-9) Systematic error of absolute measurement of
             gamma-ray 1.0
           Also:
             * Amount of nuclei            0.1
             * Decay constant              0.02
             * Neutron flux variation      0.03
STATUS     (TABLE) Data taken from J.Chin.Nucl.Phys.10,p.56,Tab.4
HISTORY    (20090909A) SD: Cosmetic changes, codes for partial
           uncertainties and data to COMMON section are added.
ENDBIB              33
COMMON               9          6
ERR-1      ERR-2      ERR-3      ERR-4      ERR-5      ERR-6
ERR-7      ERR-8      ERR-9
PER-CENT   PER-CENT   PER-CENT   PER-CENT   PER-CENT   PER-CENT
PER-CENT   PER-CENT   PER-CENT
  1.7        3.2         0.8        0.4       1.2        2.0
 1.8          2.7        1.0
ENDCOMMON            6
DATA                 4          1
EN         EN-RSL     DATA       ERR-T
MEV        MEV        MB         MB
      15.75       0.09     1345.       108.
ENDDATA              3
ENDSUBENT           48
SUBENT        30782005   20090909   20091224   20091223       3141
BIB                  9         18
REACTION   (49-IN-113(N,2N)49-IN-112-M,,SIG)
DECAY-DATA (49-IN-112-M,20.56MIN,G,156.0,1.0)
MONITOR    (13-AL-27(N,A)11-NA-24,,SIG)
            Purity of the monitor is 99.99%
MONIT-REF  (,MA HONGCHANG,R,HSJ-77133,1978)Data taken from
            evaluation report HSJ-77133(BP), 1978 in Chinese.
SAMPLE     Natural metal films.
            Element purity :     99.90 % (checked with pixe meth.)
            Abund. In-113  :      4.16 %
            Diameter       :     20.-30.    mm
            Thickness      :     300-500    mg/cm-2
INC-SOURCE (D-T)
DETECTOR   (GELI) Volume 130 cm3,calibrated with a set of standard
           gamma-sources.
           Efficiency corrections made due air absorption,window
           absorption,multigamma sum effect,solid angle,etc.
ERR-ANALYS (ERR-T)Total errors were given for each energy point
STATUS     (TABLE)Data taken from J.Chin.Nucl.Phys.10(1).p.56,Tbl4
ENDBIB              18
NOCOMMON             0          0
DATA                 6          9
EN         EN-RSL     DATA       ERR-T      MONIT      MONIT-ERR
MEV        MEV        MB         MB         MB         MB
      12.70       0.25     1000.       164.      126.5        4.3
      13.19       0.18      985.       155.      127.2        4.2
      13.72       0.21      172.       179.      125.3        2.9
      15.08       0.39     1174.       151.      109.9        2.6
      15.27       0.23     1278.       153.      107.1        2.6
      15.75       0.09     1127.       136.       99.34       2.34
      16.46       0.31     1163.       127.       87.88       2.21
      17.60       0.41     1160.       180.       77.04       1.68
      18.26       0.15     1246.       181.       60.19       1.58
ENDDATA             11
ENDSUBENT           34
SUBENT        30782006   20090909   20091224   20091223       3141
BIB                  9         23
REACTION   (45-RH-103(N,INL)45-RH-103-M,,SIG)
DECAY-DATA (45-RH-103-M,56.1MIN,XR,20.17,,XR,22.7)
INC-SOURCE (D-D)
SAMPLE     Natural metal film.
            Element purity :  99.28 % (checked with pixe method)
            Thickness      :  62.86 mg/cm-2
            Diameter       :  10.8  mm
METHOD     Absolute measurement of X-ray
DETECTOR   (SOLST) Volume 130 cm3, calibrated with a set of
           standard gamma-sources.
           Efficiency corrections made due air absorption,window
           absorption, multigamma sum effect, solid angle, etc.
           (NAICR)
MONITOR    Absolute measurement
ERR-ANALYS (DATA-ERR) No information available
STATUS     (TABLE)
           Since the absolute measurement of X-ray detector
           efficiency curve was not accurate enough, the authors
           considered the present data as tentative.
           ******
           Numerical data taken from private communication from
           Dr. Wu Zhihua, which corresponds to the fig.4 p. 318
           of the Mito paper
ENDBIB              23
NOCOMMON             0          0
DATA                 4          9
EN         EN-RSL     DATA       DATA-ERR
MEV        MEV        MB         MB
3.74       0.13       1170.0     116.0
4.07       0.14       1013.0     103.0
4.13       0.12       1202.0     121.0
4.28       0.11       1164.0     101.0
4.37       0.16       1124.0     115.0
4.57       0.10       1243.0     122.0
4.76       0.06       1170.0     109.0
4.96       0.11       1135.0     117.0
5.18       0.05       1164.0     102.0
ENDDATA             11
ENDSUBENT           39
SUBENT        30782007   20090909   20091224   20091223       3141
BIB                  8         13
REACTION   (38-SR-87(N,INL)38-SR-87-M,,SIG)
SAMPLE     Enriched sample (52.64% Sr-87), diameter 11.0 mm,
           chemical form Sr(NO3)2,
           thickness 21.03 - 126.3 mg/cm2
DECAY-DATA (38-SR-87-M,,DG,388.)
INC-SOURCE (D-D)
MONITOR    Absolute measurement
ERR-ANALYS (DATA-ERR) No information available
STATUS     (TABLE)
           Numerical data taken from private communication from
           Dr. Wu Zhihua, which corresponds to Fig.1 on p.317
           of the Mito paper
HISTORY    (20090909C) OS.
ENDBIB              13
NOCOMMON             0          0
DATA                 4         13
EN         EN-RSL     DATA       DATA-ERR
MEV        MEV        MB         MB
 0.975      0.022       32.5       3.9
 1.182      0.021       84.8       9.4
 1.330      0.077      100.       11.
 1.538      0.073      144.       16.
 1.747      0.066      206.       23.
 3.23       0.133      286.       27.
 3.40       0.112      241.       25.
 3.82       0.077      184.       19.
 4.12       0.137      167.       17.
 4.49       0.111      154.       16.
 4.83       0.095      115.       12.
 5.16       0.087      168.       17.
 5.69       0.071      129.       13.
ENDDATA             15
ENDSUBENT           33
ENDENTRY             7
