ENTRY            33098   20170306   20170703   20170627       3178
SUBENT        33098001   20170306   20170703   20170627       3178
BIB                 12         59
TITLE      Measurement of fission products yields in the
            quasi-mono-energetic neutron-induced fission of 232Th
AUTHOR     (H.Naik, S.Mukherji, S.V.Suryanarayana,
            K.C.Jagadeesan, S.V.Thakare, S.C.Sharma)
INSTITUTE  (3INDTRM)
REFERENCE  (J,NP/A,952,100,2016)
FACILITY   (VDGT,3INDTRM) 14 UD Pelletron
INC-SOURCE (P-LI7) The proton energies used were 7.8, 12, 16 and
           20 MeV, respectively. The proton current during the
           irradiations varied within 200 to 400 nA.
SAMPLE     232Th metal foil wrapped with 0.025 mm thick super
           pure aluminum foil. The size of each 232Th metal foil
           was 1.0 cm2 with thickness of about 323.7 to 325.2
           mg/cm2.
DETECTOR   (HPGE) Detector coupled to a PC-based 4K channel
           analyzer.
METHOD     (ACTIV,GSPEC)
DECAY-DATA ((1.)36-KR-85-M,4.48HR,DG,151.2,0.750,
                                  DG,304.9,0.140)
           ((2.)36-KR-87,76.3MIN,DG,402.6,0.496)
           ((3.)36-KR-88,2.84HR,DG,196.3,0.259)
           ((4.)38-SR-91,9.63HR,DG,749.8,0.236,
                                DG,1024.3,0.330)
           ((5.)38-SR-92,2.71HR,DG,1383.9,0.990)
           ((6.)39-Y-93-G,10.18HR,DG,266.9,0.073)
           ((7.)40-ZR-95,64.02D,DG,724.3,0.442)
           ((8.)40-ZR-97,16.91HR,DG,743.4,0.930)
           ((9.)42-MO-99,65.94HR,DG,140.5,0.894,
                                 DG,739.5,0.1213)
           ((10.)44-RU-103,39.26D,DG,497.1,0.900)
           ((11.)45-RH-105-G,35.36HR,DG,319.1,0.192)
           ((12.)47-AG-112,3.13HR,DG,617.5,0.430)
           ((13.)48-CD-115-G,53.46HR,DG,527.9,0.2745)
           ((14.)50-SN-128-G,59.07MIN,DG,482.3,0.590)
           ((15.)51-SB-127,3.85D,DG,687.0,0.370)
           ((16.)51-SB-129-G,4.32HR,DG,812.4,0.430)
           ((17.)52-TE-132,3.2D,DG,228.1,0.880)
           ((18.)53-I-131,8.02D,DG,364.5,0.817)
           ((19.)53-I-133-G,20.8HR,DG,529.9,0.870)
           ((20.)53-I-134-G,52.5MIN,DG,847.3,0.959,
                                    DG,884.09,0.650)
           ((21.)53-I-135,6.57HR,DG,1131.5,0.227,
                                 DG,1260.4,0.203)
           ((22.)56-BA-139,83.03MIN,DG,165.8,0.237)
           ((23.)56-BA-140,12.75D,DG,537.3,0.354)
           ((24.)57-LA-142,91.1MIN,DG,641.3,0.470)
           ((25.)58-CE-141,32.5D,DG,145.4,0.205)
           ((26.)58-CE-143,33.03HR,DG,293.3,0.428)
           ((27.)60-ND-147,10.98D,DG,531.0,0.131)
           ((28.)61-PM-150,2.68HR,DG,333.97,0.680)
ERR-ANALYS (ERR-1) The uncertainty in the efficiency was 2 to 3%
           (ERR-S,5.,10.) statistical uncertainty
           (ERR-SYS) the over all systematic error (~3.7%) is
           due to:
           (ERR-2) uncertainties in the irradiation time (0.1%)
           (ERR-3) detector efficiency (~3%)
           (ERR-4) half-life of nuclides of fission products (~1%)
           (ERR-5) gamma ray abundance (~2%)
HISTORY    (20170306C)Compiled by Damewan Suchiang+BL
ENDBIB              59
COMMON               6          3
ERR-SYS    ERR-1      ERR-2      ERR-3      ERR-4      ERR-5
PER-CENT   PER-CENT   PER-CENT   PER-CENT   PER-CENT   PER-CENT
        3.7        0.1         3.         1.         2.         2.
ENDCOMMON            3
ENDSUBENT           66
SUBENT        33098002   20170306   20170703   20170627       3178
BIB                  3          3
REACTION   (90-TH-232(N,F)ELEM/MASS,CUM,FY)
ERR-ANALYS (ERR-T) total uncertainty (6.2-10.7%)
STATUS     (TABLE) Table 1,2,3 and 4 of NP/A, 952,100(2016)
ENDBIB               3
NOCOMMON             0          0
DATA                 6        136
EN         ELEMENT    MASS       DATA       ERR-T      DECAY-FLAG
MEV        NO-DIM     NO-DIM     PC/FIS     PC/FIS     NO-DIM
       5.42        36.        85.      3.832      0.346         1.
       5.42        36.        85.      3.918      0.101         1.
       5.42        36.        87.      5.859      0.572         2.
       5.42        36.        88.      5.778      0.415         3.
       5.42        38.        91.      5.782      0.427         4.
       5.42        38.        91.      6.223      0.683         4.
       5.42        38.        92.      5.453      0.052         5.
       5.42        39.        93.      5.369      0.555         6.
       5.42        40.        95.      6.664      0.678         7.
       5.42        40.        97.      4.639      0.422         8.
       5.42        42.        99.      2.874      0.228         9.
       5.42        42.        99.      3.107      0.247         9.
       5.42        44.       103.      0.479      0.128        10.
       5.42        45.       105.      0.128      0.014        11.
       5.42        47.       112.      0.204      0.033        12.
       5.42        48.       115.      0.180      0.033        13.
       5.42        48.       115.      0.209      0.038        13.
       5.42        50.       128.      0.993      0.107        14.
       5.42        51.       127.      0.498      0.081        15.
       5.42        51.       129.      1.631      0.146        16.
       5.42        52.       132.      3.604      0.287        17.
       5.42        53.       131.      3.007      0.242        18.
       5.42        53.       133.      4.796      0.606        19.
       5.42        53.       134.      6.835      0.615        20.
       5.42        53.       134.      6.750      0.521        20.
       5.42        53.       135.      5.746      0.352        21.
       5.42        53.       135.      5.817      0.464        21.
       5.42        56.       139.      7.565      0.455        22.
       5.42        56.       140.      8.177      0.574        23.
       5.42        57.       142.      6.137      0.394        24.
       5.42        58.       141.      7.314      0.493        25.
       5.42        58.       143.      6.432      0.361        26.
       5.42        60.       147.      2.275      0.161        27.
       5.42        61.       150.      0.522      0.047        28.
       7.75        36.        85.      3.331      0.137         1.
       7.75        36.        85.      3.827      0.217         1.
       7.75        36.        87.      5.677      0.170         2.
       7.75        36.        88.      5.551      0.112         3.
       7.75        38.        91.      5.783      0.406         4.
       7.75        38.        91.      6.005      0.567         4.
       7.75        38.        92.      5.201      0.052         5.
       7.75        39.        93.      5.127      0.383         6.
       7.75        40.        95.      6.454      0.454         7.
       7.75        40.        97.      4.701      0.430         8.
       7.75        42.        99.      3.033      0.241         9.
       7.75        42.        99.      3.123      0.250         9.
       7.75        44.       103.      0.533      0.151        10.
       7.75        45.       105.      0.241      0.028        11.
       7.75        47.       112.      0.274      0.024        12.
       7.75        48.       115.      0.260      0.024        13.
       7.75        48.       115.      0.302      0.028        13.
       7.75        50.       128.      1.328      0.146        14.
       7.75        51.       127.      0.533      0.052        15.
       7.75        51.       129.      1.706      0.232        16.
       7.75        52.       132.      3.846      0.435        17.
       7.75        53.       131.      3.052      0.208        18.
       7.75        53.       133.      4.904      0.345        19.
       7.75        53.       134.      6.687      0.457        20.
       7.75        53.       134.      6.927      0.487        20.
       7.75        53.       135.      5.262      0.416        21.
       7.75        53.       135.      5.609      0.706        21.
       7.75        56.       139.      7.031      0.562        22.
       7.75        56.       140.      8.240      0.524        23.
       7.75        57.       142.      6.119      0.317        24.
       7.75        58.       141.      6.984      0.743        25.
       7.75        58.       143.      6.766      0.581        26.
       7.75        60.       147.      2.351      0.274        27.
       7.75        61.       150.      0.581      0.019        28.
       9.35        36.        85.      3.124      0.182         1.
       9.35        36.        85.      3.181      0.251         1.
       9.35        36.        87.      6.139      0.489         2.
       9.35        36.        88.      5.427      0.431         3.
       9.35        38.        91.      5.906      0.386         4.
       9.35        38.        91.      6.023      0.482         4.
       9.35        38.        92.      5.418      0.377         5.
       9.35        39.        93.      4.925      0.343         6.
       9.35        40.        95.      6.392      0.447         7.
       9.35        40.        97.      4.838      0.351         8.
       9.35        42.        99.      2.890      0.230         9.
       9.35        42.        99.      2.790      0.325         9.
       9.35        44.       103.      0.668      0.082        10.
       9.35        45.       105.      0.378      0.061        11.
       9.35        47.       112.      0.538      0.048        12.
       9.35        48.       115.      0.454      0.122        13.
       9.35        48.       115.      0.529      0.139        13.
       9.35        50.       128.      1.002      0.252        14.
       9.35        51.       127.      0.634      0.056        15.
       9.35        51.       129.      1.666      0.256        16.
       9.35        52.       132.      4.305      0.343        17.
       9.35        53.       131.      3.207      0.256        18.
       9.35        53.       133.      5.351      0.352        19.
       9.35        53.       134.      6.305      0.503        20.
       9.35        53.       134.      6.692      0.647        20.
       9.35        53.       135.      5.650      0.963        21.
       9.35        53.       135.      5.741      0.755        21.
       9.35        56.       139.      6.830      0.269        22.
       9.35        56.       140.      7.473      0.525        23.
       9.35        57.       142.      5.559      0.469        24.
       9.35        58.       141.      6.123      0.369        25.
       9.35        58.       143.      6.028      0.286        26.
       9.35        60.       147.      1.996      0.108        27.
       9.35        61.       150.      0.438      0.017        28.
      12.53        36.        85.      3.119      0.250         1.
      12.53        36.        85.      3.210      0.258         1.
      12.53        36.        87.      5.459      0.171         2.
      12.53        36.        88.      5.109      0.504         3.
      12.53        38.        91.      5.513      0.387         4.
      12.53        38.        91.      5.671      0.954         4.
      12.53        38.        92.      5.063      0.328         5.
      12.53        39.        93.      4.651      0.650         6.
      12.53        40.        95.      5.934      0.583         7.
      12.53        40.        97.      4.672      0.329         8.
      12.53        42.        99.      2.902      0.233         9.
      12.53        42.        99.      2.819      0.258         9.
      12.53        44.       103.      0.858      0.051        10.
      12.53        45.       105.      0.629      0.054        11.
      12.53        47.       112.      0.791      0.058        12.
      12.53        48.       115.      0.754      0.096        13.
      12.53        48.       115.      0.879      0.112        13.
      12.53        50.       128.      1.166      0.092        14.
      12.53        51.       127.      0.791      0.062        15.
      12.53        51.       129.      1.707      0.192        16.
      12.53        52.       132.      4.160      0.287        17.
      12.53        53.       131.      2.986      0.258        18.
      12.53        53.       133.      5.422      0.550        19.
      12.53        53.       134.      6.608      0.426        20.
      12.53        53.       134.      6.167      0.520        20.
      12.53        53.       135.      5.676      0.466        21.
      12.53        53.       135.      5.438      0.401        21.
      12.53        56.       139.      7.070      0.496        22.
      12.53        56.       140.      7.237      0.545        23.
      12.53        57.       142.      5.796      0.404        24.
      12.53        58.       141.      6.279      0.658        25.
      12.53        58.       143.      5.875      0.637        26.
      12.53        60.       147.      2.074      0.133        27.
      12.53        61.       150.      0.458      0.042        28.
ENDDATA            138
ENDSUBENT          146
SUBENT        33098003   20170306   20170703   20170627       3178
BIB                  3          3
REACTION   (90-TH-232(N,F)MASS,CHN,FY)
ERR-ANALYS (ERR-T) total uncertainty (6.2-10.7%)
STATUS     (TABLE) Table 1,2,3 and 4 of NP/A, 952,100(2016)
ENDBIB               3
NOCOMMON             0          0 3
DATA                 5        136
EN         MASS       DATA       ERR-T      DECAY-FLAG
MEV        NO-DIM     PC/FIS     PC/FIS     NO-DIM
       5.42        85.      3.832      0.346         1.
       5.42        85.      3.846      0.101         1.
       5.42        87.      5.877      0.574         2.
       5.42        88.      5.872      0.422         3.
       5.42        91.      5.782      0.427         4.
       5.42        91.      6.223      0.683         4.
       5.42        92.      5.464      0.052         5.
       5.42        93.      5.369      0.555         6.
       5.42        95.      6.664      0.678         7.
       5.42        97.      4.643      0.422         8.
       5.42        99.      2.874      0.228         9.
       5.42        99.      3.107      0.247         9.
       5.42       103.      0.479      0.128        10.
       5.42       105.      0.128      0.014        11.
       5.42       112.      0.204      0.033        12.
       5.42       115.      0.180      0.033        13.
       5.42       115.      0.209      0.038        13.
       5.42       127.      0.498      0.081        15.
       5.42       128.      1.058      0.114        14.
       5.42       129.      1.641      0.147        16.
       5.42       131.      3.007      0.242        17.
       5.42       132.      3.633      0.289        18.
       5.42       133.      4.811      0.607        19.
       5.42       134.      6.849      0.617        20.
       5.42       134.      6.764      0.522        20.
       5.42       135.      5.810      0.356        21.
       5.42       135.      5.881      0.470        21.
       5.42       139.      7.565      0.455        22.
       5.42       140.      8.177      0.574        23.
       5.42       141.      7.314      0.493        24.
       5.42       142.      6.137      0.394        25.
       5.42       143.      6.432      0.361        26.
       5.42       147.      2.281      0.161        27.
       5.42       150.      0.522      0.047        28.
       7.75        85.      3.331      0.137         1.
       7.75        85.      3.827      0.217         1.
       7.75        87.      5.694      0.170         2.
       7.75        88.      5.642      0.113         3.
       7.75        91.      5.783      0.406         4.
       7.75        91.      6.005      0.567         4.
       7.75        92.      5.212      0.052         5.
       7.75        93.      5.127      0.383         6.
       7.75        95.      6.454      0.454         7.
       7.75        97.      4.701      0.430         8.
       7.75        99.      3.033      0.241         9.
       7.75        99.      3.123      0.250         9.
       7.75       103.      0.533      0.151        10.
       7.75       105.      0.241      0.028        11.
       7.75       112.      0.274      0.024        12.
       7.75       115.      0.260      0.024        13.
       7.75       115.      0.302      0.028        13.
       7.75       127.      0.533      0.052        14.
       7.75       128.      1.412      0.156        15.
       7.75       129.      1.716      0.233        16.
       7.75       131.      3.052      0.208        17.
       7.75       132.      3.877      0.438        18.
       7.75       133.      4.909      0.345        19.
       7.75       134.      6.700      0.458        20.
       7.75       134.      6.947      0.488        20.
       7.75       135.      5.316      0.421        21.
       7.75       135.      5.665      0.713        21.
       7.75       139.      7.031      0.562        22.
       7.75       140.      8.240      0.524        23.
       7.75       141.      6.984      0.743        24.
       7.75       142.      6.119      0.317        25.
       7.75       143.      6.766      0.581        26.
       7.75       147.      2.358      0.275        27.
       7.75       150.      0.582      0.019        28.
       9.35        85.      3.124      0.182         1.
       9.35        85.      3.181      0.251         1.
       9.35        87.      6.158      0.490         2.
       9.35        88.      5.516      0.438         3.
       9.35        91.      5.906      0.386         4.
       9.35        91.      6.023      0.482         4.
       9.35        92.      5.429      0.378         5.
       9.35        93.      4.925      0.343         6.
       9.35        95.      6.392      0.447         7.
       9.35        97.      4.843      0.352         8.
       9.35        99.      2.890      0.230         9.
       9.35        99.      2.790      0.325         9.
       9.35       103.      0.668      0.082        10.
       9.35       105.      0.378      0.061        11.
       9.35       112.      0.538      0.048        12.
       9.35       115.      0.454      0.122        13.
       9.35       115.      0.529      0.139        13.
       9.35       127.      0.634      0.056        14.
       9.35       128.      1.066      0.268        15.
       9.35       129.      1.676      0.258        16.
       9.35       131.      3.207      0.256        17.
       9.35       132.      3.340      0.346        18.
       9.35       133.      5.356      0.352        19.
       9.35       134.      6.318      0.504        20.
       9.35       134.      6.705      0.648        20.
       9.35       135.      5.707      0.973        21.
       9.35       135.      5.799      0.763        21.
       9.35       139.      6.830      0.269        22.
       9.35       140.      7.473      0.525        23.
       9.35       141.      6.123      0.369        24.
       9.35       142.      5.559      0.469        25.
       9.35       143.      6.028      0.286        26.
       9.35       147.      2.002      0.109        27.
       9.35       150.      0.439      0.017        28.
      12.53        85.      3.119      0.250         1.
      12.53        85.      3.210      0.258         1.
      12.53        87.      5.475      0.171         2.
      12.53        88.      5.192      0.512         3.
      12.53        91.      5.513      0.387         4.
      12.53        91.      5.671      0.954         4.
      12.53        92.      5.074      0.329         5.
      12.53        93.      4.651      0.650         6.
      12.53        95.      5.934      0.583         7.
      12.53        97.      4.677      0.329         8.
      12.53        99.      2.902      0.233         9.
      12.53        99.      2.819      0.258         9.
      12.53       103.      0.858      0.051        10.
      12.53       105.      0.629      0.054        11.
      12.53       112.      0.792      0.058        12.
      12.53       115.      0.754      0.096        13.
      12.53       115.      0.879      0.112        13.
      12.53       127.      0.791      0.062        14.
      12.53       128.      1.239      0.097        15.
      12.53       129.      1.716      0.193        16.
      12.53       131.      2.986      0.258        17.
      12.53       132.      3.189      0.289        18.
      12.53       133.      5.427      0.550        19.
      12.53       134.      6.622      0.463        20.
      12.53       134.      6.179      0.522        20.
      12.53       135.      5.733      0.471        21.
      12.53       135.      5.493      0.405        21.
      12.53       139.      7.070      0.496        22.
      12.53       140.      7.237      0.545        23.
      12.53       141.      6.279      0.658        24.
      12.53       142.      5.796      0.404        25.
      12.53       143.      5.875      0.637        26.
      12.53       147.      2.080      0.134        27.
      12.53       150.      0.459      0.042        28.
ENDDATA            138
ENDSUBENT          146
SUBENT        33098004   20170306   20170703   20170627       3178
BIB                  3          6
REACTION  1(90-TH-232(N,F),SEC,AP,LF)
          2(90-TH-232(N,F),SEC,AP,HF)
          3(90-TH-232(N,F),,NU,,,DERIV)
ANALYSIS  3 Subtraction of the light and heavy fragment masses
            from the compound mass (=233)
STATUS     (TABLE) Table 5 Nucl.Phys.A 952,100(2016)
ENDBIB               6
NOCOMMON             0          0
DATA                 4          4
EN         DATA      1DATA      2DATA      3
MEV        NO-DIM     NO-DIM     PRT/FIS
       5.42      91.66     138.64        2.7
       7.75      91.36     138.43        3.2
       9.53      91.42     138.13       3.45
      12.53      91.58     137.91       3.51
ENDDATA              6
ENDSUBENT           17
ENDENTRY             4
