ENTRY            C1073   20041117
SUBENT        C1073001   20041117
BIB                 11         14
INSTITUTE  (1USAWIS)
REFERENCE  (J,NP/A,206,459,1973)
AUTHOR     (R.D.Rathmell,P.J.Bjorkholm,W.Haeberli)
TITLE      Vector analyzing power and cross section for
            90Zr(d,p)91Zr at 11 and 12 MeV
FACILITY   (ACCEL,1USAWIS) Tandem accelerator.
INC-SOURCE (POLIS)
DETECTOR   (SOLST)
MONITOR    Beam polarization monitored using Al elastic scattering
            at 82.5 degrees and deuteron beam energy 11 MeV.
CORRECTION Corrected for dead time.
ERR-ANALYS (ANG-ERR-D)  Digitizing error
           (ERR-DIG)    Digitizing error
HISTORY    (20041117C) VM
ENDBIB              14
COMMON               2          3
ANG-ERR-D  ERR-DIG
ADEG       PER-CENT
  0.5        0.3
ENDCOMMON            3
ENDSUBENT           21
SUBENT        C1073002   20041117
BIB                  4          8
REACTION   (40-ZR-90(D,EL)40-ZR-90,,DA,,RTH)
SAMPLE     Zirconium sample enriched to 98% 90Zr; thickness
            5 mg/cm2.
ERR-ANALYS (DATA-ERR) Uncertainty includes statistical error and
            uncertainty in detector solid angles.
           Additional normalization uncertainty of 3% associated
            with monitor detectors.
STATUS     (CURVE) Scanned from Fig.1 in article at IAEA-NDS.
ENDBIB               8
COMMON               1          3
EN
MEV
  11.0
ENDCOMMON            3
DATA                 3         21
ANG-CM     DATA-CM    DATA-ERR
ADEG       NO-DIM     NO-DIM
 16.        1.0314     0.0327
 24.        0.9588     0.0294
 31.        0.7552     0.0262
 39.        0.5549     0.0262
 46.        0.5118
 54.        0.4751
 62.        0.3960
 69.        0.2972
 76.        0.2377
 84.        0.2502
 92.        0.2659
 99.        0.2424
106.        0.1830
114.        0.1332
121.        0.1261
128.        0.1419
136.        0.1577
143.        0.1604
152.        0.1302
158.        0.1003
165.        0.0866
ENDDATA             23
ENDSUBENT           40
SUBENT        C1073003   20041117
BIB                  5         12
REACTION   (40-ZR-90(D,EL)40-ZR-90,,POL/DA,,VAP)
SAMPLE     Zirconium sample enriched to 98% 90Zr; thickness
            5 mg/cm2.
CORRECTION Corrected for averaging over vertical extent of the
            detectors (<4%).
ERR-ANALYS (DATA-ERR) Uncertainty includes:
           . statistical error,
           . possible effects of beam tensor moment,
           . difference between spin-up and spin-down vector
             polarizations,
           . uncertainty in beam polarization.
STATUS     (CURVE) Scanned from Fig.1 in article at IAEA-NDS.
ENDBIB              12
COMMON               1          3
EN
MEV
  11.0
ENDCOMMON            3
DATA                 3         20
ANG-CM     DATA-CM    DATA-ERR
ADEG       NO-DIM     NO-DIM
 16.        0.0039     0.0097
 23.       -0.0013     0.0097
 31.       -0.0130     0.0097
 38.       -0.0022
 45.        0.0038
 53.       -0.0095
 61.       -0.0325
 68.       -0.0233
 76.        0.0521
 83.        0.0662
 91.       -0.0020
 98.       -0.0573
113.        0.0628
121.        0.1494     0.0097
128.        0.1023     0.0097
136.        0.0018     0.0113
143.       -0.0406     0.0113
152.       -0.0524     0.0145
158.        0.0473     0.0145
166.        0.1194     0.0178
ENDDATA             22
ENDSUBENT           43
SUBENT        C1073004   20041117
BIB                  6          8
REACTION   (40-ZR-90(D,P)40-ZR-91,PAR,DA)
SAMPLE     Zirconium sample enriched to 98% 90Zr; thickness
            1 mg/cm2.
MONITOR    (40-ZR-90(D,P)40-ZR-91,PAR,DA)
MONIT-REF  (,MICHELMAN+,J,PR,180,1114,1969)
ERR-ANALYS (DATA-ERR) Uncertainty includes statistical error and
            uncertainty in detector solid angles.
STATUS     (CURVE) Scanned from Fig.3-6,8 in article at IAEA-NDS.
ENDBIB               8
COMMON               3          3
EN         ANG-NRM    E-LVL-NRM
MEV        ADEG       MEV
  11.0      50.         0.
ENDCOMMON            3
DATA                 4         43
E-LVL      ANG-CM     DATA-CM    DATA-ERR
MEV        ADEG       MB/SR      MB/SR
  0.000     31.        5.3927
  0.000     36.        3.4164
  0.000     41.        3.8123
  0.000     46.        4.4437     0.2810
  0.000     51.        4.3990     0.3228
  0.000     56.        4.2151     0.2668
  0.000     61.        3.2485     0.2056
  0.000     66.        2.1731     0.1594
  0.000     71.        1.5860     0.0840
  0.000     76.        1.1326     0.0717
  0.000     81.        0.9839     0.0521
  0.000     86.        1.1721     0.0742
  0.000     91.        1.1859     0.0870
  0.000     96.        1.1117     0.0589
  0.000    101.        1.2138     0.0768
  0.000    106.        0.8859     0.0650
  0.000    111.        0.4979     0.0264
  0.000    121.        0.2801     0.0177
  0.000    125.        0.2683     0.0197
  0.000    131.        0.4336     0.0274
  0.000    141.        0.4112     0.0260
  0.000    151.        0.3242     0.0238
  1.201     31.        6.6884     0.3440
  1.201     41.        5.4769     0.3363
  1.201     46.        3.0011     0.1544
  1.201     51.        1.4953     0.0918
  1.201     56.        1.4960     0.1067
  1.201     61.        1.3610     0.0700
  1.201     66.        1.6466     0.1011
  1.201     71.        2.0348     0.1249
  1.201     76.        1.6655     0.1023
  1.201     81.        1.1273     0.0692
  1.201     86.        0.7086     0.0364
  1.201     91.        0.4847     0.0249
  1.201     96.        0.3685     0.0226
  1.201    101.        0.3886     0.0239
  1.201    106.        0.4413     0.0227
  1.201    111.        0.4144     0.0213
  1.201    121.        0.3323     0.0204
  1.201    132.        0.2664     0.0164
  1.201    141.        0.2995     0.0184
  1.201    151.        0.2049     0.0126
  1.201    161.        0.1526     0.0094
ENDDATA             45
ENDSUBENT           62
SUBENT        C1073005   20041117
BIB                  7         12
REACTION   (40-ZR-90(D,P)40-ZR-91,PAR,DA)
SAMPLE     Zirconium sample enriched to 98% 90Zr; thickness
            0.5 mg/cm2.
MONITOR    (40-ZR-90(D,P)40-ZR-91,PAR,DA)
MONIT-REF  (,MICHELMAN+,J,PR,180,1114,1969)
CORRECTION For peaks at 1.457 and 1.871 contribution from (d,p)
            reactions on other Zr isotopes and by 90Zr(d,alpha)88Y
            reaction were subtracted.
ERR-ANALYS (DATA-ERR) Uncertainty includes statistical error,
            uncertainty in detector solid angles, and possible
            error in subtraction of contaminants.
STATUS     (CURVE) Scanned from Fig.3-6,8 in article at IAEA-NDS.
ENDBIB              12
COMMON               3          3
EN         ANG-NRM    E-LVL-NRM
MEV        ADEG       MEV
  12.0      50.         0.
ENDCOMMON            3
DATA                 4        259
E-LVL      ANG-CM     DATA-CM    DATA-ERR
MEV        ADEG       MB/SR      MB/SR
 0.000      21.357     9.2529    0.59044
 0.000      26.314     8.3912    0.53545
 0.000      41.758     2.4865    0.15867
 0.000      46.619     3.3493    0.21398
 0.000      51.499     4.1775    0.35191
 0.000      56.455     3.7885    0.20256
 0.000      61.457     2.8502    0.18188
 0.000      66.164     1.6836    0.10730
 0.000      71.579    0.98384    0.62780E-01
 0.000      76.202    0.82609    0.61166E-01
 0.000      81.823    0.88356    0.56381E-01
 0.000      86.714     1.0546    0.67298E-01
 0.000      91.638     1.0913    0.69550E-01
 0.000      96.603    0.95754    0.61102E-01
 0.000      101.25    0.72033    0.45965E-01
 0.000      105.91    0.52431    0.28033E-01
 0.000      111.65    0.34578    0.25603E-01
 0.000      115.94    0.26588    0.19686E-01
 0.000      121.59    0.25478    0.13622E-01
 0.000      126.15    0.27849    0.17771E-01
 0.000      131.41    0.30783    0.19619E-01
 0.000      135.97    0.33648    0.21471E-01
 0.000      141.26    0.32597    0.20801E-01
 0.000      146.21    0.30218    0.19306E-01
 0.000      151.20    0.24284    0.15496E-01
 0.000      156.19    0.19091    0.12182E-01
 0.000      160.84    0.14204    0.90640E-02
 1.201      21.043     1.4742    0.11925
 1.201      25.959     4.3256    0.30776
 1.201      31.346     6.5323    0.40045
 1.201      36.140     6.1372    0.37623
 1.201      41.343     4.0719    0.24962
 1.201      46.252     2.1197    0.12994
 1.201      51.485     1.2006    0.85423E-01
 1.201      56.284     1.1045    0.56719E-01
 1.201      61.375     1.3087    0.80149E-01
 1.201      66.147     1.3807    0.84643E-01
 1.201      71.281     1.3111    0.93280E-01
 1.201      75.759     1.0853    0.55669E-01
 1.201      81.287    0.78350    0.48031E-01
 1.201      86.145    0.53087    0.32544E-01
 1.201      91.350    0.34853    0.21366E-01
 1.201      95.827    0.28851    0.17670E-01
 1.201      100.94    0.30442    0.15633E-01
 1.201      106.05    0.32804    0.16827E-01
 1.201      111.17    0.34250    0.20976E-01
 1.201      116.30    0.31843    0.19521E-01
 1.201      121.12    0.26362    0.26380E-01
 1.201      126.30    0.20060    0.14272E-01
 1.201      131.83    0.14481    0.74366E-02
 1.201      135.97    0.11861    0.84391E-02
 1.201      141.10    0.11145    0.79292E-02
 1.201      146.22    0.11514    0.81917E-02
 1.201      151.35    0.11284    0.80283E-02
 1.201      156.46    0.11906    0.72987E-02
 1.201      161.59    0.11792    0.83900E-02
 1.457      20.906    0.33564    0.47915E-01
 1.457      26.247    0.25236    0.31226E-01
 1.457      31.144    0.30458    0.28745E-01
 1.457      36.186    0.17390    0.18110E-01
 1.457      41.158    0.14278    0.16282E-01
 1.457      46.432    0.15101    0.17221E-01
 1.457      51.418    0.11479    0.11965E-01
 1.457      56.007    0.10994    0.12538E-01
 1.457      61.299    0.10648    0.13182E-01
 1.457      66.303    0.74119E-010.77186E-02
 1.457      70.932    0.57592E-010.60017E-02
 1.457      75.928    0.41893E-010.43657E-02
 1.457      80.884    0.37151E-010.34225E-02
 1.457      86.141    0.42909E-010.49928E-02
 1.457      90.734    0.40202E-010.46808E-02
 1.457      95.680    0.37668E-010.39255E-02
 1.457      100.96    0.38972E-010.40585E-02
 1.457      105.95    0.28349E-010.29522E-02
 1.457      110.59    0.21548E-010.22439E-02
 1.457      115.87    0.21570E-010.19855E-02
 1.457      120.51    0.16395E-010.18696E-02
 1.457      125.47    0.14067E-010.17406E-02
 1.457      130.74    0.15377E-010.16028E-02
 1.457      135.69    0.13788E-010.15723E-02
 1.457      140.26    0.14421E-010.15022E-02
 1.457      145.53    0.15764E-010.16431E-02
 1.457      150.48    0.14449E-010.16477E-02
 1.457      155.40    0.15794E-010.14896E-02
 1.457      160.70    0.14477E-010.17913E-02
 1.871      35.618    0.11632    0.84685E-02
 1.871      41.542    0.11522    0.73740E-02
 1.871      45.593    0.98113E-010.71434E-02
 1.871      51.826    0.81983E-010.73917E-02
 1.871      55.879    0.78937E-010.57470E-02
 1.871      60.865    0.67857E-010.49403E-02
 1.871      65.851    0.55640E-010.35611E-02
 1.871      70.842    0.64717E-010.41423E-02
 1.871      75.827    0.50141E-010.27638E-02
 1.871      80.813    0.41898E-010.30505E-02
 1.871      86.112    0.38118E-010.27750E-02
 1.871      90.785    0.28707E-010.18373E-02
 1.871      95.771    0.23762E-010.17300E-02
 1.871      100.76    0.28166E-010.18027E-02
 1.871      105.75    0.22878E-010.14642E-02
 1.871      110.74    0.21211E-010.15442E-02
 1.871      115.41    0.23311E-010.19004E-02
 1.871      121.02    0.19850E-010.14452E-02
 1.871      126.01    0.18231E-010.14863E-02
 1.871      130.69    0.16586E-010.12076E-02
 1.871      135.36    0.13220E-010.96247E-03
 1.871      140.66    0.12027E-010.87563E-03
 1.871      145.65    0.11580E-010.84309E-03
 1.871      150.64    0.11363E-010.82730E-03
 1.871      155.63    0.13725E-010.87850E-03
 1.871      160.62    0.15666E-010.11405E-02
 2.031      19.580     5.2280    0.30659
 2.031      39.815     1.8529    0.12962
 2.031      44.835     2.0176    0.11832
 2.031      50.244     2.1706    0.10245
 2.031      55.279     2.0693    0.14476
 2.031      59.949     1.6257    0.95342E-01
 2.031      65.417     1.0276    0.60306E-01
 2.031      70.103    0.69835    0.48826E-01
 2.031      75.153    0.58287    0.40775E-01
 2.031      79.789    0.61950    0.36306E-01
 2.031      84.809    0.67457    0.39560E-01
 2.031      89.843    0.65090    0.38172E-01
 2.031      94.502    0.56330    0.26587E-01
 2.031      99.554    0.46451    0.27241E-01
 2.031      104.62    0.33132    0.19430E-01
 2.031      110.07    0.24212    0.14199E-01
 2.031      114.74    0.19487    0.11428E-01
 2.031      119.77    0.19032    0.11162E-01
 2.031      124.79    0.20475    0.12008E-01
 2.031      129.82    0.22027    0.15401E-01
 2.031      134.45    0.23411    0.13730E-01
 2.031      139.48    0.23998    0.16778E-01
 2.031      144.91    0.21278    0.12478E-01
 2.031      149.57    0.18638    0.13038E-01
 2.031      154.62    0.15002    0.87981E-02
 2.031      159.29    0.11505    0.80484E-02
 2.541      30.162     2.3456    0.12084
 2.541      35.280     2.4744
 2.541      40.090     1.9205
 2.541      45.260     1.2453    0.67641E-01
 2.541      50.093    0.77405    0.42043E-01
 2.541      55.251    0.56387    0.36949E-01
 2.541      60.038    0.54077    0.23373E-01
 2.541      65.504    0.54108    0.29368E-01
 2.541      70.284    0.55292
 2.541      75.076    0.50295
 2.541      79.878    0.42038
 2.541      85.022    0.34768
 2.541      90.531    0.23273    0.14312E-01
 2.541      95.003    0.17315    0.10648E-01
 2.541      100.48    0.16259    0.10004E-01
 2.541      104.93    0.14480    0.74594E-02
 2.541      110.74    0.14336    0.73853E-02
 2.541      115.18    0.14342    0.88201E-02
 2.541      120.65    0.13756    0.70866E-02
 2.541      125.45    0.11868    0.72986E-02
 2.541      135.38    0.88347E-010.45543E-02
 2.541      140.86    0.79524E-010.48931E-02
 2.541      145.31    0.74667E-010.45918E-02
 2.541      149.75    0.71607E-010.44036E-02
 2.541      154.87    0.73955E-010.38099E-02
 2.541      159.99    0.82250E-010.50608E-02
 3.068      30.294     1.2133    0.84445E-01
 3.068      35.382    0.81651    0.47682E-01
 3.068      40.056    0.65805    0.38394E-01
 3.068      50.123    0.62805    0.36644E-01
 3.068      55.160    0.59899    0.41689E-01
 3.068      59.829    0.50047    0.29226E-01
 3.068      65.290    0.37083    0.25828E-01
 3.068      70.353    0.29530    0.17230E-01
 3.068      75.037    0.22411    0.13076E-01
 3.068      80.074    0.21374    0.12471E-01
 3.068      85.089    0.23549    0.13740E-01
 3.068      90.131    0.21663    0.12640E-01
 3.068      95.172    0.20170    0.11768E-01
 3.068      100.22    0.18114    0.10569E-01
 3.068      104.90    0.14082    0.82160E-02
 3.068      109.58    0.10687    0.62351E-02
 3.068      114.63    0.91467E-010.53367E-02
 3.068      119.69    0.77352E-010.45092E-02
 3.068      125.11    0.72895E-010.42531E-02
 3.068      130.13    0.80313E-010.46859E-02
 3.068      134.77    0.79405E-010.46288E-02
 3.068      139.78    0.90698E-010.52918E-02
 3.068      144.81    0.90763E-010.52956E-02
 3.068      149.86    0.81512E-010.47559E-02
 3.068      154.51    0.76807E-010.53457E-02
 3.068      159.16    0.74135E-010.51560E-02
 3.270      35.281     1.0560    0.73366E-01
 3.270      40.351    0.85160    0.49597E-01
 3.270      44.994    0.85230    0.49639E-01
 3.270      60.127    0.67223    0.39151E-01
 3.270      65.214    0.49248    0.28682E-01
 3.270      70.299    0.36516    0.21291E-01
 3.270      75.373    0.28749    0.19992E-01
 3.270      80.036    0.25827    0.15042E-01
 3.270      84.656    0.29144    0.16974E-01
 3.270      89.702    0.26820    0.15620E-01
 3.270      94.747    0.24681    0.14374E-01
 3.270      99.796    0.22174    0.12928E-01
 3.270      104.48    0.17457    0.10156E-01
 3.270      109.95    0.13259    0.92200E-02
 3.270      114.61    0.11911    0.69371E-02
 3.270      120.07    0.93784E-010.54620E-02
 3.270      124.73    0.87340E-010.50867E-02
 3.270      129.75    0.92825E-010.64430E-02
 3.270      134.77    0.96313E-010.66852E-02
 3.270      139.80    0.98741E-010.68600E-02
 3.270      144.82    0.10123    0.58957E-02
 3.270      149.49    0.88784E-010.51708E-02
 3.270      154.52    0.89936E-010.62483E-02
 3.270      159.94    0.86839E-010.30709E-02
 3.444      45.646    0.63488
 3.444      50.633    0.60549
 3.444      55.615    0.47347
 3.444      60.603    0.46896    0.25861E-01
 3.444      65.276    0.40690    0.22439E-01
 3.444      70.577    0.41071    0.18963E-01
 3.444      75.874    0.35975    0.23037E-01
 3.444      80.546    0.31214    0.17213E-01
 3.444      90.202    0.21788    0.12015E-01
 3.444      95.185    0.18204    0.10038E-01
 3.444      100.48    0.17361    0.11117E-01
 3.444      105.47    0.16247    0.89593E-02
 3.444      110.46    0.15204    0.11075E-01
 3.444      115.14    0.16397    0.90421E-02
 3.444      120.12    0.15201    0.83824E-02
 3.444      125.11    0.13828    0.76252E-02
 3.444      130.10    0.13439    0.74110E-02
 3.444      135.08    0.11442    0.73272E-02
 3.444      140.07    0.97422E-010.53716E-02
 3.444      145.05    0.92038E-010.50754E-02
 3.444      149.73    0.82157E-010.37932E-02
 3.444      154.72    0.88600E-01
 3.444      159.71    0.96456E-01
 3.661      30.350     1.4745    0.81601E-01
 3.661      35.508    0.85126    0.47111E-01
 3.661      40.258    0.74608
 3.661      55.704    0.66786
 3.661      60.446    0.60798
 3.661      70.634    0.35810
 3.661      75.410    0.28007
 3.661      80.160    0.24547
 3.661      85.491    0.26764
 3.661      90.862    0.24368
 3.661      95.591    0.23483
 3.661      100.32    0.22845
 3.661      105.41    0.17869
 3.661      110.49    0.14380
 3.661      115.25    0.12249
 3.661      120.02    0.99510E-01
 3.661      124.76    0.88046E-01
 3.661      130.10    0.92424E-01
 3.661      135.13    0.95190E-01
 3.661      139.84    0.10280
 3.661      145.18    0.10389
 3.661      154.95    0.98333E-01
 3.661      159.66    0.10519
ENDDATA            261
ENDSUBENT          282
SUBENT        C1073006   20041117
BIB                  5         12
REACTION   (40-ZR-90(D,P)40-ZR-91,PAR,POL/DA,,VAP)
SAMPLE     Zirconium sample enriched to 98% 90Zr; thickness
            1 mg/cm2.
CORRECTION Corrected for averaging over vertical extent of the
            detectors (<4%).
ERR-ANALYS (DATA-ERR) Uncertainty includes:
           . statistical error,
           . possible effects of beam tensor moment,
           . difference between spin-up and spin-down vector
             polarizations,
           . uncertainty in beam polarization.
STATUS     (CURVE) Scanned from Fig.3-6,8 in article at IAEA-NDS.
ENDBIB              12
COMMON               1          3
EN
MEV
  11.0
ENDCOMMON            3
DATA                 4         43
E-LVL      ANG        DATA       DATA-ERR
MEV        ADEG       NO-DIM     NO-DIM
  0.000     31.       -0.0158     0.0105
  0.000     35.       -0.0630     0.0123
  0.000     41.       -0.0559     0.0123
  0.000     46.       -0.0557     0.0105
  0.000     51.       -0.0117     0.0088
  0.000     56.       -0.0028     0.0088
  0.000     61.       -0.0307     0.0105
  0.000     66.       -0.0656     0.0123
  0.000     71.       -0.1129     0.0158
  0.000     76.       -0.1197     0.0175
  0.000     81.       -0.0845     0.0140
  0.000     86.       -0.0019     0.0140
  0.000     91.       -0.0421     0.0105
  0.000     96.       -0.0437     0.0088
  0.000    101.       -0.1032     0.0105
  0.000    106.       -0.1504     0.0105
  0.000    111.       -0.1959     0.0140
  0.000    121.       -0.1693     0.0158
  0.000    126.       -0.0814     0.0193
  0.000    131.       -0.0549     0.0193
  0.000    141.       -0.0915     0.0158
  0.000    151.       -0.1614     0.0228
  1.201     31.       -0.0636     0.0086
  1.201     36.       -0.0721     0.0086
  1.201     41.       -0.1150     0.0103
  1.201     45.       -0.1527     0.0172
  1.201     50.       -0.0941     0.0189
  1.201     55.       -0.0063     0.0155
  1.201     60.        0.0110     0.0120
  1.201     65.       -0.0113     0.0120
  1.201     71.       -0.0559     0.0155
  1.201     75.       -0.1194     0.0155
  1.201     81.       -0.1657     0.0137
  1.201     86.       -0.1621     0.0138
  1.201     91.       -0.1190     0.0138
  1.201    101.        0.1048     0.0189
  1.201    106.        0.0086     0.0155
  1.201    111.       -0.0756     0.0172
  1.201    121.       -0.2628     0.0223
  1.201    126.       -0.2334     0.0172
  1.201    131.       -0.2488     0.0224
  1.201    141.       -0.0680     0.0206
  1.201    151.        0.0543     0.0344
ENDDATA             45
ENDSUBENT           66
SUBENT        C1073007   20041117
BIB                  5         16
REACTION   (40-ZR-90(D,P)40-ZR-91,PAR,POL/DA,,VAP)
SAMPLE     Zirconium sample enriched to 98% 90Zr; thickness
            0.05 mg/cm2.
CORRECTION Corrected for averaging over vertical extent of the
            detectors (<4%).
           For peaks at 1.457 and 1.871 contribution from
            (d,p) reactions on other Zr isotopes and by
            90Zr(d,alpha)88Y reaction were subtracted.
ERR-ANALYS (DATA-ERR) Uncertainty includes:
           . statistical error,
           . possible effects of beam tensor moment,
           . difference between spin-up and spin-down vector
             polarizations,
           . uncertainty in beam polarization.
           . possible error in subtraction of contaminants.
STATUS     (CURVE) Scanned from Fig.3-6,8 in article at IAEA-NDS.
ENDBIB              16
COMMON               1          3
EN
MEV
  12.0
ENDCOMMON            3
DATA                 4        308
E-LVL      ANG        DATA       DATA-ERR
MEV        ADEG       NO-DIM     NO-DIM
  0.000     21.       -0.0345     0.0178
  0.000     25.       -0.0024     0.0160
  0.000     30.       -0.0200     0.0160
  0.000     36.       -0.0713     0.0160
  0.000     41.       -0.1013     0.0142
  0.000     46.       -0.0443     0.0160
  0.000     50.       -0.0157     0.0124
  0.000     56.       -0.0191     0.0142
  0.000     61.       -0.0331     0.0089
  0.000     65.       -0.0862     0.0089
  0.000     70.       -0.1536     0.0124
  0.000     75.       -0.1285     0.0124
  0.000     81.       -0.0289     0.0107
  0.000     86.        0.0121     0.0106
  0.000     91.       -0.0250     0.0107
  0.000     96.       -0.0888     0.0124
  0.000    100.       -0.1792     0.0124
  0.000    106.       -0.2145     0.0142
  0.000    110.       -0.2694     0.0142
  0.000    116.       -0.2000     0.0142
  0.000    121.       -0.0630     0.0177
  0.000    126.       -0.0131     0.0107
  0.000    131.       -0.0023     0.0124
  0.000    136.       -0.0412     0.0124
  0.000    141.       -0.0997     0.0124
  0.000    146.       -0.1670     0.0107
  0.000    150.       -0.2467     0.0142
  0.000    155.       -0.3087     0.0160
  0.000    160.       -0.3334     0.0195
  1.201     21.       -0.0096     0.0379
  1.201     25.       -0.0249     0.0189
  1.201     30.       -0.0471     0.0155
  1.201     35.       -0.0589     0.0155
  1.201     40.       -0.0777     0.0103
  1.201     46.       -0.1395     0.0103
  1.201     50.       -0.1359     0.0189
  1.201     55.       -0.0375     0.0172
  1.201     60.        0.0040     0.0120
  1.201     65.       -0.0078     0.0103
  1.201     70.       -0.0800     0.0086
  1.201     75.       -0.1418     0.0121
  1.201     80.       -0.1899     0.0086
  1.201     85.       -0.1759     0.0121
  1.201     90.       -0.0810     0.0138
  1.201     96.        0.1397     0.0138
  1.201    101.        0.1365     0.0155
  1.201    105.        0.0040     0.0155
  1.201    110.       -0.1129     0.0121
  1.201    115.       -0.2333     0.0155
  1.201    120.       -0.2951     0.0172
  1.201    125.       -0.2966     0.0138
  1.201    130.       -0.2017     0.0172
  1.201    135.        0.0138     0.0241
  1.201    141.        0.1415     0.0224
  1.201    146.        0.1640     0.0207
  1.201    151.        0.0419     0.0155
  1.201    155.       -0.1060     0.0207
  1.201    161.       -0.2023     0.0207
  1.457     20.        0.1903     0.0998
  1.457     25.       -0.2123     0.0962
  1.457     30.       -0.0927     0.0695
  1.457     35.       -0.1692     0.0535
  1.457     40.       -0.0977     0.0624
  1.457     45.       -0.1314     0.0588
  1.457     51.       -0.0600     0.0677
  1.457     56.       -0.0687     0.0695
  1.457     61.       -0.0864     0.0553
  1.457     66.       -0.0862     0.0570
  1.457     70.       -0.1056     0.0624
  1.457     75.       -0.1554     0.0535
  1.457     80.       -0.0839     0.0588
  1.457     86.        0.0999     0.0570
  1.457     90.       -0.0586     0.0535
  1.457     95.       -0.0745     0.0624
  1.457    100.       -0.1028     0.0624
  1.457    105.       -0.2684     0.0553
  1.457    110.       -0.3217     0.0606
  1.457    115.       -0.3287     0.0642
  1.457    120.       -0.3499     0.0606
  1.457    125.       -0.0699     0.0695
  1.457    130.        0.0016     0.0659
  1.457    135.       -0.0357     0.0624
  1.457    141.       -0.1032     0.0659
  1.457    146.       -0.0977     0.0570
  1.457    150.       -0.1938     0.0553
  1.457    156.       -0.1580     0.0659
  1.457    160.       -0.2237     0.0695
  1.871     35.        0.0882     0.0721
  1.871     41.       -0.0591     0.0675
  1.871     45.        0.0405     0.0736
  1.871     51.        0.0282     0.0706
  1.871     56.        0.0174     0.0782
  1.871     60.       -0.1115     0.0567
  1.871     66.       -0.1500     0.0567
  1.871     70.       -0.1147     0.0568
  1.871     76.       -0.1117     0.0552
  1.871     81.       -0.1594     0.0552
  1.871     85.       -0.1472     0.0567
  1.871     90.       -0.0798     0.0629
  1.871     96.       -0.0399     0.0690
  1.871    101.       -0.1029     0.0675
  1.871    106.       -0.0431     0.0583
  1.871    111.       -0.1567     0.0629
  1.871    116.       -0.2411     0.0629
  1.871    121.       -0.3041     0.0568
  1.871    126.       -0.2888     0.0598
  1.871    131.       -0.3012     0.0659
  1.871    135.       -0.2046     0.0629
  1.871    141.       -0.2522     0.0706
  1.871    146.       -0.1020     0.0567
  1.871    151.       -0.0698     0.0644
  1.871    156.       -0.1251     0.0675
  1.871    161.       -0.1237     0.0644
  2.031     19.        0.0880     0.0312
  2.031     24.       -0.0056     0.0156
  2.031     29.        0.0314     0.0117
  2.031     34.        0.1211     0.0156
  2.031     39.        0.1659     0.0156
  2.031     44.        0.0333     0.0117
  2.031     49.       -0.0856     0.0117
  2.031     54.       -0.1714     0.0175
  2.031     59.       -0.1675     0.0117
  2.031     64.       -0.1617     0.0136
  2.031     68.       -0.0448     0.0175
  2.031     73.        0.0897     0.0136
  2.031     78.        0.0273     0.0117
  2.031     83.       -0.0604     0.0117
  2.031     89.       -0.1754     0.0117
  2.031     94.       -0.2827     0.0156
  2.031     99.       -0.3080     0.0097
  2.031    104.       -0.3081     0.0195
  2.031    109.       -0.1736     0.0195
  2.031    113.       -0.0118     0.0214
  2.031    118.        0.0973     0.0136
  2.031    123.        0.1441     0.0175
  2.031    128.        0.0290     0.0195
  2.031    133.       -0.1347     0.0136
  2.031    139.       -0.1893     0.0156
  2.031    143.       -0.2966     0.0136
  2.031    149.       -0.3492     0.0156
  2.031    154.       -0.3980     0.0175
  2.031    159.       -0.3551     0.0234
  2.541     30.       -0.0075     0.0325
  2.541     35.       -0.0570     0.0120
  2.541     40.       -0.0620     0.0137
  2.541     45.       -0.0979     0.0188
  2.541     50.       -0.0960     0.0188
  2.541     55.       -0.0531     0.0274
  2.541     60.       -0.0033     0.0154
  2.541     64.       -0.0118     0.0120
  2.541     70.       -0.0356     0.0154
  2.541     75.       -0.1143     0.0103
  2.541     79.       -0.1279     0.0154
  2.541     84.       -0.1723     0.0120
  2.541     90.       -0.1687     0.0188
  2.541     95.       -0.0094     0.0205
  2.541    100.        0.0610     0.0257
  2.541    105.        0.0782     0.0205
  2.541    110.       -0.0021     0.0205
  2.541    115.       -0.1099     0.0188
  2.541    120.       -0.1817     0.0171
  2.541    125.       -0.2107     0.0205
  2.541    135.       -0.1317     0.0205
  2.541    140.       -0.0374     0.0257
  2.541    146.        0.0347     0.0205
  2.541    150.        0.0605     0.0188
  2.541    155.       -0.0045     0.0240
  2.541    160.       -0.0112     0.0240
  3.068     34.        0.1444     0.0255
  3.068     39.        0.1856     0.0275
  3.068     50.       -0.0261     0.0235
  3.068     54.       -0.0947     0.0275
  3.068     59.       -0.1045     0.0176
  3.068     64.       -0.1045     0.0176
  3.068     69.       -0.0083     0.0235
  3.068     74.        0.1133     0.0196
  3.068     79.        0.0741     0.0216
  3.068     84.        0.0114     0.0196
  3.068     89.       -0.0474     0.0137
  3.068     94.       -0.1670     0.0196
  3.068     99.       -0.1728     0.0216
  3.068    104.       -0.2199     0.0216
  3.068    109.       -0.2022     0.0235
  3.068    114.       -0.0786     0.0235
  3.068    119.       -0.0296     0.0196
  3.068    124.        0.0450     0.0255
  3.068    129.        0.0136     0.0255
  3.068    134.       -0.0216     0.0255
  3.068    139.       -0.1177     0.0216
  3.068    144.       -0.1843     0.0196
  3.068    149.       -0.2392     0.0196
  3.068    155.       -0.3097     0.0235
  3.068    160.       -0.2156     0.0255
  3.270     35.        0.1461     0.0234
  3.270     40.        0.1929     0.0234
  3.270     45.        0.0975     0.0253
  3.270     59.       -0.0952     0.0156
  3.270     65.       -0.1029     0.0175
  3.270     69.        0.0217     0.0175
  3.270     74.        0.0743     0.0117
  3.270     79.        0.0977     0.0156
  3.270     84.        0.0316     0.0156
  3.270     89.       -0.0307     0.0156
  3.270     94.       -0.1456     0.0175
  3.270    100.       -0.1728     0.0234
  3.270    104.       -0.2098     0.0156
  3.270    110.       -0.1669     0.0234
  3.270    115.       -0.1299     0.0234
  3.270    119.        0.0610     0.0195
  3.270    124.        0.1409     0.0234
  3.270    129.        0.0299     0.0195
  3.270    134.        0.0105     0.0175
  3.270    139.       -0.0868     0.0214
  3.270    145.       -0.1413     0.0175
  3.270    150.       -0.1685     0.0175
  3.270    155.       -0.2561     0.0234
  3.270    160.       -0.2191     0.0253
  3.444     45.        0.0322     0.0261
  3.444     50.        0.0152     0.0261
  3.444     60.       -0.0525     0.0215
  3.444     65.       -0.0879     0.0169
  3.444     70.       -0.0910     0.0184
  3.444     75.       -0.1141     0.0138
  3.444     80.       -0.1680     0.0154
  3.444     90.       -0.0589     0.0169
  3.444     95.       -0.0159     0.0231
  3.444    100.        0.0179     0.0215
  3.444    105.       -0.0637     0.0184
  3.444    110.       -0.1237     0.0215
  3.444    115.       -0.2636     0.0231
  3.444    120.       -0.2636     0.0184
  3.444    125.       -0.2760     0.0200
  3.444    130.       -0.2468     0.0231
  3.444    135.       -0.2176     0.0277
  3.444    140.       -0.1516     0.0231
  3.444    146.       -0.0210     0.0169
  3.444    150.        0.0297     0.0184
  3.444    155.        0.1234     0.0246
  3.444    160.        0.0619     0.0261
  3.661     30.        0.1582     0.0387
  3.661     35.        0.1383     0.0232
  3.661     40.        0.1477     0.0216
  3.661     55.       -0.0342     0.0247
  3.661     60.       -0.0696     0.0170
  3.661     70.       -0.0105     0.0232
  3.661     75.        0.0222     0.0124
  3.661     80.        0.0997     0.0185
  3.661     85.        0.0551     0.0155
  3.661     90.       -0.0407     0.0124
  3.661     95.       -0.0946     0.0247
  3.661    100.       -0.1052     0.0201
  3.661    105.       -0.1530     0.0155
  3.661    110.       -0.1358     0.0186
  3.661    115.       -0.1032     0.0232
  3.661    120.       -0.0318     0.0186
  3.661    125.        0.0627     0.0201
  3.661    130.        0.0645     0.0247
  3.661    135.        0.0368     0.0201
  3.661    140.       -0.0883     0.0201
  3.661    145.       -0.1515     0.0170
  3.661    150.       -0.2395     0.0155
  3.661    155.       -0.2316     0.0186
  3.661    161.       -0.2453     0.0263
  3.880     50.       -0.0001     0.0448
  3.880     60.       -0.0260     0.0324
  3.880     65.       -0.0860     0.0278
  3.880     75.       -0.0856     0.0201
  3.880     80.       -0.0437     0.0201
  3.880     85.       -0.0821     0.0201
  3.880     90.       -0.1190     0.0216
  3.880     95.       -0.1049     0.0309
  3.880    100.       -0.1140     0.0324
  3.880    105.       -0.0860     0.0247
  3.880    110.       -0.1584     0.0309
  3.880    115.       -0.1844     0.0278
  3.880    120.       -0.1456     0.0216
  3.880    125.       -0.1640     0.0278
  3.880    130.       -0.1576     0.0293
  3.880    135.       -0.0585     0.0232
  3.880    140.       -0.0383     0.0232
  3.880    145.       -0.0288     0.0201
  3.880    150.       -0.0070     0.0201
  3.880    155.        0.0812     0.0293
  3.880    160.        0.0428     0.0324
  3.981     25.       -0.1178     0.0872
  3.981     35.        0.0289     0.0545
  3.981     40.        0.1551     0.0654
  3.981     50.       -0.0172     0.0545
  3.981     65.       -0.0493     0.0358
  3.981     70.       -0.0912     0.0327
  3.981     75.       -0.0707     0.0358
  3.981     80.        0.0151     0.0311
  3.981     85.       -0.0657     0.0311
  3.981     90.       -0.0452     0.0342
  3.981     95.       -0.0699     0.0420
  3.981    100.       -0.0168     0.0498
  3.981    105.       -0.0882     0.0358
  3.981    110.       -0.1145     0.0405
  3.981    115.       -0.0925     0.0420
  3.981    120.       -0.1468     0.0342
  3.981    125.       -0.0734     0.0373
  3.981    130.       -0.0265     0.0389
  3.981    135.       -0.1648     0.0342
  3.981    140.       -0.0790     0.0467
  3.981    145.       -0.0602     0.0265
  3.981    150.       -0.0771     0.0296
  3.981    155.        0.0056     0.0389
  3.981    160.        0.0027     0.0358
ENDDATA            310
ENDSUBENT          335
SUBENT        C1073008   20041117
BIB                  6          8
REACTION   (40-ZR-90(D,P)40-ZR-91,PAR,DA)
SAMPLE     Zirconium sample enriched to 98% 90Zr; thickness
            0.5 mg/cm2.
MONITOR    (40-ZR-90(D,P)40-ZR-91,PAR,DA)
MONIT-REF  (,MICHELMAN+,J,PR,180,1114,1969)
ERR-ANALYS (DATA-ERR) Uncertainty includes statistical error and
            uncertainty in detector solid angles.
STATUS     (CURVE) Scanned from Fig.7 in article at IAEA-NDS.
ENDBIB               8
COMMON               3          3
EN         ANG-NRM    E-LVL-NRM
MEV        ADEG       MEV
 12.0       50.         0.
ENDCOMMON            3
DATA                 5         56
E-LVL-MIN  E-LVL-MAX  ANG-CM     DATA-CM    DATA-ERR
MEV        MEV        ADEG       MB/SR      MB/SR
  2.157      2.186     21.        0.7248     0.0500
  2.157      2.186     26.        0.7906     0.0545
  2.157      2.186     31.        0.9346     0.0566
  2.157      2.186     35.        1.0854     0.0566
  2.157      2.186     41.        1.1526     0.0600
  2.157      2.186     46.        1.1297     0.0589
  2.157      2.186     51.        0.9769     0.0592
  2.157      2.186     56.        0.8447     0.0512
  2.157      2.186     61.        0.7709     0.0468
  2.157      2.186     66.        0.7034     0.0427
  2.157      2.186     71.        0.7144     0.0432
  2.157      2.186     76.        0.6878     0.0474
  2.157      2.186     81.        0.6505     0.0394
  2.157      2.186     86.        0.5882     0.0356
  2.157      2.186     91.        0.4570     0.0316
  2.157      2.186     96.        0.3648     0.0251
  2.157      2.186    101.        0.2963     0.0180
  2.157      2.186    106.        0.2586     0.0135
  2.157      2.186    111.        0.2512     0.0131
  2.157      2.186    116.        0.2644     0.0161
  2.157      2.186    120.        0.2523     0.0153
  2.157      2.186    125.        0.2408     0.0126
  2.157      2.186    130.        0.2236     0.0135
  2.157      2.186    135.        0.1935     0.0149
  2.157      2.186    140.        0.1629     0.0085
  2.157      2.186    145.        0.1434     0.0087
  2.157      2.186    151.        0.1197     0.0062
  2.157      2.186    155.        0.1294     0.0078
  2.157      2.186    160.        0.1224     0.0074
  2.853      2.902     21.        0.6668     0.0829
  2.853      2.902     25.        0.6198     0.0723
  2.853      2.902     30.        0.4416     0.0515
  2.853      2.902     45.        0.3105     0.0289
  2.853      2.902     51.        0.3016     0.0280
  2.853      2.902     56.        0.3009     0.0303
  2.853      2.902     60.        0.2448     0.0250
  2.853      2.902     65.        0.1824     0.0187
  2.853      2.902     70.        0.1498     0.0139
  2.853      2.902     75.        0.1048     0.0107
  2.853      2.902     80.        0.1001     0.0112
  2.853      2.902     85.        0.1072     0.0110
  2.853      2.902     90.        0.1041     0.0086
  2.853      2.902     95.        0.1011     0.0104
  2.853      2.902    100.        0.0948     0.0116
  2.853      2.902    105.        0.0765     0.0086
  2.853      2.902    110.        0.0545     0.0056
  2.853      2.902    115.        0.0480     0.0049
  2.853      2.902    119.        0.0355     0.0040
  2.853      2.902    125.        0.0313     0.0035
  2.853      2.902    130.        0.0379     0.0035
  2.853      2.902    135.        0.0362     0.0037
  2.853      2.902    139.        0.0387     0.0036
  2.853      2.902    144.        0.0408     0.0034
  2.853      2.902    150.        0.0375     0.0038
  2.853      2.902    154.        0.0416     0.0039
  2.853      2.902    160.        0.0384     0.0043
ENDDATA             58
ENDSUBENT           75
SUBENT        C1073009   20041117
BIB                  5         12
REACTION   (40-ZR-90(D,P)40-ZR-91,PAR,POL/DA,,VAP)
SAMPLE     Zirconium sample enriched to 98% 90Zr; thickness
            0.5 mg/cm2.
CORRECTION Corrected for averaging over vertical extent of the
            detectors (<4%).
ERR-ANALYS (DATA-ERR) Uncertainty includes:
           . statistical error,
           . possible effects of beam tensor moment,
           . difference between spin-up and spin-down vector
             polarizations,
           . uncertainty in beam polarization.
STATUS     (CURVE) Scanned from Fig.7 in article at IAEA-NDS.
ENDBIB              12
COMMON               1          3
EN
MEV
  12.0
ENDCOMMON            3
DATA                 5         56
E-LVL-MIN  E-LVL-MAX  ANG-CM     DATA-CM    DATA-ERR
MEV        MEV        ADEG       NO-DIM     NO-DIM
  2.157      2.186     20.        0.1582     0.0731
  2.157      2.186     25.       -0.1002     0.0573
  2.157      2.186     30.       -0.0103     0.0402
  2.157      2.186     35.        0.0510     0.0186
  2.157      2.186     40.        0.0306     0.0215
  2.157      2.186     45.        0.0116     0.0186
  2.157      2.186     50.       -0.0074     0.0186
  2.157      2.186     55.        0.0180     0.0201
  2.157      2.186     60.       -0.0282     0.0129
  2.157      2.186     65.       -0.0171     0.0129
  2.157      2.186     70.       -0.0418     0.0129
  2.157      2.186     75.       -0.0537     0.0086
  2.157      2.186     80.       -0.0741     0.0086
  2.157      2.186     85.       -0.0616     0.0100
  2.157      2.186     90.       -0.0576     0.0100
  2.157      2.186     95.       -0.0924     0.0172
  2.157      2.186    100.       -0.0741     0.0186
  2.157      2.186    105.       -0.1318     0.0143
  2.157      2.186    110.       -0.1523     0.0143
  2.157      2.186    115.       -0.1641     0.0143
  2.157      2.186    120.       -0.1544     0.0115
  2.157      2.186    125.       -0.1362     0.0101
  2.157      2.186    130.       -0.1365     0.0129
  2.157      2.186    135.       -0.0724     0.0129
  2.157      2.186    140.       -0.0555     0.0186
  2.157      2.186    145.       -0.0358     0.0143
  2.157      2.186    150.       -0.0219     0.0143
  2.157      2.186    155.       -0.0767     0.0172
  2.157      2.186    160.       -0.0986     0.0201
  2.853      2.902     19.       -0.0517     0.0659
  2.853      2.902     24.       -0.0507     0.0616
  2.853      2.902     29.        0.1837     0.0687
  2.853      2.902     44.        0.1338     0.0344
  2.853      2.902     50.        0.0003     0.0315
  2.853      2.902     55.       -0.1046     0.0372
  2.853      2.902     59.       -0.1694     0.0215
  2.853      2.902     65.       -0.1512     0.0229
  2.853      2.902     70.       -0.0471     0.0286
  2.853      2.902     74.       -0.0001     0.0215
  2.853      2.902     79.        0.0667     0.0215
  2.853      2.902     84.       -0.0038     0.0215
  2.853      2.902     89.       -0.1044     0.0186
  2.853      2.902     95.       -0.1234     0.0258
  2.853      2.902     99.       -0.2340     0.0286
  2.853      2.902    105.       -0.2989     0.0229
  2.853      2.902    110.       -0.2721     0.0301
  2.853      2.902    115.       -0.1551     0.0344
  2.853      2.902    119.       -0.0681     0.0301
  2.853      2.902    124.        0.0360     0.0344
  2.853      2.902    130.       -0.0574     0.0315
  2.853      2.902    135.       -0.0249     0.0272
  2.853      2.902    140.       -0.1670     0.0301
  2.853      2.902    145.       -0.1602     0.0229
  2.853      2.902    150.       -0.2351     0.0229
  2.853      2.902    155.       -0.2570     0.0301
  2.853      2.902    160.       -0.1801     0.0344
ENDDATA             58
ENDSUBENT           79
ENDENTRY             9
