ENTRY            12341   20160315   20160701   20160615       1416
SUBENT        12341001   20160315   20160701   20160615       1416
BIB                  6         14
TITLE      Slow neutron total and fission cross sections of U-233.
AUTHOR     (M.S.Moore,L.G.Miller,O.D.Simpson)
INSTITUTE  (1USAMTR)
REFERENCE  (J,PR,118,714,1960) Graphs of total and fission cs
           (J,NSE,7,187,1960) Thermal cross section given,
            total cs experiment described
           (R,IDO-16576,195912) Tabulated cross sections
           (J,BAP,2,70(XA10),1957)
FACILITY   (REAC,CHOPF) Fast chopper at Materials Testing Reactor
HISTORY    (19760804T) Translated from SCISRS
           (19820519A) Converted to REACTION formalism
           (20160221A) OS. Sub.5 added, 2nd reference added,
            experim.information added and STATUS updated in
            subs.2-4, converted to lower case
ENDBIB              14
NOCOMMON             0          0
ENDSUBENT           17
SUBENT        12341002   20160315   20160701   20160615       1416
BIB                  8         23
REACTION   (92-U-233(N,F),,SIG)
METHOD     (TOF)
DETECTOR   (FISCH) 2 fission chambers
           (BF3) for neutron flux monitoring
SAMPLE     (92-U-233,ENR=0.99) Purity in U-233 > 99%
           3 foils of U3O8 of 5 in. diameter were placed in
           each fission chamber, average thickness 570 mug/cm2
MONITOR    (92-U-233(N,F),,SIG)
            Normalized to thermal fission cross
            section = 524 b.
ERR-ANALYS Detailed error analysis with energy-dependent
           uncertainty components is given in Table I of
           Phys.Rev.188,714,1960.
           (ERR-T,1.7,17.) Total uncertainty, consisting of
            contributions from:
           (ERR-S,0.8,12.) Counting statistics
           (ERR-1,0.3,10.) Background uncertainties
           (ERR-2,1.5,7.) Normalization uncertainties)
           (EN-ERR,0.7,8.) Error in energy scale from initial
            delay uncertainties
STATUS     (TABLE) Data from Appendix I, Report IDO-16576,1959
HISTORY    (20160221A) Added DETECTOR, SAMPLE, ERR-ANALYS and
            STATUS information
ENDBIB              23
COMMON               2          3
EN-NRM     MONIT
EV         B
 0.0253     524.
ENDCOMMON            3
DATA                 2        953
EN         DATA
MEV        B
 1.94   -08 5.878  +02
 2.01   -08 5.812  +02
 2.11   -08 5.665  +02
 2.20   -08 5.606  +02
 2.30   -08 5.472  +02
 2.40   -08 5.330  +02
 2.51   -08 5.233  +02
 2.61   -08 5.197  +02
 2.71   -08 5.168  +02
 2.81   -08 5.017  +02
 2.91   -08 4.941  +02
 3.01   -08 4.798  +02
 3.11   -08 4.813  +02
 3.21   -08 4.637  +02
 3.31   -08 4.534  +02
 3.41   -08 4.546  +02
 3.50   -08 4.416  +02
 3.59   -08 4.431  +02
 3.71   -08 4.300  +02
 3.82   -08 4.286  +02
 3.90   -08 4.189  +02
 3.99   -08 4.190  +02
 4.10   -08 4.092  +02
 4.23   -08 4.110  +02
 4.33   -08 4.009  +02
 4.43   -08 3.966  +02
 4.50   -08 3.959  +02
 4.59   -08 3.948  +02
 4.70   -08 3.886  +02
 4.82   -08 3.829  +02
 4.91   -08 3.724  +02
 5.00   -08 3.752  +02
 5.09   -08 3.780  +02
 5.20   -08 3.705  +02
 5.29   -08 3.590  +02
 5.40   -08 3.615  +02
 5.51   -08 3.457  +02
 5.62   -08 3.530  +02
 5.73   -08 3.473  +02
 5.81   -08 3.493  +02
 5.89   -08 3.436  +02
 6.01   -08 3.374  +02
 6.14   -08 3.379  +02
 6.22   -08 3.349  +02
 6.31   -08 3.325  +02
 6.40   -08 3.273  +02
 6.49   -08 3.256  +02
 6.59   -08 3.219  +02
 6.69   -08 3.189  +02
 6.78   -08 3.219  +02
 6.88   -08 3.216  +02
 6.99   -08 3.179  +02
 7.09   -08 3.076  +02
 7.20   -08 3.140  +02
 7.31   -08 3.075  +02
 7.42   -08 3.044  +02
 7.54   -08 3.025  +02
 7.66   -08 2.978  +02
 7.78   -08 2.920  +02
 7.90   -08 2.919  +02
 8.03   -08 2.876  +02
 8.16   -08 2.859  +02
 8.29   -08 2.867  +02
 8.42   -08 2.842  +02
 8.56   -08 2.772  +02
 8.71   -08 2.802  +02
 8.85   -08 2.774  +02
 9.00   -08 2.739  +02
 9.16   -08 2.686  +02
 9.31   -08 2.691  +02
 9.48   -08 2.621  +02
 9.64   -08 2.593  +02
 9.81   -08 2.575  +02
 9.99   -08 2.567  +02
 1.017  -07 2.565  +02
 1.035  -07 2.541  +02
 1.054  -07 2.427  +02
 1.074  -07 2.489  +02
 1.094  -07 2.470  +02
 1.115  -07 2.463  +02
 1.136  -07 2.395  +02
 1.158  -07 2.359  +02
 1.180  -07 2.381  +02
 1.203  -07 2.343  +02
 1.227  -07 2.352  +02
 1.252  -07 2.261  +02
 1.277  -07 2.299  +02
 1.303  -07 2.251  +02
 1.330  -07 2.193  +02
 1.358  -07 2.184  +02
 1.386  -07 2.191  +02
 1.416  -07 2.147  +02
 1.446  -07 2.104  +02
 1.478  -07 2.072  +02
 1.510  -07 2.101  +02
 1.544  -07 2.077  +02
 1.579  -07 2.065  +02
 1.615  -07 2.034  +02
 1.652  -07 2.094  +02
 1.690  -07 2.003  +02
 1.730  -07 2.029  +02
 1.771  -07 2.054  +02
 1.814  -07 1.990  +02
 1.858  -07 1.957  +02
 1.904  -07 2.068  +02
 1.952  -07 2.003  +02
 2.001  -07 1.989  +02
 2.053  -07 1.970  +02
 2.106  -07 1.961  +02
 2.161  -07 2.017  +02
 2.219  -07 1.911  +02
 2.279  -07 1.892  +02
 2.342  -07 1.915  +02
 2.407  -07 1.809  +02
 2.474  -07 1.826  +02
 2.545  -07 1.846  +02
 2.619  -07 1.845  +02
 2.696  -07 1.802  +02
 2.777  -07 1.719  +02
 2.861  -07 1.749  +02
 2.949  -07 1.687  +02
 3.041  -07 1.713  +02
 3.138  -07 1.656  +02
 3.239  -07 1.618  +02
 3.346  -07 1.613  +02
 3.457  -07 1.549  +02
 3.574  -07 1.519  +02
 3.698  -07 1.569  +02
 3.732  -07 1.277  +02
 3.807  -07 1.281  +02
 3.828  -07 1.526  +02
 3.885  -07 1.447  +02
 3.965  -07 1.460  +02
 4.047  -07 1.445  +02
 4.109  -07 1.480  +02
 4.132  -07 1.494  +02
 4.180  -07 1.516  +02
 4.261  -07 1.425  +02
 4.422  -07 1.420  +02
 4.489  -07 1.366  +02
 4.590  -07 1.355  +02
 4.691  -07 1.384  +02
 4.773  -07 1.428  +02
 4.797  -07 1.316  +02
 4.906  -07 1.274  +02
 4.964  -07 1.327  +02
 5.020  -07 1.323  +02
 5.069  -07 1.245  +02
 5.121  -07 1.300  +02
 5.137  -07 1.330  +02
 5.170  -07 1.325  +02
 5.225  -07 1.449  +02
 5.259  -07 1.316  +02
 5.279  -07 1.276  +02
 5.333  -07 1.144  +02
 5.384  -07 1.324  +02
 5.389  -07 1.432  +02
 5.445  -07 1.270  +02
 5.509  -07 1.152  +02
 5.560  -07 1.397  +02
 5.615  -07 1.273  +02
 5.651  -07 1.202  +02
 5.678  -07 1.458  +02
 5.739  -07 1.172  +02
 5.760  -07 1.213  +02
 5.800  -07 1.385  +02
 5.853  -07 1.271  +02
 5.921  -07 1.204  +02
 5.927  -07 1.359  +02
 5.998  -07 1.245  +02
 6.057  -07 1.387  +02
 6.088  -07 1.223  +02
 6.120  -07 1.256  +02
 6.184  -07 1.242  +02
 6.262  -07 1.208  +02
 6.332  -07 1.382  +02
 6.354  -07 1.209  +02
 6.399  -07 1.130  +02
 6.446  -07 1.248  +02
 6.476  -07 1.193  +02
 6.541  -07 1.286  +02
 6.550  -07 1.287  +02
 6.631  -07 1.204  +02
 6.698  -07 1.140  +02
 6.736  -07 1.302  +02
 6.780  -07 1.287  +02
 6.836  -07 1.055  +02
 6.859  -07 1.213  +02
 6.940  -07 1.198  +02
 7.012  -07 1.222  +02
 7.034  -07 1.154  +02
 7.105  -07 1.192  +02
 7.153  -07 1.114  +02
 7.190  -07 1.167  +02
 7.263  -07 1.130  +02
 7.277  -07 1.262  +02
 7.360  -07 1.182  +02
 7.376  -07 1.153  +02
 7.455  -07 1.211  +02
 7.492  -07 1.138  +02
 7.546  -07 1.304  +02
 7.610  -07 1.186  +02
 7.639  -07 1.203  +02
 7.729  -07 1.135  +02
 7.831  -07 1.040  +02
 7.855  -07 1.177  +02
 7.929  -07 1.125  +02
 7.982  -07 1.255  +02
 8.030  -07 1.170  +02
 8.112  -07 1.164  +02
 8.132  -07 1.073  +02
 8.241  -07 1.129  +02
 8.342  -07 1.149  +02
 8.383  -07 1.188  +02
 8.450  -07 1.249  +02
 8.523  -07 1.248  +02
 8.561  -07 1.169  +02
 8.670  -07 1.214  +02
 8.801  -07 1.260  +02
 8.905  -07 1.257  +02
 8.965  -07 1.146  +02
 9.025  -07 1.226  +02
 9.120  -07 1.223  +02
 9.147  -07 1.113  +02
 9.275  -07 1.319  +02
 9.398  -07 1.297  +02
 9.442  -07 1.361  +02
 9.528  -07 1.356  +02
 9.610  -07 1.335  +02
 9.660  -07 1.289  +02
 9.789  -07 1.259  +02
 9.933  -07 1.347  +02
 9.959  -07 1.325  +02
 1.007  -06 1.467  +02
 1.014  -06 1.534  +02
 1.022  -06 1.489  +02
 1.035  -06 1.457  +02
 1.051  -06 1.371  +02
 1.052  -06 1.455  +02
 1.067  -06 1.466  +02
 1.072  -06 1.572  +02
 1.082  -06 1.579  +02
 1.092  -06 1.603  +02
 1.099  -06 1.640  +02
 1.114  -06 1.594  +02
 1.132  -06 1.565  +02
 1.134  -06 1.606  +02
 1.149  -06 1.671  +02
 1.156  -06 1.759  +02
 1.166  -06 1.702  +02
 1.179  -06 1.811  +02
 1.184  -06 1.749  +02
 1.203  -06 1.807  +02
 1.221  -06 1.941  +02
 1.227  -06 2.055  +02
 1.241  -06 2.036  +02
 1.252  -06 2.066  +02
 1.260  -06 2.034  +02
 1.277  -06 2.247  +02
 1.280  -06 2.012  +02
 1.294  -06 2.391  +02
 1.301  -06 2.101  +02
 1.306  -06 2.354  +02
 1.322  -06 2.337  +02
 1.333  -06 2.486  +02
 1.347  -06 2.589  +02
 1.361  -06 2.581  +02
 1.366  -06 2.498  +02
 1.378  -06 2.771  +02
 1.389  -06 2.720  +02
 1.393  -06 2.965  +02
 1.410  -06 2.823  +02
 1.418  -06 3.105  +02
 1.423  -06 2.994  +02
 1.437  -06 3.068  +02
 1.451  -06 3.155  +02
 1.461  -06 2.998  +02
 1.470  -06 3.289  +02
 1.481  -06 3.480  +02
 1.486  -06 3.293  +02
 1.499  -06 3.519  +02
 1.512  -06 3.569  +02
 1.519  -06 3.777  +02
 1.529  -06 3.792  +02
 1.539  -06 3.694  +02
 1.549  -06 3.730  +02
 1.560  -06 3.891  +02
 1.565  -06 3.691  +02
 1.571  -06 4.139  +02
 1.583  -06 4.120  +02
 1.593  -06 4.066  +02
 1.604  -06 4.469  +02
 1.615  -06 4.685  +02
 1.621  -06 4.467  +02
 1.626  -06 4.924  +02
 1.637  -06 4.816  +02
 1.648  -06 5.257  +02
 1.651  -06 4.970  +02
 1.659  -06 5.371  +02
 1.672  -06 5.876  +02
 1.682  -06 5.509  +02
 1.683  -06 5.966  +02
 1.696  -06 6.524  +02
 1.707  -06 7.101  +02
 1.719  -06 7.322  +02
 1.732  -06 7.924  +02
 1.736  -06 7.620  +02
 1.747  -06 8.009  +02
 1.757  -06 8.373  +02
 1.765  -06 8.341  +02
 1.769  -06 8.266  +02
 1.783  -06 8.569  +02
 1.795  -06 8.514  +02
 1.801  -06 7.854  +02
 1.808  -06 8.138  +02
 1.820  -06 8.028  +02
 1.835  -06 7.435  +02
 1.848  -06 7.121  +02
 1.854  -06 6.966  +02
 1.862  -06 6.356  +02
 1.874  -06 6.227  +02
 1.882  -06 5.850  +02
 1.890  -06 5.811  +02
 1.904  -06 5.102  +02
 1.909  -06 5.153  +02
 1.918  -06 4.965  +02
 1.929  -06 4.648  +02
 1.937  -06 4.580  +02
 1.947  -06 4.287  +02
 1.958  -06 3.740  +02
 1.966  -06 3.698  +02
 1.977  -06 3.721  +02
 1.988  -06 3.531  +02
 1.996  -06 3.335  +02
 2.006  -06 3.304  +02
 2.019  -06 3.021  +02
 2.027  -06 3.105  +02
 2.037  -06 3.026  +02
 2.049  -06 2.902  +02
 2.058  -06 2.363  +02
 2.069  -06 2.930  +02
 2.078  -06 2.693  +02
 2.088  -06 2.821  +02
 2.101  -06 2.663  +02
 2.111  -06 2.655  +02
 2.121  -06 2.649  +02
 2.134  -06 2.688  +02
 2.144  -06 2.591  +02
 2.155  -06 2.833  +02
 2.167  -06 2.817  +02
 2.178  -06 3.017  +02
 2.189  -06 3.222  +02
 2.201  -06 3.253  +02
 2.209  -06 3.485  +02
 2.224  -06 4.030  +02
 2.236  -06 3.820  +02
 2.245  -06 4.797  +02
 2.259  -06 5.612  +02
 2.260  -06 4.974  +02
 2.275  -06 5.268  +02
 2.284  -06 5.761  +02
 2.297  -06 5.483  +02
 2.312  -06 4.446  +02
 2.322  -06 4.241  +02
 2.335  -06 3.640  +02
 2.347  -06 3.026  +02
 2.357  -06 2.404  +02
 2.373  -06 1.727  +02
 2.386  -06 1.483  +02
 2.396  -06 1.256  +02
 2.413  -06 1.139  +02
 2.428  -06 1.088  +02
 2.439  -06 1.103  +02
 2.453  -06 8.53   +01
 2.466  -06 8.05   +01
 2.479  -06 8.03   +01
 2.496  -06 7.31   +01
 2.508  -06 7.66   +01
 2.520  -06 7.22   +01
 2.538  -06 6.55   +01
 2.551  -06 7.36   +01
 2.564  -06 7.35   +01
 2.582  -06 6.03   +01
 2.595  -06 7.48   +01
 2.609  -06 5.90   +01
 2.625  -06 6.79   +01
 2.631  -06 6.16   +01
 2.640  -06 5.44   +01
 2.655  -06 6.61   +01
 2.674  -06 5.95   +01
 2.686  -06 6.82   +01
 2.699  -06 5.30   +01
 2.718  -06 5.68   +01
 2.725  -06 5.51   +01
 2.734  -06 6.23   +01
 2.752  -06 5.52   +01
 2.766  -06 6.96   +01
 2.780  -06 5.52   +01
 2.799  -06 6.16   +01
 2.820  -06 5.41   +01
 2.833  -06 4.98   +01
 2.850  -06 5.95   +01
 2.867  -06 6.08   +01
 2.882  -06 5.86   +01
 2.896  -06 5.57   +01
 2.904  -06 5.71   +01
 2.919  -06 5.90   +01
 2.934  -06 5.11   +01
 2.956  -06 6.61   +01
 2.967  -06 5.75   +01
 2.986  -06 5.54   +01
 2.991  -06 5.98   +01
 3.012  -06 5.70   +01
 3.030  -06 6.82   +01
 3.045  -06 5.89   +01
 3.068  -06 6.55   +01
 3.085  -06 7.13   +01
 3.106  -06 6.57   +01
 3.124  -06 6.65   +01
 3.134  -06 7.06   +01
 3.146  -06 6.85   +01
 3.164  -06 7.36   +01
 3.184  -06 7.30   +01
 3.197  -06 7.49   +01
 3.219  -06 8.00   +01
 3.227  -06 7.87   +01
 3.249  -06 8.01   +01
 3.267  -06 8.69   +01
 3.284  -06 8.33   +01
 3.297  -06 7.84   +01
 3.312  -06 8.95   +01
 3.330  -06 9.22   +01
 3.349  -06 9.39   +01
 3.362  -06 9.93   +01
 3.379  -06 1.000  +02
 3.396  -06 1.058  +02
 3.416  -06 1.075  +02
 3.430  -06 1.132  +02
 3.446  -06 1.104  +02
 3.464  -06 1.205  +02
 3.487  -06 1.264  +02
 3.500  -06 1.358  +02
 3.517  -06 1.378  +02
 3.534  -06 1.376  +02
 3.556  -06 1.519  +02
 3.589  -06 1.623  +02
 3.605  -06 1.941  +02
 3.625  -06 1.741  +02
 3.634  -06 1.885  +02
 3.656  -06 1.749  +02
 3.675  -06 1.584  +02
 3.700  -06 1.357  +02
 3.710  -06 1.233  +02
 3.732  -06 1.247  +02
 3.752  -06 9.23   +01
 3.779  -06 9.13   +01
 3.788  -06 8.08   +01
 3.811  -06 7.27   +01
 3.832  -06 7.75   +01
 3.856  -06 6.36   +01
 3.865  -06 6.65   +01
 3.886  -06 6.40   +01
 3.913  -06 6.82   +01
 3.945  -06 6.16   +01
 3.971  -06 5.36   +01
 3.998  -06 5.65   +01
 4.027  -06 4.66   +01
 4.049  -06 5.66   +01
 4.056  -06 6.08   +01
 4.085  -06 5.75   +01
 4.110  -06 5.64   +01
 4.129  -06 5.36   +01
 4.144  -06 5.49   +01
 4.174  -06 5.97   +01
 4.190  -06 6.21   +01
 4.213  -06 6.35   +01
 4.236  -06 6.27   +01
 4.273  -06 6.74   +01
 4.297  -06 6.22   +01
 4.316  -06 6.55   +01
 4.332  -06 7.25   +01
 4.365  -06 7.48   +01
 4.405  -06 7.72   +01
 4.427  -06 7.97   +01
 4.449  -06 8.83   +01
 4.464  -06 8.45   +01
 4.491  -06 8.53   +01
 4.517  -06 9.12   +01
 4.534  -06 9.46   +01
 4.563  -06 9.24   +01
 4.587  -06 9.86   +01
 4.598  -06 9.87   +01
 4.631  -06 1.007  +02
 4.673  -06 1.044  +02
 4.700  -06 9.81   +01
 4.723  -06 1.043  +02
 4.746  -06 1.022  +02
 4.779  -06 9.74   +01
 4.801  -06 1.008  +02
 4.816  -06 1.155  +02
 4.847  -06 9.97   +01
 4.865  -06 9.62   +01
 4.903  -06 9.65   +01
 4.931  -06 8.94   +01
 4.967  -06 9.93   +01
 4.994  -06 8.81   +01
 5.017  -06 8.26   +01
 5.047  -06 8.61   +01
 5.087  -06 7.73   +01
 5.106  -06 8.08   +01
 5.145  -06 7.70   +01
 5.171  -06 7.67   +01
 5.219  -06 6.78   +01
 5.257  -06 7.80   +01
 5.277  -06 6.23   +01
 5.299  -06 6.22   +01
 5.322  -06 6.49   +01
 5.350  -06 6.14   +01
 5.388  -06 5.71   +01
 5.433  -06 5.84   +01
 5.490  -06 6.13   +01
 5.513  -06 5.80   +01
 5.549  -06 5.82   +01
 5.571  -06 5.86   +01
 5.617  -06 5.70   +01
 5.656  -06 6.92   +01
 5.715  -06 7.48   +01
 5.761  -06 8.17   +01
 5.795  -06 9.49   +01
 5.857  -06 1.087  +02
 5.894  -06 9.70   +01
 5.919  -06 1.018  +02
 5.946  -06 1.111  +02
 5.968  -06 1.103  +02
 6.007  -06 9.68   +01
 6.025  -06 9.31   +01
 6.063  -06 9.62   +01
 6.106  -06 9.75   +01
 6.127  -06 9.16   +01
 6.161  -06 8.43   +01
 6.187  -06 9.28   +01
 6.223  -06 9.45   +01
 6.245  -06 8.73   +01
 6.279  -06 9.38   +01
 6.301  -06 8.93   +01
 6.341  -06 1.002  +02
 6.388  -06 1.103  +02
 6.415  -06 1.118  +02
 6.446  -06 1.119  +02
 6.474  -06 1.173  +02
 6.508  -06 1.268  +02
 6.536  -06 1.400  +02
 6.567  -06 1.492  +02
 6.597  -06 1.807  +02
 6.628  -06 2.084  +02
 6.658  -06 2.201  +02
 6.690  -06 2.666  +02
 6.736  -06 3.849  +02
 6.781  -06 4.699  +02
 6.816  -06 5.329  +02
 6.848  -06 5.098  +02
 6.881  -06 4.322  +02
 6.913  -06 3.538  +02
 6.948  -06 2.685  +02
 6.979  -06 1.988  +02
 7.014  -06 1.530  +02
 7.046  -06 1.137  +02
 7.080  -06 1.022  +02
 7.114  -06 8.26   +01
 7.149  -06 8.07   +01
 7.183  -06 6.73   +01
 7.218  -06 6.60   +01
 7.253  -06 5.77   +01
 7.288  -06 5.81   +01
 7.324  -06 5.29   +01
 7.358  -06 5.19   +01
 7.396  -06 5.35   +01
 7.430  -06 5.42   +01
 7.477  -06 5.26   +01
 7.506  -06 5.86   +01
 7.559  -06 5.55   +01
 7.581  -06 4.85   +01
 7.623  -06 4.69   +01
 7.656  -06 4.86   +01
 7.710  -06 4.13   +01
 7.733  -06 4.00   +01
 7.787  -06 3.75   +01
 7.812  -06 3.53   +01
 7.856  -06 3.38   +01
 7.891  -06 3.20   +01
 7.945  -06 3.17   +01
 7.971  -06 3.32   +01
 8.025  -06 2.89   +01
 8.053  -06 3.12   +01
 8.099  -06 3.38   +01
 8.136  -06 3.10   +01
 8.191  -06 3.12   +01
 8.221  -06 2.73   +01
 8.275  -06 3.17   +01
 8.306  -06 2.81   +01
 8.354  -06 3.09   +01
 8.393  -06 2.85   +01
 8.437  -06 2.57   +01
 8.478  -06 3.01   +01
 8.527  -06 3.19   +01
 8.547  -06 3.82   +01
 8.617  -06 3.82   +01
 8.650  -06 3.66   +01
 8.709  -06 3.41   +01
 8.751  -06 3.87   +01
 8.802  -06 3.37   +01
 8.820  -06 3.51   +01
 8.850  -06 3.09   +01
 8.900  -06 3.36   +01
 8.945  -06 2.91   +01
 9.001  -06 3.46   +01
 9.043  -06 3.76   +01
 9.099  -06 4.09   +01
 9.142  -06 4.45   +01
 9.194  -06 5.82   +01
 9.242  -06 5.70   +01
 9.293  -06 6.02   +01
 9.338  -06 6.56   +01
 9.401  -06 6.11   +01
 9.448  -06 5.23   +01
 9.502  -06 5.45   +01
 9.554  -06 5.03   +01
 9.608  -06 5.90   +01
 9.661  -06 5.23   +01
 9.717  -06 5.38   +01
 9.770  -06 5.38   +01
 9.826  -06 6.19   +01
 9.829  -06 6.55   +01
 9.882  -06 5.77   +01
 9.902  -06 7.06   +01
 9.938  -06 6.63   +01
 1.005  -05 1.060  +02
 1.011  -05 1.293  +02
 1.017  -05 1.592  +02
 1.023  -05 1.956  +02
 1.029  -05 2.769  +02
 1.035  -05 3.406  +02
 1.040  -05 3.938  +02
 1.047  -05 3.780  +02
 1.053  -05 3.322  +02
 1.059  -05 2.467  +02
 1.064  -05 1.972  +02
 1.065  -05 1.988  +02
 1.072  -05 1.404  +02
 1.078  -05 1.222  +02
 1.084  -05 1.016  +02
 1.091  -05 8.85   +01
 1.098  -05 8.43   +01
 1.104  -05 7.94   +01
 1.110  -05 8.16   +01
 1.117  -05 8.21   +01
 1.124  -05 8.56   +01
 1.129  -05 8.38   +01
 1.131  -05 8.16   +01
 1.138  -05 7.95   +01
 1.144  -05 7.28   +01
 1.152  -05 6.81   +01
 1.158  -05 7.03   +01
 1.167  -05 6.37   +01
 1.173  -05 5.16   +01
 1.180  -05 5.00   +01
 1.187  -05 5.77   +01
 1.196  -05 5.83   +01
 1.203  -05 6.16   +01
 1.210  -05 5.31   +01
 1.217  -05 6.10   +01
 1.225  -05 6.30   +01
 1.233  -05 6.33   +01
 1.241  -05 6.74   +01
 1.249  -05 8.36   +01
 1.257  -05 1.162  +02
 1.265  -05 1.424  +02
 1.273  -05 1.946  +02
 1.281  -05 2.166  +02
 1.290  -05 2.548  +02
 1.298  -05 2.244  +02
 1.307  -05 1.456  +02
 1.315  -05 9.68   +01
 1.324  -05 7.51   +01
 1.333  -05 7.00   +01
 1.341  -05 6.23   +01
 1.350  -05 6.13   +01
 1.359  -05 6.82   +01
 1.368  -05 6.86   +01
 1.378  -05 8.32   +01
 1.387  -05 8.60   +01
 1.396  -05 6.82   +01
 1.406  -05 5.96   +01
 1.415  -05 4.47   +01
 1.425  -05 3.95   +01
 1.435  -05 2.51   +01
 1.444  -05 3.40   +01
 1.454  -05 6.4    +00
 1.464  -05 8.5    +00
 1.475  -05 6.4    +00
 1.485  -05 2.06   +01
 1.495  -05 2.38   +01
 1.506  -05 2.20   +01
 1.516  -05 3.72   +01
 1.527  -05 6.97   +01
 1.538  -05 1.342  +02
 1.549  -05 1.406  +02
 1.560  -05 1.206  +02
 1.571  -05 8.62   +01
 1.582  -05 7.27   +01
 1.594  -05 7.18   +01
 1.605  -05 7.21   +01
 1.617  -05 9.58   +01
 1.629  -05 1.146  +02
 1.641  -05 1.275  +02
 1.653  -05 1.453  +02
 1.665  -05 1.484  +02
 1.677  -05 1.189  +02
 1.690  -05 7.18   +01
 1.702  -05 4.31   +01
 1.715  -05 2.89   +01
 1.728  -05 2.14   +01
 1.741  -05 2.48   +01
 1.754  -05 2.50   +01
 1.767  -05 2.640  +01
 1.781  -05 3.37   +01
 1.794  -05 4.40   +01
 1.808  -05 5.51   +01
 1.822  -05 6.18   +01
 1.836  -05 5.65   +01
 1.851  -05 5.64   +01
 1.865  -05 6.34   +01
 1.880  -05 8.57   +01
 1.894  -05 1.330  +02
 1.909  -05 1.841  +02
 1.925  -05 1.665  +02
 1.940  -05 1.187  +02
 1.955  -05 7.91   +01
 1.971  -05 5.70   +01
 1.987  -05 4.75   +01
 2.003  -05 4.05   +01
 2.019  -05 4.04   +01
 2.036  -05 4.37   +01
 2.052  -05 6.70   +01
 2.069  -05 8.79   +01
 2.086  -05 8.79   +01
 2.104  -05 7.47   +01
 2.121  -05 5.36   +01
 2.139  -05 5.20   +01
 2.157  -05 5.92   +01
 2.175  -05 8.88   +01
 2.193  -05 1.354  +02
 2.212  -05 1.738  +02
 2.231  -05 2.278  +02
 2.250  -05 2.430  +02
 2.269  -05 2.494  +02
 2.289  -05 1.713  +02
 2.309  -05 1.133  +02
 2.329  -05 8.17   +01
 2.349  -05 6.46   +01
 2.370  -05 6.31   +01
 2.391  -05 6.55   +01
 2.412  -05 6.72   +01
 2.434  -05 6.65   +01
 2.456  -05 5.37   +01
 2.478  -05 4.76   +01
 2.500  -05 3.85   +01
 2.523  -05 4.97   +01
 2.546  -05 7.08   +01
 2.569  -05 7.43   +01
 2.593  -05 5.88   +01
 2.617  -05 4.73   +01
 2.641  -05 4.27   +01
 2.666  -05 4.33   +01
 2.691  -05 4.78   +01
 2.716  -05 3.79   +01
 2.742  -05 3.35   +01
 2.768  -05 3.14   +01
 2.794  -05 2.57   +01
 2.821  -05 2.95   +01
 2.848  -05 3.41   +01
 2.876  -05 3.73   +01
 2.904  -05 5.84   +01
 2.932  -05 7.17   +01
 2.961  -05 7.11   +01
 2.991  -05 5.23   +01
 3.020  -05 2.72   +01
 3.050  -05 2.43   +01
 3.081  -05 3.01   +01
 3.112  -05 4.41   +01
 3.144  -05 4.13   +01
 3.176  -05 3.83   +01
 3.209  -05 5.42   +01
 3.241  -05 6.13   +01
 3.275  -05 4.93   +01
 3.309  -05 3.50   +01
 3.343  -05 3.85   +01
 3.378  -05 4.47   +01
 3.414  -05 5.53   +01
 3.450  -05 6.30   +01
 3.487  -05 5.92   +01
 3.525  -05 6.40   +01
 3.563  -05 5.12   +01
 3.601  -05 3.83   +01
 3.641  -05 2.99   +01
 3.681  -05 3.08   +01
 3.721  -05 4.52   +01
 3.763  -05 3.12   +01
 3.805  -05 3.19   +01
 3.847  -05 2.62   +01
 3.891  -05 1.63   +01
 3.935  -05 1.36   +01
 3.980  -05 2.52   +01
 4.025  -05 3.24   +01
 4.072  -05 3.36   +01
 4.119  -05 3.43   +01
 4.167  -05 3.10   +01
 4.216  -05 1.85   +01
 4.266  -05 1.48   +01
 4.317  -05 2.78   +01
 4.368  -05 2.88   +01
 4.421  -05 1.93   +01
 4.474  -05 1.95   +01
 4.529  -05 1.60   +01
 4.541  -05 1.05   +01
 4.584  -05 1.35   +01
 4.698  -05 1.54   +01
 4.757  -05 1.83   +01
 4.816  -05 2.25   +01
 4.877  -05 1.83   +01
 4.939  -05 3.69   +01
 5.003  -05 4.17   +01
 5.067  -05 2.37   +01
 5.133  -05 1.63   +01
 5.200  -05 1.56   +01
 5.268  -05 1.28   +01
 5.337  -05 1.16   +01
 5.409  -05 2.27   +01
 5.481  -05 3.60   +01
 5.555  -05 4.65   +01
 5.630  -05 5.10   +01
 5.707  -05 5.20   +01
 5.786  -05 5.98   +01
 5.866  -05 5.73   +01
 5.948  -05 4.64   +01
 6.031  -05 3.24   +01
 6.117  -05 1.80   +01
 6.204  -05 2.23   +01
 6.293  -05 3.34   +01
 6.384  -05 2.85   +01
 6.477  -05 2.64   +01
 6.572  -05 2.68   +01
 6.669  -05 2.54   +01
 6.769  -05 1.75   +01
 6.870  -05 1.53   +01
 6.974  -05 2.48   +01
 7.080  -05 2.31   +01
 7.189  -05 2.90   +01
 7.300  -05 2.12   +01
 7.414  -05 2.09   +01
 7.530  -05 3.74   +01
 7.650  -05 5.54   +01
 7.772  -05 4.65   +01
 7.897  -05 2.69   +01
 8.025  -05 2.78   +01
 8.156  -05 2.86   +01
 8.291  -05 2.52   +01
 8.428  -05 2.80   +01
 8.570  -05 2.63   +01
 8.715  -05 1.80   +01
 8.863  -05 1.01   +01
 9.016  -05 1.43   +01
 9.172  -05 2.42   +01
 9.332  -05 4.43   +01
 9.497  -05 3.35   +01
 9.666  -05 2.42   +01
 9.840  -05 2.42   +01
 1.002  -04 3.67   +01
 1.020  -04 4.26   +01
 1.039  -04 2.97   +01
 1.058  -04 1.70   +01
 1.078  -04 1.86   +01
 1.099  -04 3.40   +01
 1.120  -04 3.94   +01
 1.142  -04 4.27   +01
 1.164  -04 3.66   +01
 1.187  -04 3.75   +01
 1.210  -04 3.15   +01
 1.235  -04 3.28   +01
 1.260  -04 2.70   +01
 1.286  -04 3.02   +01
 1.313  -04 2.14   +01
 1.340  -04 1.83   +01
 1.369  -04 2.06   +01
 1.398  -04 2.58   +01
 1.428  -04 2.05   +01
 1.459  -04 1.56   +01
 1.492  -04 1.73   +01
 1.525  -04 1.86   +01
 1.560  -04 2.09   +01
 1.595  -04 1.95   +01
 1.632  -04 1.33   +01
 1.671  -04 1.28   +01
 1.710  -04 1.79   +01
 1.751  -04 2.19   +01
 1.794  -04 1.67   +01
 1.838  -04 1.27   +01
 1.884  -04 8.4    +00
 1.931  -04 9.2    +00
 1.981  -04 1.87   +01
 2.032  -04 1.99   +01
 2.085  -04 1.72   +01
 2.141  -04 2.03   +01
 2.198  -04 2.25   +01
 2.258  -04 2.27   +01
 2.321  -04 2.23   +01
 2.386  -04 1.73   +01
 2.454  -04 1.36   +01
 2.524  -04 1.72   +01
 2.598  -04 1.81   +01
 2.676  -04 1.85   +01
 2.756  -04 1.34   +01
 2.841  -04 1.27   +01
 2.929  -04 1.50   +01
 3.022  -04 1.88   +01
 3.119  -04 1.92   +01
 3.220  -04 2.10   +01
 3.327  -04 1.53   +01
 3.439  -04 1.89   +01
 3.557  -04 2.96   +01
 3.681  -04 1.33   +01
 3.812  -04 1.26   +01
 3.950  -04 1.74   +01
 4.096  -04 1.74   +01
 4.249  -04 1.34   +01
 4.412  -04 1.17   +01
 4.584  -04 8.4    +00
 4.766  -04 1.01   +01
 4.959  -04 9.6    +00
 5.165  -04 1.19   +01
 5.383  -04 1.30   +01
 5.615  -04 1.25   +01
 5.863  -04 1.18   +01
 6.129  -04 1.19   +01
 6.411  -04 1.22   +01
 6.714  -04 1.33   +01
 7.039  -04 1.37   +01
 7.389  -04 1.32   +01
 7.764  -04 1.28   +01
 8.170  -04 1.11   +01
 8.608  -04 1.03   +01
 9.082  -04 1.25   +01
 9.597  -04 1.03   +01
ENDDATA            955
ENDSUBENT          987
SUBENT        12341003   20160315   20160701   20160615       1416
BIB                  8         22
REACTION   (92-U-233(N,TOT),,SIG)
METHOD     (TOF,TRN)
           Transmission was measured for U, Au, and Cd samples.
           Au runs for checking consistency of different runs,
           Cd runs helped in background correction.
SAMPLE     (92-U-233,ENR=0.976)
           Metal plates, 0.030 and 0.170 in thick
DETECTOR   (BF3) 3 BF3 counters
CORRECTION Corrected for dead time and oxygen content of sample
ERR-ANALYS Detailed error analysis with energy-dependent
           uncertainty components is given in Table I of
           Phys.Rev.188,714,1960.
           (ERR-T,0.8,18.) Total uncertainty, consisting of
            contributions from:
           (ERR-S,0.5,15.) Counting statistics
           (ERR-1,0.3,10.) Background uncertainties
           (ERR-2,0.6,1.5) Sample uncertainties
           (EN-ERR,0.7,8.) Error in energy scale from initial
            delay uncertainties
STATUS     (TABLE) Data from Appendix I, Report IDO-16576,1959
HISTORY    (20160221A) Added DETECTOR, SAMPLE, ERR-ANALYS,
            CORRECTION and STATUS information
ENDBIB              22
NOCOMMON             0          0
DATA                 2       1071
EN         DATA
MEV        B
 2.03   -08 6.447  +02
 2.09   -08 6.477  +02
 2.19   -08 6.299  +02
 2.29   -08 6.142  +02
 2.39   -08 6.038  +02
 2.49   -08 5.921  +02
 2.59   -08 5.827  +02
 2.69   -08 5.674  +02
 2.79   -08 5.582  +02
 2.89   -08 5.488  +02
 2.99   -08 5.390  +02
 3.08   -08 5.308  +02
 3.19   -08 5.222  +02
 3.29   -08 5.137  +02
 3.40   -08 5.070  +02
 3.49   -08 5.002  +02
 3.59   -08 4.915  +02
 3.69   -08 4.868  +02
 3.79   -08 4.810  +02
 3.89   -08 4.744  +02
 3.99   -08 4.663  +02
 4.09   -08 4.604  +02
 4.19   -08 4.555  +02
 4.28   -08 4.511  +02
 4.38   -08 4.457  +02
 4.47   -08 4.400  +02
 4.59   -08 4.345  +02
 4.70   -08 4.285  +02
 4.79   -08 4.280  +02
 4.88   -08 4.220  +02
 4.99   -08 4.190  +02
 5.08   -08 4.125  +02
 5.19   -08 4.098  +02
 5.29   -08 4.072  +02
 5.39   -08 4.036  +02
 5.49   -08 3.973  +02
 5.59   -08 3.954  +02
 5.69   -08 3.922  +02
 5.81   -08 3.874  +02
 5.91   -08 3.837  +02
 6.01   -08 3.802  +02
 6.11   -08 3.772  +02
 6.20   -08 3.744  +02
 6.31   -08 3.713  +02
 6.40   -08 3.657  +02
 6.49   -08 3.665  +02
 6.60   -08 3.628  +02
 6.70   -08 3.596  +02
 6.79   -08 3.581  +02
 6.89   -08 3.549  +02
 7.00   -08 3.531  +02
 7.10   -08 3.500  +02
 7.20   -08 3.481  +02
 7.32   -08 3.433  +02
 7.42   -08 3.414  +02
 7.51   -08 3.401  +02
 7.59   -08 3.377  +02
 7.72   -08 3.370  +02
 7.80   -08 3.344  +02
 7.89   -08 3.298  +02
 8.01   -08 3.150  +02
 8.12   -08 3.288  +02
 8.21   -08 3.240  +02
 8.31   -08 3.204  +02
 8.41   -08 3.219  +02
 8.52   -08 3.197  +02
 8.62   -08 3.163  +02
 8.73   -08 3.167  +02
 8.80   -08 3.124  +02
 8.91   -08 3.099  +02
 9.02   -08 3.089  +02
 9.09   -08 3.097  +02
 9.21   -08 3.074  +02
 9.33   -08 3.071  +02
 9.40   -08 3.043  +02
 9.48   -08 2.988  +02
 9.61   -08 3.014  +02
 9.73   -08 2.973  +02
 9.82   -08 2.956  +02
 9.90   -08 2.949  +02
 9.99   -08 2.959  +02
 1.008  -07 2.894  +02
 1.017  -07 2.911  +02
 1.030  -07 2.913  +02
 1.044  -07 2.893  +02
 1.053  -07 2.876  +02
 1.063  -07 2.863  +02
 1.073  -07 2.784  +02
 1.082  -07 2.814  +02
 1.092  -07 2.814  +02
 1.102  -07 2.787  +02
 1.113  -07 2.760  +02
 1.123  -07 2.772  +02
 1.133  -07 2.746  +02
 1.144  -07 2.749  +02
 1.155  -07 2.775  +02
 1.166  -07 2.709  +02
 1.177  -07 2.732  +02
 1.188  -07 2.659  +02
 1.199  -07 2.685  +02
 1.211  -07 2.694  +02
 1.223  -07 2.646  +02
 1.235  -07 2.640  +02
 1.247  -07 2.685  +02
 1.259  -07 2.634  +02
 1.271  -07 2.601  +02
 1.284  -07 2.622  +02
 1.297  -07 2.600  +02
 1.310  -07 2.555  +02
 1.323  -07 2.557  +02
 1.337  -07 2.549  +02
 1.350  -07 2.561  +02
 1.364  -07 2.533  +02
 1.378  -07 2.527  +02
 1.392  -07 2.560  +02
 1.407  -07 2.532  +02
 1.422  -07 2.500  +02
 1.452  -07 2.469  +02
 1.467  -07 2.444  +02
 1.483  -07 2.476  +02
 1.499  -07 2.450  +02
 1.515  -07 2.419  +02
 1.531  -07 2.489  +02
 1.548  -07 2.444  +02
 1.565  -07 2.382  +02
 1.582  -07 2.425  +02
 1.600  -07 2.423  +02
 1.618  -07 2.375  +02
 1.636  -07 2.359  +02
 1.654  -07 2.399  +02
 1.673  -07 2.372  +02
 1.692  -07 2.400  +02
 1.712  -07 2.397  +02
 1.731  -07 2.441  +02
 1.751  -07 2.333  +02
 1.772  -07 2.343  +02
 1.793  -07 2.349  +02
 1.814  -07 2.347  +02
 1.836  -07 2.367  +02
 1.857  -07 2.363  +02
 1.880  -07 2.334  +02
 1.903  -07 2.275  +02
 1.926  -07 2.330  +02
 1.949  -07 2.338  +02
 1.973  -07 2.278  +02
 1.998  -07 2.320  +02
 2.023  -07 2.333  +02
 2.048  -07 2.267  +02
 2.074  -07 2.247  +02
 2.100  -07 2.250  +02
 2.127  -07 2.289  +02
 2.155  -07 2.259  +02
 2.183  -07 2.152  +02
 2.211  -07 2.144  +02
 2.240  -07 2.131  +02
 2.270  -07 2.192  +02
 2.300  -07 2.107  +02
 2.331  -07 2.101  +02
 2.362  -07 2.159  +02
 2.394  -07 2.122  +02
 2.427  -07 2.162  +02
 2.460  -07 2.089  +02
 2.495  -07 2.054  +02
 2.529  -07 2.045  +02
 2.565  -07 2.079  +02
 2.601  -07 1.970  +02
 2.638  -07 2.006  +02
 2.676  -07 2.045  +02
 2.715  -07 1.984  +02
 2.755  -07 1.983  +02
 2.795  -07 1.914  +02
 2.836  -07 1.950  +02
 2.879  -07 1.864  +02
 2.922  -07 1.951  +02
 2.966  -07 1.934  +02
 3.011  -07 1.916  +02
 3.019  -07 1.641  +02
 3.042  -07 1.643  +02
 3.057  -07 1.935  +02
 3.066  -07 1.760  +02
 3.089  -07 1.792  +02
 3.105  -07 1.863  +02
 3.114  -07 2.024  +02
 3.146  -07 1.883  +02
 3.163  -07 1.865  +02
 3.195  -07 1.875  +02
 3.214  -07 1.828  +02
 3.246  -07 1.834  +02
 3.266  -07 1.801  +02
 3.299  -07 1.754  +02
 3.319  -07 1.818  +02
 3.346  -07 1.805  +02
 3.359  -07 1.778  +02
 3.374  -07 1.771  +02
 3.401  -07 1.788  +02
 3.413  -07 1.802  +02
 3.429  -07 1.784  +02
 3.458  -07 1.821  +02
 3.469  -07 1.746  +02
 3.487  -07 1.720  +02
 3.516  -07 1.735  +02
 3.526  -07 1.766  +02
 3.545  -07 1.778  +02
 3.575  -07 1.713  +02
 3.585  -07 1.681  +02
 3.605  -07 1.770  +02
 3.640  -07 1.710  +02
 3.667  -07 1.694  +02
 3.698  -07 1.698  +02
 3.706  -07 1.672  +02
 3.730  -07 1.735  +02
 3.766  -07 1.684  +02
 3.795  -07 1.741  +02
 3.832  -07 1.679  +02
 3.862  -07 1.725  +02
 3.899  -07 1.747  +02
 3.931  -07 1.767  +02
 3.968  -07 1.680  +02
 4.000  -07 1.677  +02
 4.038  -07 1.668  +02
 4.074  -07 1.743  +02
 4.111  -07 1.704  +02
 4.147  -07 1.685  +02
 4.185  -07 1.667  +02
 4.224  -07 1.694  +02
 4.262  -07 1.680  +02
 4.301  -07 1.639  +02
 4.340  -07 1.700  +02
 4.383  -07 1.595  +02
 4.421  -07 1.623  +02
 4.465  -07 1.628  +02
 4.504  -07 1.625  +02
 4.550  -07 1.602  +02
 4.590  -07 1.619  +02
 4.638  -07 1.656  +02
 4.678  -07 1.611  +02
 4.728  -07 1.591  +02
 4.769  -07 1.590  +02
 4.821  -07 1.595  +02
 4.862  -07 1.622  +02
 4.916  -07 1.558  +02
 4.958  -07 1.559  +02
 5.016  -07 1.629  +02
 5.056  -07 1.574  +02
 5.117  -07 1.593  +02
 5.159  -07 1.565  +02
 5.220  -07 1.630  +02
 5.253  -07 1.473  +02
 5.276  -07 1.542  +02
 5.330  -07 1.531  +02
 5.372  -07 1.557  +02
 5.392  -07 1.538  +02
 5.419  -07 1.433  +02
 5.444  -07 1.465  +02
 5.474  -07 1.485  +02
 5.502  -07 1.572  +02
 5.535  -07 1.459  +02
 5.559  -07 1.512  +02
 5.589  -07 1.487  +02
 5.618  -07 1.521  +02
 5.654  -07 1.464  +02
 5.679  -07 1.479  +02
 5.708  -07 1.483  +02
 5.734  -07 1.449  +02
 5.746  -07 1.492  +02
 5.787  -07 1.456  +02
 5.815  -07 1.491  +02
 5.849  -07 1.504  +02
 5.871  -07 1.445  +02
 5.912  -07 1.463  +02
 5.942  -07 1.460  +02
 5.967  -07 1.466  +02
 5.994  -07 1.456  +02
 6.033  -07 1.482  +02
 6.059  -07 1.481  +02
 6.089  -07 1.406  +02
 6.127  -07 1.442  +02
 6.179  -07 1.462  +02
 6.206  -07 1.443  +02
 6.240  -07 1.408  +02
 6.265  -07 1.413  +02
 6.309  -07 1.391  +02
 6.327  -07 1.474  +02
 6.358  -07 1.433  +02
 6.394  -07 1.417  +02
 6.399  -07 1.447  +02
 6.417  -07 1.391  +02
 6.461  -07 1.437  +02
 6.491  -07 1.433  +02
 6.537  -07 1.427  +02
 6.567  -07 1.418  +02
 6.604  -07 1.377  +02
 6.632  -07 1.411  +02
 6.689  -07 1.414  +02
 6.720  -07 1.400  +02
 6.767  -07 1.359  +02
 6.793  -07 1.423  +02
 6.839  -07 1.356  +02
 6.853  -07 1.393  +02
 6.880  -07 1.375  +02
 6.959  -07 1.364  +02
 7.007  -07 1.395  +02
 7.044  -07 1.358  +02
 7.098  -07 1.398  +02
 7.127  -07 1.375  +02
 7.178  -07 1.401  +02
 7.217  -07 1.366  +02
 7.258  -07 1.318  +02
 7.283  -07 1.361  +02
 7.351  -07 1.374  +02
 7.393  -07 1.417  +02
 7.445  -07 1.368  +02
 7.485  -07 1.297  +02
 7.533  -07 1.363  +02
 7.579  -07 1.383  +02
 7.629  -07 1.347  +02
 7.670  -07 1.329  +02
 7.721  -07 1.362  +02
 7.769  -07 1.359  +02
 7.821  -07 1.401  +02
 7.865  -07 1.346  +02
 7.914  -07 1.362  +02
 7.920  -07 1.405  +02
 7.964  -07 1.333  +02
 8.019  -07 1.385  +02
 8.065  -07 1.351  +02
 8.120  -07 1.381  +02
 8.169  -07 1.402  +02
 8.225  -07 1.391  +02
 8.276  -07 1.337  +02
 8.332  -07 1.406  +02
 8.385  -07 1.375  +02
 8.442  -07 1.414  +02
 8.497  -07 1.417  +02
 8.551  -07 1.401  +02
 8.607  -07 1.422  +02
 8.664  -07 1.477  +02
 8.725  -07 1.414  +02
 8.780  -07 1.436  +02
 8.841  -07 1.441  +02
 8.896  -07 1.478  +02
 8.960  -07 1.419  +02
 9.015  -07 1.474  +02
 9.081  -07 1.434  +02
 9.137  -07 1.542  +02
 9.207  -07 1.490  +02
 9.263  -07 1.510  +02
 9.328  -07 1.499  +02
 9.392  -07 1.503  +02
 9.461  -07 1.539  +02
 9.521  -07 1.540  +02
 9.589  -07 1.533  +02
 9.654  -07 1.560  +02
 9.729  -07 1.508  +02
 9.791  -07 1.571  +02
 9.865  -07 1.540  +02
 9.927  -07 1.607  +02
 1.001  -06 1.534  +02
 1.007  -06 1.656  +02
 1.015  -06 1.619  +02
 1.020  -06 1.663  +02
 1.022  -06 1.632  +02
 1.030  -06 1.627  +02
 1.035  -06 1.726  +02
 1.037  -06 1.775  +02
 1.045  -06 1.704  +02
 1.050  -06 1.718  +02
 1.052  -06 1.724  +02
 1.060  -06 1.735  +02
 1.066  -06 1.794  +02
 1.068  -06 1.716  +02
 1.076  -06 1.807  +02
 1.082  -06 1.766  +02
 1.092  -06 1.814  +02
 1.099  -06 1.847  +02
 1.108  -06 1.805  +02
 1.113  -06 1.924  +02
 1.117  -06 1.897  +02
 1.125  -06 1.898  +02
 1.130  -06 1.934  +02
 1.134  -06 1.900  +02
 1.142  -06 1.932  +02
 1.149  -06 2.025  +02
 1.160  -06 2.088  +02
 1.166  -06 2.024  +02
 1.178  -06 2.051  +02
 1.182  -06 2.068  +02
 1.187  -06 2.125  +02
 1.196  -06 2.156  +02
 1.201  -06 2.258  +02
 1.205  -06 2.147  +02
 1.215  -06 2.225  +02
 1.219  -06 2.262  +02
 1.223  -06 2.203  +02
 1.234  -06 2.330  +02
 1.239  -06 2.342  +02
 1.243  -06 2.291  +02
 1.256  -06 2.435  +02
 1.264  -06 2.385  +02
 1.276  -06 2.494  +02
 1.284  -06 2.490  +02
 1.295  -06 2.527  +02
 1.299  -06 2.707  +02
 1.307  -06 2.592  +02
 1.316  -06 2.695  +02
 1.320  -06 2.769  +02
 1.327  -06 2.751  +02
 1.340  -06 2.933  +02
 1.346  -06 2.843  +02
 1.362  -06 3.016  +02
 1.372  -06 3.071  +02
 1.383  -06 3.107  +02
 1.387  -06 3.243  +02
 1.394  -06 3.232  +02
 1.404  -06 3.261  +02
 1.410  -06 3.424  +02
 1.416  -06 3.420  +02
 1.424  -06 3.374  +02
 1.430  -06 3.526  +02
 1.438  -06 3.528  +02
 1.442  -06 3.603  +02
 1.455  -06 3.670  +02
 1.459  -06 3.800  +02
 1.467  -06 3.831  +02
 1.472  -06 3.691  +02
 1.482  -06 3.959  +02
 1.490  -06 3.946  +02
 1.504  -06 4.057  +02
 1.510  -06 4.228  +02
 1.518  -06 4.241  +02
 1.526  -06 4.268  +02
 1.534  -06 4.388  +02
 1.545  -06 4.479  +02
 1.557  -06 4.588  +02
 1.563  -06 4.740  +02
 1.574  -06 4.801  +02
 1.588  -06 4.954  +02
 1.595  -06 4.984  +02
 1.602  -06 5.119  +02
 1.614  -06 5.306  +02
 1.621  -06 5.458  +02
 1.630  -06 5.669  +02
 1.637  -06 5.776  +02
 1.646  -06 6.304  +02
 1.652  -06 6.041  +02
 1.660  -06 6.413  +02
 1.670  -06 6.640  +02
 1.677  -06 6.914  +02
 1.689  -06 7.293  +02
 1.694  -06 7.493  +02
 1.706  -06 7.942  +02
 1.712  -06 8.484  +02
 1.722  -06 8.813  +02
 1.728  -06 9.184  +02
 1.738  -06 9.423  +02
 1.744  -06 9.950  +02
 1.752  -06 9.846  +02
 1.764  -06 1.063  +03
 1.776  -06 1.043  +03
 1.784  -06 1.028  +03
 1.792  -06 1.035  +03
 1.801  -06 1.019  +03
 1.818  -06 1.011  +03
 1.826  -06 9.430  +02
 1.835  -06 9.568  +02
 1.844  -06 8.687  +02
 1.853  -06 8.359  +02
 1.861  -06 7.811  +02
 1.875  -06 7.627  +02
 1.883  -06 7.066  +02
 1.894  -06 6.668  +02
 1.904  -06 6.371  +02
 1.913  -06 5.898  +02
 1.922  -06 5.757  +02
 1.932  -06 5.467  +02
 1.941  -06 5.297  +02
 1.951  -06 4.852  +02
 1.959  -06 4.760  +02
 1.970  -06 4.471  +02
 1.979  -06 4.325  +02
 1.991  -06 4.092  +02
 1.998  -06 3.940  +02
 2.011  -06 3.890  +02
 2.017  -06 3.806  +02
 2.030  -06 3.660  +02
 2.039  -06 3.549  +02
 2.051  -06 3.517  +02
 2.058  -06 3.368  +02
 2.072  -06 3.327  +02
 2.080  -06 3.311  +02
 2.089  -06 3.295  +02
 2.099  -06 3.270  +02
 2.111  -06 3.313  +02
 2.120  -06 3.288  +02
 2.136  -06 3.265  +02
 2.143  -06 3.483  +02
 2.158  -06 3.551  +02
 2.166  -06 3.670  +02
 2.180  -06 3.895  +02
 2.187  -06 4.036  +02
 2.200  -06 4.381  +02
 2.212  -06 4.822  +02
 2.223  -06 5.144  +02
 2.235  -06 5.997  +02
 2.245  -06 6.652  +02
 2.252  -06 7.129  +02
 2.262  -06 7.973  +02
 2.274  -06 8.760  +02
 2.285  -06 9.187  +02
 2.298  -06 9.570  +02
 2.311  -06 9.081  +02
 2.323  -06 8.518  +02
 2.335  -06 7.432  +02
 2.348  -06 5.980  +02
 2.361  -06 4.853  +02
 2.369  -06 4.271  +02
 2.378  -06 3.693  +02
 2.393  -06 2.778  +02
 2.404  -06 2.291  +02
 2.415  -06 1.897  +02
 2.429  -06 1.629  +02
 2.443  -06 1.489  +02
 2.455  -06 1.252  +02
 2.469  -06 1.150  +02
 2.483  -06 1.019  +02
 2.496  -06 1.044  +02
 2.507  -06 8.89   +01
 2.520  -06 9.18   +01
 2.542  -06 8.46   +01
 2.553  -06 8.35   +01
 2.571  -06 7.96   +01
 2.584  -06 7.59   +01
 2.593  -06 7.53   +01
 2.608  -06 7.48   +01
 2.629  -06 7.40   +01
 2.643  -06 7.18   +01
 2.660  -06 7.36   +01
 2.668  -06 7.22   +01
 2.688  -06 7.37   +01
 2.698  -06 6.96   +01
 2.725  -06 6.84   +01
 2.734  -06 7.13   +01
 2.753  -06 6.95   +01
 2.770  -06 6.96   +01
 2.782  -06 6.82   +01
 2.797  -06 6.74   +01
 2.806  -06 6.88   +01
 2.820  -06 7.04   +01
 2.832  -06 6.79   +01
 2.854  -06 6.88   +01
 2.867  -06 7.18   +01
 2.884  -06 6.93   +01
 2.896  -06 6.96   +01
 2.903  -06 6.72   +01
 2.926  -06 7.18   +01
 2.937  -06 6.94   +01
 2.957  -06 7.55   +01
 2.964  -06 7.18   +01
 2.982  -06 7.16   +01
 2.996  -06 7.34   +01
 3.013  -06 7.84   +01
 3.027  -06 7.61   +01
 3.047  -06 7.64   +01
 3.076  -06 7.99   +01
 3.087  -06 8.10   +01
 3.109  -06 8.43   +01
 3.119  -06 8.27   +01
 3.152  -06 8.54   +01
 3.164  -06 8.18   +01
 3.185  -06 8.83   +01
 3.200  -06 8.96   +01
 3.232  -06 9.35   +01
 3.248  -06 9.61   +01
 3.270  -06 9.98   +01
 3.282  -06 1.003  +02
 3.312  -06 1.073  +02
 3.325  -06 1.138  +02
 3.362  -06 1.191  +02
 3.380  -06 1.277  +02
 3.400  -06 1.306  +02
 3.415  -06 1.341  +02
 3.431  -06 1.481  +02
 3.447  -06 1.421  +02
 3.462  -06 1.494  +02
 3.482  -06 1.540  +02
 3.498  -06 1.732  +02
 3.515  -06 1.729  +02
 3.533  -06 1.799  +02
 3.555  -06 1.997  +02
 3.570  -06 2.065  +02
 3.588  -06 2.207  +02
 3.607  -06 2.470  +02
 3.626  -06 2.537  +02
 3.642  -06 2.664  +02
 3.660  -06 2.552  +02
 3.679  -06 2.382  +02
 3.698  -06 2.023  +02
 3.713  -06 1.889  +02
 3.736  -06 1.517  +02
 3.754  -06 1.329  +02
 3.773  -06 1.197  +02
 3.791  -06 1.115  +02
 3.811  -06 1.019  +02
 3.833  -06 8.95   +01
 3.848  -06 9.27   +01
 3.868  -06 8.33   +01
 3.895  -06 8.09   +01
 3.910  -06 7.98   +01
 3.929  -06 7.64   +01
 3.951  -06 7.31   +01
 3.965  -06 7.44   +01
 3.977  -06 7.03   +01
 4.007  -06 7.05   +01
 4.027  -06 7.37   +01
 4.039  -06 7.45   +01
 4.063  -06 6.87   +01
 4.086  -06 6.85   +01
 4.123  -06 6.96   +01
 4.151  -06 7.20   +01
 4.175  -06 7.29   +01
 4.187  -06 7.12   +01
 4.215  -06 7.56   +01
 4.236  -06 7.64   +01
 4.250  -06 7.82   +01
 4.276  -06 8.08   +01
 4.295  -06 8.02   +01
 4.315  -06 8.00   +01
 4.333  -06 8.54   +01
 4.360  -06 8.87   +01
 4.387  -06 9.17   +01
 4.408  -06 9.56   +01
 4.434  -06 9.80   +01
 4.451  -06 9.90   +01
 4.474  -06 1.029  +02
 4.499  -06 1.038  +02
 4.515  -06 1.110  +02
 4.532  -06 1.128  +02
 4.564  -06 1.136  +02
 4.580  -06 1.186  +02
 4.597  -06 1.200  +02
 4.631  -06 1.234  +02
 4.664  -06 1.233  +02
 4.683  -06 1.244  +02
 4.715  -06 1.234  +02
 4.744  -06 1.303  +02
 4.789  -06 1.283  +02
 4.825  -06 1.275  +02
 4.845  -06 1.264  +02
 4.863  -06 1.213  +02
 4.894  -06 1.223  +02
 4.920  -06 1.227  +02
 4.938  -06 1.179  +02
 4.970  -06 1.193  +02
 4.996  -06 1.182  +02
 5.015  -06 1.179  +02
 5.035  -06 1.204  +02
 5.063  -06 1.359  +02
 5.095  -06 1.793  +02
 5.114  -06 2.109  +02
 5.143  -06 2.905  +02
 5.176  -06 3.166  +02
 5.195  -06 2.754  +02
 5.217  -06 2.056  +02
 5.236  -06 1.524  +02
 5.271  -06 1.196  +02
 5.304  -06 9.65   +01
 5.352  -06 8.44   +01
 5.402  -06 7.79   +01
 5.436  -06 7.89   +01
 5.472  -06 7.62   +01
 5.487  -06 7.56   +01
 5.528  -06 7.57   +01
 5.539  -06 7.54   +01
 5.569  -06 7.58   +01
 5.610  -06 8.02   +01
 5.619  -06 7.95   +01
 5.665  -06 8.72   +01
 5.713  -06 9.77   +01
 5.762  -06 1.127  +02
 5.807  -06 1.354  +02
 5.820  -06 1.328  +02
 5.856  -06 1.417  +02
 5.873  -06 1.412  +02
 5.913  -06 1.453  +02
 5.956  -06 1.385  +02
 6.008  -06 1.263  +02
 6.064  -06 1.206  +02
 6.109  -06 1.180  +02
 6.129  -06 1.216  +02
 6.162  -06 1.210  +02
 6.189  -06 1.170  +02
 6.215  -06 1.207  +02
 6.252  -06 1.203  +02
 6.281  -06 1.249  +02
 6.310  -06 1.297  +02
 6.340  -06 1.332  +02
 6.365  -06 1.390  +02
 6.407  -06 1.464  +02
 6.449  -06 1.585  +02
 6.475  -06 1.662  +02
 6.506  -06 1.761  +02
 6.537  -06 1.882  +02
 6.567  -06 2.231  +02
 6.600  -06 2.518  +02
 6.639  -06 3.218  +02
 6.679  -06 3.978  +02
 6.710  -06 4.726  +02
 6.742  -06 5.791  +02
 6.773  -06 6.401  +02
 6.805  -06 7.262  +02
 6.831  -06 7.586  +02
 6.868  -06 7.167  +02
 6.901  -06 5.783  +02
 6.944  -06 4.160  +02
 6.983  -06 2.935  +02
 7.017  -06 1.967  +02
 7.049  -06 1.548  +02
 7.083  -06 1.365  +02
 7.114  -06 1.208  +02
 7.152  -06 1.058  +02
 7.180  -06 9.90   +01
 7.212  -06 8.50   +01
 7.260  -06 8.13   +01
 7.301  -06 7.10   +01
 7.338  -06 6.93   +01
 7.374  -06 6.46   +01
 7.413  -06 6.88   +01
 7.454  -06 7.13   +01
 7.490  -06 7.78   +01
 7.521  -06 7.32   +01
 7.561  -06 6.85   +01
 7.597  -06 6.97   +01
 7.636  -06 6.08   +01
 7.670  -06 5.87   +01
 7.707  -06 5.64   +01
 7.742  -06 4.98   +01
 7.783  -06 4.81   +01
 7.824  -06 4.55   +01
 7.863  -06 4.27   +01
 7.895  -06 4.50   +01
 7.934  -06 4.39   +01
 7.974  -06 4.08   +01
 8.016  -06 4.30   +01
 8.051  -06 4.12   +01
 8.091  -06 4.50   +01
 8.131  -06 4.19   +01
 8.171  -06 4.37   +01
 8.218  -06 3.96   +01
 8.267  -06 4.31   +01
 8.314  -06 4.73   +01
 8.363  -06 4.01   +01
 8.404  -06 4.53   +01
 8.426  -06 4.61   +01
 8.460  -06 4.77   +01
 8.504  -06 5.11   +01
 8.553  -06 5.31   +01
 8.590  -06 5.08   +01
 8.633  -06 5.65   +01
 8.678  -06 5.47   +01
 8.729  -06 5.61   +01
 8.767  -06 5.59   +01
 8.812  -06 5.41   +01
 8.858  -06 5.43   +01
 8.911  -06 5.16   +01
 8.950  -06 5.22   +01
 8.997  -06 5.23   +01
 9.043  -06 5.49   +01
 9.090  -06 5.77   +01
 9.136  -06 6.91   +01
 9.190  -06 8.23   +01
 9.234  -06 9.24   +01
 9.283  -06 9.61   +01
 9.331  -06 9.08   +01
 9.382  -06 8.91   +01
 9.423  -06 8.28   +01
 9.478  -06 8.09   +01
 9.515  -06 7.67   +01
 9.560  -06 8.05   +01
 9.616  -06 7.41   +01
 9.643  -06 7.83   +01
 9.687  -06 8.35   +01
 9.744  -06 8.42   +01
 9.792  -06 8.59   +01
 9.843  -06 9.25   +01
 9.899  -06 9.82   +01
 9.953  -06 1.048  +02
 1.000  -05 1.220  +02
 1.006  -05 1.422  +02
 1.011  -05 1.521  +02
 1.015  -05 2.292  +02
 1.020  -05 2.722  +02
 1.024  -05 3.348  +02
 1.030  -05 4.239  +02
 1.035  -05 5.039  +02
 1.040  -05 5.506  +02
 1.046  -05 5.243  +02
 1.052  -05 4.591  +02
 1.058  -05 3.618  +02
 1.063  -05 3.127  +02
 1.066  -05 2.395  +02
 1.073  -05 1.638  +02
 1.076  -05 1.716  +02
 1.082  -05 1.429  +02
 1.088  -05 1.188  +02
 1.094  -05 1.104  +02
 1.101  -05 1.090  +02
 1.106  -05 1.067  +02
 1.112  -05 1.056  +02
 1.114  -05 1.011  +02
 1.120  -05 1.087  +02
 1.126  -05 1.079  +02
 1.133  -05 1.088  +02
 1.140  -05 1.067  +02
 1.146  -05 9.75   +01
 1.153  -05 9.24   +01
 1.154  -05 7.68   +01
 1.160  -05 8.55   +01
 1.167  -05 7.47   +01
 1.174  -05 7.65   +01
 1.181  -05 7.25   +01
 1.187  -05 7.63   +01
 1.189  -05 7.26   +01
 1.195  -05 7.65   +01
 1.202  -05 7.62   +01
 1.209  -05 7.90   +01
 1.217  -05 8.06   +01
 1.223  -05 8.93   +01
 1.225  -05 8.62   +01
 1.231  -05 9.41   +01
 1.239  -05 1.024  +02
 1.246  -05 1.225  +02
 1.254  -05 1.612  +02
 1.261  -05 1.949  +02
 1.263  -05 2.268  +02
 1.270  -05 2.888  +02
 1.278  -05 3.526  +02
 1.286  -05 3.746  +02
 1.293  -05 3.562  +02
 1.295  -05 2.318  +02
 1.301  -05 2.758  +02
 1.309  -05 2.408  +02
 1.326  -05 9.74   +01
 1.334  -05 9.87   +01
 1.343  -05 9.48   +01
 1.351  -05 1.065  +02
 1.360  -05 1.112  +02
 1.368  -05 1.276  +02
 1.377  -05 1.306  +02
 1.386  -05 1.267  +02
 1.395  -05 8.90   +01
 1.404  -05 7.37   +01
 1.413  -05 5.88   +01
 1.423  -05 4.96   +01
 1.432  -05 4.52   +01
 1.441  -05 4.01   +01
 1.451  -05 3.49   +01
 1.460  -05 3.59   +01
 1.470  -05 3.14   +01
 1.480  -05 3.54   +01
 1.490  -05 3.45   +01
 1.500  -05 3.96   +01
 1.510  -05 4.68   +01
 1.520  -05 7.38   +01
 1.530  -05 1.273  +02
 1.541  -05 2.429  +02
 1.551  -05 2.749  +02
 1.562  -05 2.090  +02
 1.573  -05 1.532  +02
 1.584  -05 1.302  +02
 1.595  -05 1.193  +02
 1.606  -05 1.397  +02
 1.617  -05 1.681  +02
 1.628  -05 1.930  +02
 1.651  -05 2.260  +02
 1.663  -05 2.310  +02
 1.675  -05 1.948  +02
 1.686  -05 1.369  +02
 1.698  -05 8.01   +01
 1.711  -05 5.77   +01
 1.723  -05 4.78   +01
 1.735  -05 4.54   +01
 1.748  -05 3.93   +01
 1.761  -05 3.97   +01
 1.774  -05 4.59   +01
 1.787  -05 5.97   +01
 1.800  -05 8.11   +01
 1.813  -05 9.25   +01
 1.826  -05 9.32   +01
 1.840  -05 8.67   +01
 1.854  -05 1.063  +02
 1.868  -05 1.285  +02
 1.882  -05 1.669  +02
 1.896  -05 2.449  +02
 1.910  -05 2.966  +02
 1.925  -05 2.494  +02
 1.939  -05 1.575  +02
 1.954  -05 1.086  +02
 1.969  -05 8.63   +01
 1.984  -05 7.25   +01
 2.000  -05 7.29   +01
 2.015  -05 6.77   +01
 2.031  -05 7.79   +01
 2.047  -05 9.34   +01
 2.096  -05 1.621  +02
 2.113  -05 1.404  +02
 2.130  -05 9.89   +01
 2.147  -05 1.023  +02
 2.164  -05 1.286  +02
 2.182  -05 1.875  +02
 2.199  -05 2.841  +02
 2.217  -05 3.336  +02
 2.235  -05 3.936  +02
 2.254  -05 3.999  +02
 2.272  -05 3.079  +02
 2.291  -05 2.080  +02
 2.310  -05 1.580  +02
 2.330  -05 1.281  +02
 2.349  -05 1.100  +02
 2.369  -05 1.071  +02
 2.389  -05 9.76   +01
 2.410  -05 9.88   +01
 2.430  -05 8.58   +01
 2.451  -05 7.39   +01
 2.472  -05 6.52   +01
 2.494  -05 6.83   +01
 2.515  -05 7.74   +01
 2.537  -05 1.159  +02
 2.559  -05 1.207  +02
 2.582  -05 9.85   +01
 2.605  -05 8.60   +01
 2.628  -05 8.29   +01
 2.652  -05 7.93   +01
 2.675  -05 1.054  +02
 2.699  -05 8.00   +01
 2.724  -05 6.31   +01
 2.749  -05 5.66   +01
 2.774  -05 5.35   +01
 2.799  -05 6.09   +01
 2.825  -05 6.74   +01
 2.851  -05 8.33   +01
 2.878  -05 8.93   +01
 2.904  -05 1.181  +02
 2.932  -05 1.395  +02
 2.959  -05 1.201  +02
 2.987  -05 7.90   +01
 3.045  -05 6.06   +01
 3.074  -05 7.53   +01
 3.104  -05 9.88   +01
 3.134  -05 1.025  +02
 3.164  -05 1.015  +02
 3.195  -05 1.033  +02
 3.227  -05 1.241  +02
 3.259  -05 1.074  +02
 3.291  -05 7.06   +01
 3.324  -05 6.87   +01
 3.358  -05 8.55   +01
 3.392  -05 9.06   +01
 3.426  -05 9.74   +01
 3.461  -05 1.063  +02
 3.496  -05 1.008  +02
 3.533  -05 8.08   +01
 3.569  -05 7.54   +01
 3.606  -05 7.07   +01
 3.644  -05 7.75   +01
 3.682  -05 1.168  +02
 3.761  -05 6.92   +01
 3.801  -05 6.27   +01
 3.842  -05 4.35   +01
 3.884  -05 3.52   +01
 3.926  -05 4.42   +01
 3.969  -05 5.36   +01
 4.012  -05 5.69   +01
 4.057  -05 5.73   +01
 4.102  -05 6.02   +01
 4.148  -05 5.39   +01
 4.194  -05 4.26   +01
 4.242  -05 4.05   +01
 4.290  -05 4.89   +01
 4.339  -05 5.00   +01
 4.389  -05 4.07   +01
 4.439  -05 3.40   +01
 4.491  -05 2.76   +01
 4.544  -05 2.84   +01
 4.597  -05 3.11   +01
 4.651  -05 3.79   +01
 4.707  -05 3.85   +01
 4.763  -05 4.08   +01
 4.821  -05 4.45   +01
 4.879  -05 6.59   +01
 4.938  -05 9.73   +01
 4.999  -05 5.75   +01
 5.061  -05 4.26   +01
 5.124  -05 3.86   +01
 5.188  -05 3.53   +01
 5.253  -05 2.72   +01
 5.319  -05 3.70   +01
 5.456  -05 7.49   +01
 5.527  -05 8.97   +01
 5.598  -05 9.70   +01
 5.672  -05 1.068  +02
 5.746  -05 1.099  +02
 5.822  -05 1.075  +02
 5.900  -05 8.91   +01
 5.979  -05 6.12   +01
 6.060  -05 3.78   +01
 6.142  -05 5.80   +01
 6.227  -05 5.75   +01
 6.312  -05 5.93   +01
 6.400  -05 6.07   +01
 6.490  -05 6.41   +01
 6.581  -05 6.40   +01
 6.674  -05 5.59   +01
 6.770  -05 4.39   +01
 6.867  -05 4.49   +01
 6.967  -05 5.17   +01
 7.068  -05 6.24   +01
 7.172  -05 5.00   +01
 7.279  -05 4.21   +01
 7.387  -05 6.21   +01
 7.498  -05 8.97   +01
 7.612  -05 9.92   +01
 7.728  -05 7.09   +01
 7.847  -05 5.32   +01
 7.969  -05 6.24   +01
 8.093  -05 5.07   +01
 8.221  -05 5.55   +01
 8.622  -05 4.25   +01
 8.762  -05 3.07   +01
 8.905  -05 3.23   +01
 9.053  -05 5.20   +01
 9.203  -05 7.60   +01
 9.358  -05 6.03   +01
 9.517  -05 5.58   +01
 9.679  -05 5.79   +01
 1.002  -04 8.30   +01
 1.019  -04 6.46   +01
 1.037  -04 4.30   +01
 1.056  -04 4.87   +01
 1.075  -04 6.04   +01
 1.094  -04 7.99   +01
 1.115  -04 7.40   +01
 1.135  -04 7.53   +01
 1.156  -04 5.69   +01
 1.178  -04 5.76   +01
 1.201  -04 5.46   +01
 1.224  -04 5.93   +01
 1.248  -04 5.43   +01
 1.272  -04 5.32   +01
 1.297  -04 4.61   +01
 1.323  -04 2.61   +01
 1.350  -04 4.43   +01
 1.377  -04 4.79   +01
 1.406  -04 3.89   +01
 1.435  -04 3.58   +01
 1.465  -04 4.51   +01
 1.529  -04 8.30   +01
 1.562  -04 4.33   +01
 1.596  -04 4.03   +01
 1.632  -04 3.46   +01
 1.668  -04 3.95   +01
 1.706  -04 5.53   +01
 1.745  -04 3.94   +01
 1.786  -04 4.10   +01
 1.828  -04 2.97   +01
 1.872  -04 3.50   +01
 1.917  -04 4.21   +01
 1.963  -04 4.52   +01
 2.012  -04 4.85   +01
 2.062  -04 4.65   +01
 2.114  -04 5.29   +01
 2.169  -04 4.50   +01
ENDDATA           1073
ENDSUBENT         1100
SUBENT        12341004   20160315   20160701   20160615       1416
BIB                  4          5
REACTION   (92-U-233(N,EL),,STF)
ERR-ANALYS (DATA-ERR) No information on sources of uncertainty
STATUS     (TABLE) Text on p.717 of Phys.Rev.118,714,1960
           (DEP,12341003)
HISTORY    (20160221A) STATUS added
ENDBIB               5
NOCOMMON             0          0
DATA                 5          1
EN-RES-MIN EN-RES-MAX MOMENTUM L DATA       DATA-ERR
EV         EV         NO-DIM     NO-DIM     NO-DIM
  0.0        20.0       0.        1.0    -04 0.2    -04
ENDDATA              3
ENDSUBENT           13
SUBENT        12341005   20160315   20160701   20160615       1416
BIB                  5         21
REACTION   (92-U-233(N,TOT),,SIG,,,DERIV)
ANALYSIS   2200 m/sec cross section was obtained by a linear
           least square fit of the 0.02 - 0.08 eV data given
           in subentry 3.
ERR-ANALYS (ERR-T) Total uncertainty, consisting of contributions
            from:
           (ERR-1) Sample nonuniformity
           (ERR-2) Sample area measurement
           (ERR-3) Sample weight measurement
           (ERR-4) Isotopic analysis
           (ERR-5) Statistical deviations and non-linearity of
                    SigT(root-E) plots
           (ERR-6,,0.03) Contaminant corrections
           (ERR-7) Coherent scattering
           (ERR-8) Flight path
           (ERR-9) Initial delay
           (ERR-10) Channel widths
           (ERR-11) Equipment reproducibility
STATUS     (TABLE) Table II, Nucl.Sci.Eng.7,187,1960
           (DEP,12341003)
HISTORY    (20160221C)
ENDBIB              21
COMMON              10          6
ERR-1      ERR-2      ERR-3      ERR-4      ERR-5      ERR-7
ERR-8      ERR-9      ERR-10     ERR-11
PER-CENT   PER-CENT   PER-CENT   PER-CENT   PER-CENT   PER-CENT
PER-CENT   PER-CENT   PER-CENT   PER-CENT
  0.5         0.2       0.01       0.04       0.5        0.5
  0.05        0.05      0.01       0.3
ENDCOMMON            6
DATA                 3          1
EN         DATA       ERR-T
EV         B          B
 0.0253      587.       6.
ENDDATA              3
ENDSUBENT           36
ENDENTRY             5
