ENTRY            10909   20200229   20200430   20200430       1464
SUBENT        10909001   20200229   20200430   20200430       1464
BIB                 13         41
INSTITUTE  (1USAORL)
REFERENCE  (C,79KNOX,,677,1979)
AUTHOR     (D.K.Olsen,G.L.Morgan,J.W.McConnell)
TITLE      Measurement of 238-U(n,n'gamma) cross section.
FACILITY   (LINAC,1USAORL) Oak Ridge electron linear accelerator
            white neutron source.
INC-SOURCE (PHOTO) Electrons on tantalum, collimated to a beam
            diameter of 7-cm.
DETECTOR   (GELI) Germanium-lithium 95-cm**3 true coaxial detector
            counting losses calibrated with Cs-137 source.
            Efficiency calibrated with standard sources to
            +/- 2 percent.  Enclosed in Pb shield.
           Proton recoil detector using aluminium absorber foil
            between two polyethylene radiator foils.
           (SOLST) Protons from recoil detector counted with
            0.30-mm thick silicon detector. Am-241 standard source
            used to calibrate detector and verify counting losses.
METHOD     (TOF) Time of flight with 20-meter flight path. Beam
            filter with 0.93 gm/sq-cm B-10 to prevent time
            overlap, 5.1-cm thick carbon to provide energy scale
            VERTIFICATION, and eleven 1.27-cm thick thorium plates
            to reduce gamma flash.
MONITOR    (1-H-1(N,EL)1-H-1,,SIG)
CORRECTION Corrected for-
            -clock DEADTIME loss, less than 5-percent
            -counting loss in GELI detector, 10 percent
            -multiple scattering, less than 5-percent
            -gamma ray attenuation, 5 percent
            -neutron flux attenuation, 2 percent
            -gamma-ray self-absorption, 5 - 24 percent
ERR-ANALYS (ERR-T) Errors due to-
            -statistical errors
           (ERR-1,,5.) neutron flux uncertainty, less than 5%
           (ERR-2) uncorrelated uncertainties in count extraction
             and pileup correction, 5%
           (ERR-3) normalization uncertainty, 6%, not included
             in quoted error.
STATUS     (APRVD)  Approved by D.K.Olsen, 80/10/21.
HISTORY    (19800615C)
           (20200204U) OS. Converted to lower case, minor BIB
             changes
ENDBIB              41
COMMON               2          3
ERR-2      ERR-3
PER-CENT   PER-CENT
   5.        6.
ENDCOMMON            3
ENDSUBENT           48
SUBENT        10909002   20200229   20200430   20200430       1464
BIB                  2          3
REACTION   (92-U-238(N,INL)92-U-238,PAR,SIG,G)
SAMPLE     (92-U-238,ENR=0.9992) Diameter of 11.11-cm, 0.76-mm
            thick, 0.003760 atoms/b, enriched to 99.92% U-238.
ENDBIB               3
NOCOMMON             0          0
DATA                 5        721
E          E          EN         DATA       ERR-T
KEV        KEV        MEV        B          B
  448.6                1.071     -0.0013     0.0011
  448.6                1.122      0.0033     0.0013
  448.6                1.178      0.0095     0.0017
  448.6                1.237      0.0189     0.0024
  448.6                1.302      0.0260     0.0030
  448.6                1.371      0.0329     0.0037
  448.6                1.446      0.0310     0.0036
  448.6                1.528      0.0310     0.0036
  448.6                1.616      0.0305     0.0036
  448.6                1.713      0.0367     0.0043
  448.6                1.818      0.0336     0.0041
  448.6                1.934      0.0412     0.0048
  448.6                2.060      0.0401     0.0048
  448.6                2.200      0.0378     0.0046
  448.6                2.355      0.0376     0.0047
  448.6                2.526      0.0325     0.0044
  448.6                2.717      0.0332     0.0047
  448.6                2.930      0.0311     0.0046
  448.6                3.170      0.0398     0.0054
  448.6                3.440      0.0368     0.0053
  448.6                3.746      0.0359     0.0054
  448.6                4.095      0.0434     0.0061
  448.6                4.496      0.0427     0.0061
  519.9                0.936      0.0011     0.0013
  519.9                0.978      0.0031     0.0015
  519.9                1.023      0.0052     0.0017
  519.9                1.071      0.0076     0.0017
  519.9                1.122      0.0084     0.0018
  519.9                1.178      0.0085     0.0018
  519.9                1.237      0.0104     0.0018
  519.9                1.302      0.0120     0.0018
  519.9                1.371      0.0149     0.0021
  519.9                1.446      0.0172     0.0023
  519.9                1.528      0.0141     0.0024
  519.9                1.616      0.0166     0.0025
  519.9                1.713      0.0172     0.0027
  519.9                1.818      0.0152     0.0030
  519.9                1.934      0.0187     0.0031
  519.9                2.060      0.0184     0.0031
  519.9                2.200      0.0208     0.0033
  519.9                2.355      0.0198     0.0036
  519.9                2.526      0.0261     0.0038
  519.9                2.717      0.0303     0.0045
  519.9                2.930      0.0268     0.0044
  519.9                3.170      0.0294     0.0047
  519.9                3.440      0.0360     0.0051
  519.9                3.746      0.0335     0.0056
  519.9                4.095      0.0415     0.0058
  519.9                4.496      0.0435     0.0059
  519.9                4.958      0.0453     0.0058
  583.5                0.732     -0.0011     0.0011
  583.5                0.761      0.0088     0.0013
  583.5                0.792      0.0202     0.0017
  583.5                0.825      0.0337     0.0023
  583.5                0.859      0.0436     0.0028
  583.5                0.896      0.0575     0.0035
  583.5                0.936      0.0637     0.0038
  583.5                0.978      0.0759     0.0045
  583.5                1.023      0.0907     0.0053
  583.5                1.071      0.0916     0.0053
  583.5                1.122      0.0967     0.0056
  583.5                1.178      0.0989     0.0057
  583.5                1.237      0.0968     0.0056
  583.5                1.302      0.0913     0.0053
  583.5                1.371      0.0954     0.0056
  583.5                1.446      0.0940     0.0056
  583.5                1.528      0.0921     0.0055
  583.5                1.616      0.0889     0.0054
  583.5                1.713      0.0944     0.0057
  583.5                1.818      0.0974     0.0060
  583.5                1.934      0.0979     0.0060
  583.5                2.060      0.1007     0.0062
  583.5                2.200      0.0949     0.0060
  583.5                2.355      0.1004     0.0064
  583.5                2.526      0.0900     0.0060
  583.5                2.717      0.1087     0.0071
  583.5                2.930      0.0957     0.0066
  583.5                3.170      0.0993     0.0069
  583.5                3.440      0.1006     0.0070
  583.5                3.746      0.1058     0.0076
  583.5                4.095      0.1071     0.0077
  583.5                4.496      0.1140     0.0081
  583.5                4.958      0.1037     0.0076
  635.2                0.655     -0.0003     0.0011
  635.2                0.679      0.0122     0.0014
  635.2                0.705      0.0501     0.0031
  635.2                0.732      0.0837     0.0048
  635.2                0.761      0.1088     0.0060
  635.2                0.792      0.1276     0.0070
  635.2                0.825      0.1478     0.0080
  635.2                0.859      0.1638     0.0088
  635.2                0.896      0.1727     0.0092
  635.2                0.936      0.1880     0.0100
  635.2                0.978      0.1939     0.0104
  635.2                1.023      0.2041     0.0109
  635.2                1.071      0.2072     0.0111
  635.2                1.122      0.1940     0.0104
  635.2                1.178      0.1935     0.0103
  635.2                1.237      0.1808     0.0097
  635.2                1.302      0.1730     0.0093
  635.2                1.371      0.1672     0.0091
  635.2                1.446      0.1555     0.0085
  635.2                1.528      0.1474     0.0081
  635.2                1.616      0.1295     0.0073
  635.2                1.713      0.1295     0.0074
  635.2                1.818      0.1283     0.0074
  635.2                1.934      0.1316     0.0077
  635.2                2.060      0.1172     0.0070
  635.2                2.200      0.1110     0.0069
  635.2                2.355      0.1110     0.0071
  635.2                2.526      0.1019     0.0068
  635.2                2.717      0.1041     0.0072
  635.2                2.930      0.1032     0.0074
  635.2                3.170      0.0837     0.0064
  635.2                3.440      0.0867     0.0070
  635.2                3.746      0.0874     0.0072
  635.2                4.095      0.0885     0.0075
  635.2                4.496      0.0827     0.0071
  635.2                4.958      0.0815     0.0072
  678.7      680.1     0.655     -0.0017     0.0011
  678.7      680.1     0.679      0.0073     0.0013
  678.7      680.1     0.705      0.0292     0.0020
  678.7      680.1     0.732      0.0522     0.0032
  678.7      680.1     0.761      0.0648     0.0038
  678.7      680.1     0.792      0.0809     0.0047
  678.7      680.1     0.825      0.0910     0.0052
  678.7      680.1     0.859      0.1010     0.0057
  678.7      680.1     0.896      0.1075     0.0060
  678.7      680.1     0.936      0.1157     0.0064
  678.7      680.1     0.978      0.1237     0.0069
  678.7      680.1     1.023      0.1321     0.0073
  678.7      680.1     1.071      0.1382     0.0076
  678.7      680.1     1.122      0.1323     0.0073
  678.7      680.1     1.178      0.1342     0.0074
  678.7      680.1     1.237      0.1320     0.0073
  678.7      680.1     1.302      0.1256     0.0070
  678.7      680.1     1.371      0.1269     0.0072
  678.7      680.1     1.446      0.1195     0.0069
  678.7      680.1     1.528      0.1136     0.0067
  678.7      680.1     1.616      0.1099     0.0066
  678.7      680.1     1.713      0.1116     0.0068
  678.7      680.1     1.818      0.1166     0.0072
  678.7      680.1     1.934      0.1177     0.0073
  678.7      680.1     2.060      0.1179     0.0074
  678.7      680.1     2.200      0.1203     0.0077
  678.7      680.1     2.355      0.1221     0.0081
  678.7      680.1     2.526      0.1074     0.0076
  678.7      680.1     2.717      0.1105     0.0082
  678.7      680.1     2.930      0.1165     0.0083
  678.7      680.1     3.170      0.1095     0.0083
  678.7      680.1     3.440      0.1151     0.0088
  678.7      680.1     3.746      0.1213     0.0095
  678.7      680.1     4.095      0.1229     0.0098
  678.7      680.1     4.496      0.1174     0.0096
  678.7      680.1     4.958      0.1078     0.0092
  687.0                0.705      0.0003     0.0011
  687.0                0.732      0.0017     0.0006
  687.0                0.761      0.0128     0.0012
  687.0                0.792      0.0319     0.0022
  687.0                0.825      0.0440     0.0028
  687.0                0.859      0.0571     0.0035
  687.0                0.896      0.0711     0.0042
  687.0                0.936      0.0843     0.0049
  687.0                0.978      0.0968     0.0056
  687.0                1.023      0.1121     0.0064
  687.0                1.071      0.1196     0.0068
  687.0                1.122      0.1199     0.0068
  687.0                1.178      0.1211     0.0069
  687.0                1.237      0.1223     0.0069
  687.0                1.302      0.1186     0.0068
  687.0                1.371      0.1179     0.0068
  687.0                1.446      0.1065     0.0069
  687.0                1.528      0.1028     0.0061
  687.0                1.616      0.1012     0.0061
  687.0                1.713      0.1008     0.0062
  687.0                1.818      0.0997     0.0062
  687.0                1.934      0.1025     0.0064
  687.0                2.060      0.0974     0.0062
  687.0                2.200      0.1002     0.0065
  687.0                2.355      0.0991     0.0066
  687.0                2.526      0.0938     0.0065
  687.0                2.717      0.0909     0.0067
  687.0                2.930      0.0967     0.0070
  687.0                3.170      0.0835     0.0067
  687.0                3.440      0.0807     0.0068
  687.0                3.746      0.0960     0.0078
  687.0                4.095      0.0826     0.0074
  687.0                4.496      0.0903     0.0077
  687.0                4.958      0.0802     0.0073
  748.6                1.023      0.0006     0.0009
  748.6                1.071      0.0025     0.0010
  748.6                1.122      0.0040     0.0011
  748.6                1.178      0.0069     0.0012
  748.6                1.237      0.0087     0.0013
  748.6                1.302      0.0099     0.0014
  748.6                1.371      0.0130     0.0017
  748.6                1.446      0.0146     0.0017
  748.6                1.528      0.0160     0.0019
  748.6                1.616      0.0169     0.0020
  748.6                1.713      0.0156     0.0020
  748.6                1.818      0.0153     0.0022
  748.6                1.934      0.0134     0.0022
  748.6                2.060      0.0140     0.0023
  748.6                2.200      0.0115     0.0024
  748.6                2.355      0.0108     0.0025
  748.6                2.526      0.0129     0.0027
  748.6                2.717      0.0118     0.0030
  748.6                2.930      0.0163     0.0032
  748.6                3.170      0.0117     0.0033
  748.6                3.440      0.0141     0.0035
  748.6                3.746      0.0181     0.0040
  748.6                4.095      0.0184     0.0041
  748.6                4.496      0.0139     0.0041
  748.6                4.958      0.0177     0.0041
  817.9                0.936     -0.0001     0.0007
  817.9                0.978      0.0073     0.0009
  817.9                1.023      0.0276     0.0018
  817.9                1.071      0.0407     0.0025
  817.9                1.122      0.0489     0.0029
  817.9                1.178      0.0537     0.0032
  817.9                1.237      0.0510     0.0030
  817.9                1.302      0.0507     0.0031
  817.9                1.371      0.0530     0.0032
  817.9                1.446      0.0479     0.0031
  817.9                1.528      0.0457     0.0030
  817.9                1.616      0.0443     0.0030
  817.9                1.713      0.0375     0.0060
  817.9                1.818      0.0354     0.0058
  817.9                1.934      0.0268     0.0046
  817.9                2.060      0.0335     0.0055
  817.9                2.200      0.0272     0.0047
  817.9                2.355      0.0256     0.0046
  817.9                2.526      0.0178     0.0038
  817.9                2.717      0.0210     0.0044
  817.9                2.930      0.0217     0.0045
  817.9                3.170      0.0268     0.0052
  817.9                3.440      0.0208     0.0046
  817.9                3.746      0.0246     0.0053
  817.9                4.095      0.0165     0.0046
  817.9                4.496      0.0178     0.0048
  817.9                4.958      0.0159     0.0046
  882.1                0.896     -0.0011     0.0005
  882.1                0.936      0.0055     0.0013
  882.1                0.978      0.0218     0.0016
  882.1                1.023      0.0332     0.0020
  882.1                1.071      0.0421     0.0025
  882.1                1.122      0.0474     0.0045
  882.1                1.178      0.0546     0.0031
  882.1                1.237      0.0563     0.0029
  882.1                1.302      0.0524     0.0030
  882.1                1.371      0.0535     0.0039
  882.1                1.446      0.0490     0.0036
  882.1                1.528      0.0466     0.0041
  882.1                1.616      0.0415     0.0034
  882.1                1.713      0.0364     0.0035
  882.1                1.818      0.0358     0.0048
  882.1                1.934      0.0272     0.0048
  882.1                2.060      0.0212     0.0034
  882.1                2.200      0.0162     0.0032
  882.1                2.355      0.0166     0.0034
  882.1                2.526      0.0160     0.0037
  882.1                2.717      0.0139     0.0041
  882.1                2.930      0.0137     0.0043
  882.1                3.170      0.0198     0.0045
  882.1                3.440      0.0196     0.0048
  882.1                3.746      0.0198     0.0053
  882.1                4.095      0.0183     0.0055
  882.1                4.496      0.0219     0.0056
  882.1                4.958      0.0173     0.0055
  885.9                0.896      0.0003     0.0009
  885.9                0.936      0.0136     0.0018
  885.9                0.978      0.0578     0.0037
  885.9                1.023      0.1009     0.0059
  885.9                1.071      0.1297     0.0076
  885.9                1.122      0.1388     0.0114
  885.9                1.178      0.1507     0.0091
  885.9                1.237      0.1479     0.0100
  885.9                1.302      0.1451     0.0088
  885.9                1.371      0.1439     0.0090
  885.9                1.446      0.1390     0.0093
  885.9                1.528      0.1237     0.0081
  885.9                1.616      0.1113     0.0071
  885.9                1.713      0.1066     0.0068
  885.9                1.818      0.0960     0.0074
  885.9                1.934      0.0880     0.0073
  885.9                2.060      0.0686     0.0047
  885.9                2.200      0.0676     0.0055
  885.9                2.355      0.0629     0.0055
  885.9                2.526      0.0558     0.0054
  885.9                2.717      0.0669     0.0064
  885.9                2.930      0.0588     0.0061
  885.9                3.170      0.0689     0.0067
  885.9                3.440      0.0647     0.0069
  885.9                3.746      0.0622     0.0073
  885.9                4.095      0.0639     0.0076
  885.9                4.496      0.0624     0.0076
  885.9                4.958      0.0584     0.0074
  888.9                1.023      0.0000     0.0016
  888.9                1.071      0.0087     0.0020
  888.9                1.122      0.0094     0.0023
  888.9                1.178      0.0213     0.0034
  888.9                1.237      0.0332     0.0060
  888.9                1.302      0.0293     0.0038
  888.9                1.371      0.0300     0.0039
  888.9                1.446      0.0313     0.0055
  888.9                1.528      0.0256     0.0039
  888.9                1.616      0.0205     0.0032
  888.9                1.713      0.0181     0.0031
  888.9                1.818      0.0187     0.0032
  888.9                1.934      0.0127     0.0061
  905.1                0.936     -0.0002     0.0007
  905.1                0.978      0.0114     0.0015
  905.1                1.023      0.0248     0.0027
  905.1                1.071      0.0357     0.0038
  905.1                1.122      0.0435     0.0046
  905.1                1.178      0.0516     0.0054
  905.1                1.237      0.0541     0.0056
  905.1                1.302      0.0524     0.0055
  905.1                1.371      0.0581     0.0061
  905.1                1.446      0.0534     0.0057
  905.1                1.528      0.0481     0.0052
  905.1                1.616      0.0475     0.0051
  905.1                1.713      0.0430     0.0048
  905.1                1.818      0.0408     0.0046
  905.1                1.934      0.0353     0.0042
  905.1                2.060      0.0356     0.0042
  905.1                2.200      0.0327     0.0041
  905.1                2.355      0.0336     0.0043
  905.1                2.526      0.0299     0.0040
  905.1                2.717      0.0357     0.0048
  905.1                2.930      0.0304     0.0044
  905.1                3.170      0.0386     0.0052
  905.1                3.440      0.0326     0.0049
  905.1                3.746      0.0421     0.0059
  905.1                4.095      0.0359     0.0054
  905.1                4.496      0.0334     0.0054
  905.1                4.958      0.0329     0.0053
  911.1      911.9     1.023      0.0007     0.0008
  911.1      911.9     1.071      0.0024     0.0009
  911.1      911.9     1.122      0.0104     0.0014
  911.1      911.9     1.178      0.0171     0.0020
  911.1      911.9     1.237      0.0199     0.0023
  911.1      911.9     1.302      0.0227     0.0026
  911.1      911.9     1.371      0.0279     0.0031
  911.1      911.9     1.446      0.0295     0.0033
  911.1      911.9     1.528      0.0307     0.0035
  911.1      911.9     1.616      0.0363     0.0041
  911.1      911.9     1.713      0.0321     0.0037
  911.1      911.9     1.818      0.0344     0.0040
  911.1      911.9     1.934      0.0336     0.0040
  911.1      911.9     2.060      0.0313     0.0038
  911.1      911.9     2.200      0.0341     0.0042
  911.1      911.9     2.355      0.0321     0.0041
  911.1      911.9     2.526      0.0380     0.0047
  911.1      911.9     2.717      0.0392     0.0051
  911.1      911.9     2.930      0.0357     0.0048
  911.1      911.9     3.170      0.0295     0.0044
  911.1      911.9     3.440      0.0282     0.0045
  911.1      911.9     3.746      0.0394     0.0056
  911.1      911.9     4.095      0.0380     0.0056
  911.1      911.9     4.496      0.0356     0.0055
  911.1      911.9     4.958      0.0344     0.0054
  921.4                0.936      0.0005     0.0006
  921.4                0.978      0.0032     0.0007
  921.4                1.023      0.0165     0.0013
  921.4                1.071      0.0237     0.0016
  921.4                1.122      0.0294     0.0019
  921.4                1.178      0.0307     0.0020
  921.4                1.237      0.0337     0.0021
  921.4                1.302      0.0318     0.0021
  921.4                1.371      0.0309     0.0021
  921.4                1.446      0.0282     0.0021
  921.4                1.528      0.0270     0.0021
  921.4                1.616      0.0246     0.0021
  921.4                1.713      0.0199     0.0020
  921.4                1.818      0.0198     0.0021
  921.4                1.934      0.0144     0.0021
  921.4                2.060      0.0099     0.0020
  921.4                2.200      0.0127     0.0022
  921.4                2.355      0.0089     0.0023
  921.4                2.526      0.0083     0.0024
  921.4                2.717      0.0111     0.0028
  921.4                2.930      0.0118     0.0029
  921.4                3.170      0.0083     0.0030
  921.4                3.440      0.0102     0.0032
  921.4                3.746      0.0119     0.0037
  921.4                4.095      0.0167     0.0038
  921.4                4.496      0.0068     0.0038
  921.4                4.958      0.0019     0.0035
  952.6                0.978     -0.0008     0.0007
  952.6                1.023      0.0176     0.0014
  952.6                1.071      0.0360     0.0022
  952.6                1.122      0.0471     0.0028
  952.6                1.178      0.0569     0.0033
  952.6                1.237      0.0641     0.0036
  952.6                1.302      0.0649     0.0037
  952.6                1.371      0.0654     0.0038
  952.6                1.446      0.0612     0.0039
  952.6                1.528      0.0578     0.0035
  952.6                1.616      0.0529     0.0033
  952.6                1.713      0.0544     0.0035
  952.6                1.818      0.0531     0.0035
  952.6                1.934      0.0486     0.0034
  952.6                2.060      0.0434     0.0032
  952.6                2.200      0.0405     0.0032
  952.6                2.355      0.0396     0.0034
  952.6                2.526      0.0344     0.0034
  952.6                2.717      0.0342     0.0037
  952.6                2.930      0.0319     0.0037
  952.6                3.170      0.0365     0.0039
  952.6                3.440      0.0245     0.0038
  952.6                3.746      0.0333     0.0046
  952.6                4.095      0.0298     0.0044
  952.6                4.496      0.0296     0.0045
  952.6                4.958      0.0295     0.0045
  957.3                1.071      0.0011     0.0007
  957.3                1.122      0.0043     0.0008
  957.3                1.178      0.0127     0.0011
  957.3                1.237      0.0203     0.0015
  957.3                1.302      0.0250     0.0017
  957.3                1.371      0.0327     0.0021
  957.3                1.446      0.0361     0.0024
  957.3                1.528      0.0377     0.0025
  957.3                1.616      0.0390     0.0025
  957.3                1.713      0.0434     0.0029
  957.3                1.818      0.0469     0.0032
  957.3                1.934      0.0461     0.0032
  957.3                2.060      0.0437     0.0032
  957.3                2.200      0.0456     0.0034
  957.3                2.355      0.0445     0.0035
  957.3                2.526      0.0366     0.0033
  957.3                2.717      0.0469     0.0040
  957.3                2.930      0.0404     0.0038
  957.3                3.170      0.0417     0.0039
  957.3                3.440      0.0379     0.0040
  957.3                3.746      0.0444     0.0045
  957.3                4.095      0.0466     0.0047
  957.3                4.496      0.0483     0.0049
  957.3                4.958      0.0465     0.0048
  966.3                0.936      0.0000     0.0006
  966.3                0.978      0.0018     0.0007
  966.3                1.023      0.0070     0.0009
  966.3                1.071      0.0087     0.0009
  966.3                1.122      0.0106     0.0010
  966.3                1.178      0.0117     0.0011
  966.3                1.237      0.0122     0.0011
  966.3                1.302      0.0137     0.0011
  966.3                1.371      0.0158     0.0014
  966.3                1.446      0.0172     0.0016
  966.3                1.528      0.0151     0.0016
  966.3                1.616      0.0138     0.0016
  966.3                1.713      0.0140     0.0018
  966.3                1.818      0.0138     0.0019
  966.3                1.934      0.0151     0.0020
  966.3                2.060      0.0136     0.0020
  966.3                2.200      0.0138     0.0022
  966.3                2.355      0.0128     0.0023
  966.3                2.526      0.0101     0.0024
  966.3                2.717      0.0144     0.0028
  966.3                2.930      0.0127     0.0029
  966.3                3.170      0.0138     0.0030
  966.3                3.440      0.0160     0.0033
  966.3                3.746      0.0169     0.0037
  966.3                4.095      0.0159     0.0038
  966.3                4.496      0.0176     0.0039
  966.3                4.958      0.0224     0.0040
  992.4                1.023      0.0010     0.0009
  992.4                1.071      0.0071     0.0011
  992.4                1.122      0.0155     0.0014
  992.4                1.178      0.0194     0.0015
  992.4                1.237      0.0215     0.0016
  992.4                1.302      0.0220     0.0017
  992.4                1.371      0.0259     0.0020
  992.4                1.446      0.0235     0.0021
  992.4                1.528      0.0248     0.0023
  992.4                1.616      0.0205     0.0024
  992.4                1.713      0.0215     0.0024
  992.4                1.818      0.0130     0.0024
  992.4                1.934      0.0124     0.0025
  992.4                2.060      0.0096     0.0025
  992.4                2.200      0.0064     0.0027
  992.4                2.355      0.0097     0.0030
  992.4                2.526      0.0104     0.0031
  992.4                2.717      0.0013     0.0036
  992.4                2.930      0.0009     0.0038
  992.4                3.170      0.0079     0.0039
  992.4                3.440      0.0000     0.0042
  992.4                3.746      0.0121     0.0046
  992.4                4.095      0.0068     0.0049
  992.4                4.496      0.0048     0.0049
 1014.4     1015.3     1.023      0.0003     0.0008
 1014.4     1015.3     1.071      0.0145     0.0013
 1014.4     1015.3     1.122      0.0543     0.0031
 1014.4     1015.3     1.178      0.0935     0.0051
 1014.4     1015.3     1.237      0.1131     0.0061
 1014.4     1015.3     1.302      0.1340     0.0072
 1014.4     1015.3     1.371      0.1545     0.0083
 1014.4     1015.3     1.446      0.1594     0.0086
 1014.4     1015.3     1.528      0.1647     0.0089
 1014.4     1015.3     1.616      0.1711     0.0089
 1014.4     1015.3     1.713      0.1836     0.0100
 1014.4     1015.3     1.818      0.1832     0.0101
 1014.4     1015.3     1.934      0.1790     0.0100
 1014.4     1015.3     2.060      0.1777     0.0100
 1014.4     1015.3     2.200      0.1711     0.0098
 1014.4     1015.3     2.355      0.1714     0.0100
 1014.4     1015.3     2.526      0.1610     0.0097
 1014.4     1015.3     2.717      0.1657     0.0103
 1014.4     1015.3     2.930      0.1483     0.0090
 1014.4     1015.3     3.170      0.1567     0.0096
 1014.4     1015.3     3.440      0.1545     0.0097
 1014.4     1015.3     3.746      0.1725     0.0108
 1014.4     1015.3     4.095      0.1868     0.0118
 1014.4     1015.3     4.496      0.1795     0.0115
 1014.4     1015.3     4.958      0.1760     0.0112
 1019.3     1020.7     1.122      0.0003     0.0007
 1019.3     1020.7     1.178      0.0056     0.0011
 1019.3     1020.7     1.237      0.0128     0.0021
 1019.3     1020.7     1.302      0.0189     0.0030
 1019.3     1020.7     1.371      0.0276     0.0043
 1019.3     1020.7     1.446      0.0314     0.0049
 1019.3     1020.7     1.528      0.0355     0.0056
 1019.3     1020.7     1.616      0.0404     0.0063
 1019.3     1020.7     1.713      0.0412     0.0065
 1019.3     1020.7     1.818      0.0469     0.0074
 1019.3     1020.7     1.934      0.0429     0.0068
 1019.3     1020.7     2.060      0.0425     0.0068
 1019.3     1020.7     2.200      0.0455     0.0072
 1019.3     1020.7     2.355      0.0443     0.0071
 1019.3     1020.7     2.526      0.0411     0.0068
 1019.3     1020.7     2.717      0.0432     0.0072
 1019.3     1020.7     2.930      0.0383     0.0065
 1019.3     1020.7     3.170      0.0375     0.0065
 1019.3     1020.7     3.440      0.0440     0.0075
 1019.3     1020.7     3.746      0.0469     0.0081
 1019.3     1020.7     4.095      0.0478     0.0083
 1019.3     1020.7     4.496      0.0529     0.0090
 1019.3     1020.7     4.958      0.0542     0.0092
 1037.3                1.023      0.0011     0.0008
 1037.3                1.071      0.0097     0.0011
 1037.3                1.122      0.0176     0.0015
 1037.3                1.178      0.0246     0.0018
 1037.3                1.237      0.0289     0.0020
 1037.3                1.302      0.0280     0.0020
 1037.3                1.371      0.0295     0.0021
 1037.3                1.446      0.0314     0.0023
 1037.3                1.528      0.0257     0.0022
 1037.3                1.616      0.0214     0.0021
 1037.3                1.713      0.0197     0.0022
 1037.3                1.818      0.0154     0.0022
 1037.3                1.934      0.0084     0.0022
 1037.3                2.060      0.0084     0.0022
 1037.3                2.200      0.0070     0.0023
 1037.3                2.355      0.0036     0.0025
 1037.3                2.526      0.0025     0.0026
 1037.3                2.717      0.0000     0.0030
 1037.3                2.930      0.0059     0.0032
 1037.3                3.170      0.0000     0.0035
 1037.3                3.440      0.0056     0.0036
 1037.3                3.746      0.0074     0.0039
 1037.3                4.095      0.0074     0.0041
 1037.3                4.496      0.0095     0.0042
 1060.3     1060.7     1.023      0.0005     0.0008
 1060.3     1060.7     1.071      0.0073     0.0012
 1060.3     1060.7     1.122      0.0297     0.0032
 1060.3     1060.7     1.178      0.0609     0.0063
 1060.3     1060.7     1.237      0.0803     0.0083
 1060.3     1060.7     1.302      0.0928     0.0095
 1060.3     1060.7     1.371      0.1056     0.0109
 1060.3     1060.7     1.446      0.1117     0.0115
 1060.3     1060.7     1.528      0.1169     0.0121
 1060.3     1060.7     1.616      0.1164     0.0120
 1060.3     1060.7     1.713      0.1244     0.0129
 1060.3     1060.7     1.818      0.1310     0.0136
 1060.3     1060.7     1.934      0.1251     0.0131
 1060.3     1060.7     2.060      0.1226     0.0129
 1060.3     1060.7     2.200      0.1084     0.0116
 1060.3     1060.7     2.355      0.1040     0.0112
 1060.3     1060.7     2.526      0.1017     0.0111
 1060.3     1060.7     2.717      0.0892     0.0101
 1060.3     1060.7     2.930      0.0862     0.0098
 1060.3     1060.7     3.170      0.0908     0.0103
 1060.3     1060.7     3.440      0.0821     0.0096
 1060.3     1060.7     3.746      0.0981     0.0113
 1060.3     1060.7     4.095      0.0938     0.0110
 1060.3     1060.7     4.496      0.0860     0.0104
 1060.3     1060.7     4.958      0.0903     0.0107
 1083.8                1.122      0.0012     0.0008
 1083.8                1.178      0.0081     0.0010
 1083.8                1.237      0.0172     0.0014
 1083.8                1.302      0.0237     0.0017
 1083.8                1.371      0.0324     0.0022
 1083.8                1.446      0.0327     0.0023
 1083.8                1.528      0.0348     0.0024
 1083.8                1.616      0.0378     0.0026
 1083.8                1.713      0.0385     0.0028
 1083.8                1.818      0.0411     0.0031
 1083.8                1.934      0.0406     0.0031
 1083.8                2.060      0.0400     0.0032
 1083.8                2.200      0.0430     0.0034
 1083.8                2.355      0.0361     0.0034
 1083.8                2.526      0.0376     0.0036
 1083.8                2.717      0.0320     0.0038
 1083.8                2.930      0.0380     0.0040
 1083.8                3.170      0.0366     0.0042
 1083.8                3.440      0.0284     0.0042
 1083.8                3.746      0.0310     0.0046
 1083.8                4.095      0.0334     0.0049
 1083.8                4.496      0.0316     0.0049
 1083.8                4.958      0.0350     0.0051
 1122.8     1124.2     1.122      0.0009     0.0007
 1122.8     1124.2     1.178      0.0025     0.0014
 1122.8     1124.2     1.237      0.0032     0.0014
 1122.8     1124.2     1.302      0.0075     0.0011
 1122.8     1124.2     1.371      0.0118     0.0013
 1122.8     1124.2     1.446      0.0142     0.0015
 1122.8     1124.2     1.528      0.0159     0.0016
 1122.8     1124.2     1.616      0.0177     0.0017
 1122.8     1124.2     1.713      0.0170     0.0019
 1122.8     1124.2     1.818      0.0199     0.0021
 1122.8     1124.2     1.934      0.0216     0.0023
 1122.8     1124.2     2.060      0.0218     0.0024
 1122.8     1124.2     2.200      0.0235     0.0025
 1122.8     1124.2     2.355      0.0196     0.0025
 1122.8     1124.2     2.526      0.0220     0.0029
 1122.8     1124.2     2.717      0.0237     0.0032
 1122.8     1124.2     2.930      0.0167     0.0032
 1122.8     1124.2     3.170      0.0215     0.0035
 1122.8     1124.2     3.440      0.0130     0.0035
 1122.8     1124.2     3.746      0.0150     0.0039
 1122.8     1124.2     4.095      0.0260     0.0044
 1122.8     1124.2     4.496      0.0237     0.0044
 1122.8     1124.2     4.958      0.0200     0.0043
 1179.0                1.178      0.0014     0.0019
 1179.0                1.237      0.0038     0.0019
 1179.0                1.302      0.0123     0.0020
 1179.0                1.371      0.0205     0.0023
 1179.0                1.446      0.0240     0.0025
 1179.0                1.528      0.0293     0.0027
 1179.0                1.616      0.0280     0.0028
 1179.0                1.713      0.0289     0.0031
 1179.0                1.818      0.0311     0.0034
 1179.0                1.934      0.0273     0.0036
 1179.0                2.060      0.0260     0.0037
 1179.0                2.200      0.0228     0.0040
 1179.0                2.355      0.0194     0.0044
 1179.0                2.526      0.0167     0.0047
 1179.0                2.717      0.0189     0.0056
 1179.0                2.930      0.0127     0.0059
 1179.0                3.170      0.0143     0.0063
 1179.0                3.440      0.0137     0.0067
 1179.0                3.746      0.0169     0.0075
 1179.0                4.095      0.0156     0.0079
 1179.0                4.496      0.0094     0.0079
 1179.0                4.958      0.0147     0.0077
 1199.8                1.178      0.0002     0.0006
 1199.8                1.237      0.0013     0.0006
 1199.8                1.302      0.0055     0.0008
 1199.8                1.371      0.0108     0.0010
 1199.8                1.446      0.0136     0.0011
 1199.8                1.528      0.0138     0.0012
 1199.8                1.616      0.0125     0.0013
 1199.8                1.713      0.0120     0.0015
 1199.8                1.818      0.0126     0.0016
 1199.8                1.934      0.0094     0.0018
 1199.8                2.060      0.0072     0.0018
 1199.8                2.200      0.0092     0.0020
 1199.8                2.355      0.0053     0.0021
 1199.8                2.526      0.0097     0.0023
 1199.8                2.717      0.0097     0.0026
 1199.8                2.930      0.0053     0.0028
 1199.8                3.170      0.0063     0.0030
 1199.8                3.440      0.0040     0.0031
 1199.8                3.746      0.0045     0.0035
 1199.8                4.095      0.0018     0.0037
 1199.8                4.496      0.0049     0.0039
 1199.8                4.958      0.0037     0.0038
 1208.3                1.178      0.0005     0.0006
 1208.3                1.237      0.0044     0.0008
 1208.3                1.302      0.0091     0.0012
 1208.3                1.371      0.0149     0.0018
 1208.3                1.446      0.0210     0.0024
 1208.3                1.528      0.0250     0.0028
 1208.3                1.616      0.0261     0.0030
 1208.3                1.713      0.0253     0.0030
 1208.3                1.818      0.0258     0.0031
 1208.3                1.934      0.0228     0.0030
 1208.3                2.060      0.0232     0.0030
 1208.3                2.200      0.0189     0.0028
 1208.3                2.355      0.0174     0.0029
 1208.3                2.526      0.0143     0.0028
 1208.3                2.717      0.0196     0.0034
 1208.3                2.930      0.0124     0.0031
 1208.3                3.170      0.0140     0.0034
 1208.3                3.440      0.0158     0.0036
 1208.3                3.746      0.0187     0.0041
 1208.3                4.095      0.0095     0.0039
 1208.3                4.496      0.0158     0.0043
 1208.3                4.958      0.0120     0.0041
 1223.9                1.178      0.0004     0.0006
 1223.9                1.237      0.0044     0.0008
 1223.9                1.302      0.0105     0.0013
 1223.9                1.371      0.0203     0.0023
 1223.9                1.446      0.0255     0.0028
 1223.9                1.528      0.0276     0.0031
 1223.9                1.616      0.0318     0.0035
 1223.9                1.713      0.0303     0.0035
 1223.9                1.818      0.0327     0.0038
 1223.9                1.934      0.0327     0.0038
 1223.9                2.060      0.0292     0.0036
 1223.9                2.200      0.0259     0.0034
 1223.9                2.355      0.0242     0.0034
 1223.9                2.526      0.0251     0.0035
 1223.9                2.717      0.0261     0.0039
 1223.9                2.930      0.0150     0.0032
 1223.9                3.170      0.0191     0.0037
 1223.9                3.440      0.0175     0.0037
 1223.9                3.746      0.0184     0.0041
 1223.9                4.095      0.0211     0.0045
 1223.9                4.496      0.0169     0.0043
 1223.9                4.958      0.0151     0.0042
ENDDATA            723
ENDSUBENT          731
ENDENTRY             2
