ENTRY            10944   20140923   20150202   20150123       1403
SUBENT        10944001   20140923   20150202   20150123       1403
BIB                  9         19
TITLE      Neutron Total Cross Sections of 208Pb, 232Th, and 238U
           from 5 to 150 MeV.
AUTHOR     (R.E.Shamu,P.W.Lisowski,M.S.Moore,G.L.Morgan)
REFERENCE  (S,LBL-11118,128,198008)
INSTITUTE  (1USALAS)
FACILITY   (LINAC,1USALAS) LANL weapons neutron research facility.
DETECTOR   (SCIN) NE110 scintillator 10.2-cm diam by 15.2-cm
           thick was viewed by an RCA 8854 photomultiplier.
PART-DET   (N,P)
METHOD     (TOF,REC) Neutron flux was monitored in-beam using a
           0.3-mm-thick scintillator. Main detector was placed
           31.78 m from the source. Energy spread and room
           background were less than 2% over the energy range.
HISTORY    (19850730C)
           (20140923A) BP: Updated to new date formats,lower
           case. corrections according last EXFOR rules and
           Dict. Corrected reference number, digitized 208Pb
           curve, deleted NODATA subentries 3 and 4 on
           non-published reactions 232Th-208Pb and 238U-208Pb.
ENDBIB              19
NOCOMMON             0          0
ENDSUBENT           22
SUBENT        10944002   20140923   20150202   20150123       1403
BIB                  4          5
REACTION   (82-PB-208(N,TOT),,SIG)
SAMPLE     (82-PB-208,ENR=0.99)
ERR-ANALYS Statistical uncertainty shown in figure, but error bars
           too small to be digitized.
STATUS     (CURVE) Figure on page 128.
ENDBIB               5
NOCOMMON             0          0
DATA                 2         69
EN         DATA
MEV        B
  4.757E+00      7.523
  4.987E+00      7.443
  5.274E+00      7.269
  5.816E+00      6.765
  6.111E+00      6.472
  6.440E+00      6.255
  6.763E+00      6.018
  7.071E+00      5.819
  7.448E+00      5.651
  7.812E+00      5.521
  8.228E+00      5.360
  8.661E+00      5.261
  9.077E+00      5.213
  9.550E+00      5.158
  1.001E+01      5.096
  1.053E+01      5.079
  1.107E+01      5.062
  1.159E+01      5.094
  1.219E+01      5.120
  1.281E+01      5.184
  1.345E+01      5.273
  1.413E+01      5.381
  1.491E+01      5.451
  1.565E+01      5.578
  1.638E+01      5.660
  1.715E+01      5.737
  1.802E+01      5.794
  1.879E+01      5.833
  1.968E+01      5.847
  2.070E+01      5.829
  2.169E+01      5.774
  2.265E+01      5.726
  2.383E+01      5.646
  2.499E+01      5.559
  2.621E+01      5.442
  2.759E+01      5.312
  2.884E+01      5.150
  3.049E+01      5.014
  3.187E+01      4.821
  3.368E+01      4.723
  3.532E+01      4.618
  3.717E+01      4.519
  3.897E+01      4.439
  4.117E+01      4.359
  4.331E+01      4.316
  4.537E+01      4.311
  4.771E+01      4.313
  4.996E+01      4.339
  5.271E+01      4.391
  5.518E+01      4.448
  5.820E+01      4.525
  6.090E+01      4.614
  6.399E+01      4.690
  6.725E+01      4.741
  7.095E+01      4.787
  7.489E+01      4.794
  7.869E+01      4.865
  8.246E+01      4.822
  8.673E+01      4.805
  9.127E+01      4.731
  9.600E+01      4.695
  1.011E+02      4.577
  1.060E+02      4.466
  1.116E+02      4.330
  1.171E+02      4.193
  1.237E+02      4.070
  1.298E+02      3.946
  1.362E+02      3.791
  1.422E+02      3.686
ENDDATA             71
ENDSUBENT           81
NOSUBENT      10944003   20140923   20150202   20150123       1403
NOSUBENT      10944004   20140923   20150202   20150123       1403
ENDENTRY             4
