ENTRY            10959   19820319              20050926       0000
SUBENT        10959001   19820319              20050926       0000
BIB                 12         21
INSTITUTE  (1USAORL)
REFERENCE  (J,NSE,78,370,8108)
           (W,HARVEY,8011) TABULATED DATA
AUTHOR     (A.Z.HUSSEIN,J.A.HARVEY,N.W.HILL,J.R.PATTERSON)
TITLE      NEUTRON TOTAL CROSS SECTION AND RESONANCE PARAMETERS
            OF PA-231
FACILITY   (LINAC) OAK RIDGE ELECTRON LINEAR ACCELERATOR
SAMPLE     TWO SAMPLES OF PA(2)O(5) USED-
            -THIN SAMPLE, 3.09E-04 ATOMS/BARN, 287-MG OF PA-231
            -THICK SAMPLE, 1.01E-03 ATOMS/BARN, 211-MG OF PA-231
METHOD     (TOF) TIME OF FLIGHT WITH FLIGHT PATHS OF 17.861-METERS
            (BOTH SAMPLES) AND 79.549-METERS (THICK SAMPLE ONLY).
            SAMPLES COOLED TO LIQUID NITROGEN TEMPERATURE TO
            REDUCE DOPPLER BROADENING. FILTERS OF U, CH(2), B-10,
            PB, AND CD USED.
DETECTOR   (GLASD) LITHIUM GLASS DETECTOR, 0.5-INCH THICK
ANALYSIS   (MLA) MULTI LEVEL ANALYSIS. R-MATRIX CODE MULTI USED
ERR-ANALYS NO INFORMATION
STATUS     NO REPLY TO AUTHOR PROOF.
HISTORY    (810325C)
           (820105A) REFERENCE UPDATE.
ENDBIB              21
NOCOMMON             0          0
ENDSUBENT           24
SUBENT        10959002   19820319              20050926       0000
BIB                  2          4
REACTION  1(91-PA-231(N,0),,EN)
          2(91-PA-231(N,G),,WID)
          3(91-PA-231(N,EL),,WID,,G)
HISTORY    (820105A) DATA REPLACED
ENDBIB               4
NOCOMMON             0          0
DATA                 5        137
DATA      1DATA      2DATA-ERR  2DATA      3DATA-ERR  3
EV         MILLI-EV   MILLI-EV   MILLI-EV   PER-CENT
   0.400    48.6        2.5       0.0370     0.0006
   0.497    36.9        1.5       0.0067     0.0002
   0.744    43.1        1.7       0.0047     0.0002
   1.238    40.8        1.1       0.0151     0.0002
   1.96     40.0                  0.0054     0.0004
   2.794    40.0                  0.0081     0.0006
   3.488    34.4        1.8       0.0241     0.0006
   4.120    33.6        1.9       0.0443     0.0009
   4.354    39.9        1.2       0.0348     0.0008
   4.536    35.3        1.4       0.0126     0.0005
   5.070    40.2        0.9       0.261      0.004
   5.285    42.7        1.3       0.0572     0.0012
   5.640    40.0                  0.0316     0.0008
   5.820    40.0                  0.0322     0.0008
   6.210    40.0                  0.0195     0.0025
   6.540    40.0                  0.0265     0.0021
   6.880    38.8        1.4       0.131      0.005
   7.583    40.0                  0.055      0.003
   7.830    42.4        1.2       0.098      0.005
   8.740    40.1        1.1       0.404      0.006
   9.267    40.0                  0.0350     0.0020
   9.720    34.1        1.9       0.131      0.005
  10.34     39.2        1.1       0.441      0.008
  10.77     40.0                  0.188      0.008
  11.27     37.0        2.0       0.200      0.009
  11.68     39.0        2.0       0.372      0.009
  12.10     40.0                  0.0147     0.0020
  13.27     30.0        9.0       0.384      0.015
  13.40     48.5        5.0       0.445      0.035
  14.11     38.9        4.0       0.303      0.017
  15.06     40.0                  0.071      0.007
  15.60     40.0                  0.129      0.006
  16.04     40.0                  0.193      0.008
  16.57     40.0                  0.059      0.011
  16.67     40.0                  0.075      0.016
  17.01     40.0                  0.147      0.011
  18.33     36.6        6.0       0.73       0.04
  18.77     34.8        6.5       0.37       0.03
  19.28     40.0                  0.113      0.018
  19.53     40.0                  0.064      0.015
  20.40     40.0                  0.026      0.006
  20.67     45.6        7.0       0.548      0.013
  21.27     40.0                  0.098      0.007
  21.43     39.6        5.0       0.428      0.009
  21.64     40.0                  0.084      0.006
  22.15     49.2        8.0       0.304      0.012
  24.76     40.0                  0.183      0.014
  25.50     40.0                  0.053      0.006
  25.99     39.9        5.0       0.652      0.026
  26.85     40.0                  0.101      0.012
  27.343    35.7        6.0       0.372      0.009
  28.28     40.0                  0.151      0.012
  28.715    40.0                  0.234      0.018
  29.65     47.4        8.0       0.985      0.024
  30.17     40.0                  0.056      0.012
  31.737    44.5        8.0       1.874      0.035
  32.35     40.0                  0.033      0.007
  32.87     40.0                  0.119      0.018
  33.28     40.0                  0.071      0.016
  35.15     40.0                  0.165      0.013
  36.15     40.0                  0.212      0.017
  36.647    39.2        6.0       0.679      0.023
  36.87     40.0                  0.212      0.017
  37.542    48.5        9.0       0.633      0.019
  38.26     40.0                  0.120      0.018
  39.736    44.2        7.0       0.645      0.021
  41.27     40.0                  0.313      0.025
  42.13     39.4        6.0       0.375      0.025
  43.34     36.6        7.0       0.900      0.028
  44.54     40.0                  0.151      0.018
  44.91     40.0                  0.091      0.015
  45.63     36.5        5.5       0.644      0.022
  46.39     40.0                  0.219      0.017
  47.29     39.1        6.5       0.565      0.032
  48.45     40.0                  0.152      0.012
  50.18     40.0                  0.096      0.016
  50.90     40.0                  0.555      0.032
  51.35     40.0                  0.267      0.021
  52.00     40.0                  0.435      0.026
  52.57     41.9        6.3       1.54       0.04
  54.00     40.0                  0.60       0.04
  54.51     40.0                  0.639      0.021
  55.20     43.0        7.0       3.92       0.16
  56.05     41.1        6.2       1.08       0.04
  56.40     40.0                  0.74       0.04
  57.15     40.2        6.0       0.75       0.04
  60.15     40.0                  0.326      0.025
  61.4      39.7        6.0       1.30       0.08
  61.75     40.1        6.0       0.48       0.04
  62.35     40.0                  0.156      0.015
  63.38     40.0                  0.69       0.06
  64.40     40.0                  0.122      0.019
  65.25     40.0                  0.71       0.06
  66.43     40.0                  0.300      0.024
  67.35     40.0                  0.62       0.05
  68.21     40.0                  0.21       0.03
  69.14     40.0                  1.03       0.05
  70.07     40.0                  0.165      0.026
  70.64     40.0                  0.49       0.04
  71.33     40.0                  0.97       0.05
  72.03     40.0                  0.339      0.027
  73.90     40.0                  0.38       0.03
  74.85     40.0                  0.81       0.05
  75.83     40.0                  0.339      0.027
  76.63     40.0                  0.314      0.025
  77.83     40.0                  0.63       0.04
  78.50     40.0                  0.39       0.03
  79.10     40.0                  0.234      0.023
  80.10     41.7        8.4       0.87       0.06
  81.03     40.0                  0.326      0.026
  81.23     40.0                  0.123      0.019
  83.33     40.0        8.0       0.91       0.06
  83.63     40.0                  0.74       0.06
  84.80     40.0                  0.57       0.05
  85.63     39.8        8.0       1.00       0.07
  87.70     42.0        8.4       1.14       0.09
  89.90     39.7        8.0       0.62       0.05
  90.15     40.0                  0.35       0.04
  91.60     40.0                  0.33       0.04
  93.00     40.0                  0.20       0.03
  94.05     40.0                  0.32       0.04
  95.50     40.7        8.2       1.7        0.08
  95.77     39.5        8.0       1.47       0.12
  98.90     40.0                  0.68       0.07
 101.33     39.9        8.5       2.08       0.16
 102.85     45.4       10.0       1.91       0.15
 103.70     40.0                  0.71       0.08
 104.95     40.0                  1.08       0.09
 106.47     40.0                  1.38       0.11
 110.15     40.0                  0.93       0.09
 110.43     40.0                  1.62       0.13
 112.35     40.0                  1.19       0.09
 113.50     40.0                  0.33       0.06
 114.60     40.0                  0.34       0.05
 115.50     40.0                  1.87       0.15
 116.08     40.0                  1.60       0.13
 117.60     40.0                  0.71       0.10
ENDDATA            139
ENDSUBENT          148
ENDENTRY             2
