ENTRY            10976   20030529   20030918
SUBENT        10976001   20030529   20030918
BIB                 12         29
INSTITUTE  (1USAORL)
REFERENCE  (J,NSE,61,337,197611)
           (R,ORNL-TM-5241,197602)
AUTHOR     (G.L.Morgan,F.G.Perey)
TITLE      Cross sections for the Al(n,xn) and Al(n,x-gamma)
            reactions between 1 and 20 MeV
FACILITY   (LINAC) Oak Ridge Electron Linear Accelerator
SAMPLE     1132-grams of aluminum, better than 99% pure, shaped
            in annular ring, 25-cm outer diameter, 15-cm inner
            diameter, 1.3-cm thick.
METHOD     (TOF) Time of flight used to determine incident neutron
            energy and flux. Sample and shadow bar were removed
            for this measurement. Sample placed 37.7-meters from
            neutron source. Pulse shape discrimination used to
            separate neutron and gamma events. Background
            measurements made with sample removed.
DETECTOR   (SCIN) NE-213 scintillator with shadow bar placed on
            samples ring axis.
           Plastic scintillator placed on edge of incident neutron
            beam 30-meters from source for normalization of data.
CORRECTION Data corrected only for gamma-ray self-absorption.
ERR-ANALYS (ERR-S) Statistical errors, which include contributions
            due to background.
           Uncertainty due to overall normalization about 10%.
STATUS     (APRVD) Approved by G.L.Morgan, 1982/3/12.
HISTORY    (19810908C)
           (19830330U) Reference corrected.
           (20030529A) Reactions corrected. Converted to new date
                       formats, lower case.
ENDBIB              29
COMMON               1          3
ANG
ADEG
 127.
ENDCOMMON            3
ENDSUBENT           36
SUBENT        10976002   20030529   20030918
BIB                  1          1
REACTION   (13-AL-27(N,X)0-NN-1,,DA/DE)
ENDBIB               1
NOCOMMON             0          0
DATA                 5        542
EN-MIN     EN-MAX     E          DATA       ERR-S
MEV        MEV        MEV        MB/SR/MEV  MB/SR/MEV
  1.00       1.25       0.811     199.62     2.50
  1.00       1.25       0.907     353.25     1.11
  1.00       1.25       1.007     351.79     0.71
  1.00       1.25       1.107     223.68     0.52
  1.00       1.25       1.205     103.19     0.34
  1.00       1.25       1.310      34.05     0.21
  1.00       1.25       1.412       9.31     0.13
  1.25       1.50       0.811       7.64     2.32
  1.25       1.50       0.907      43.16     1.15
  1.25       1.50       1.007     140.37     0.98
  1.25       1.50       1.107     247.36     0.83
  1.25       1.50       1.205     266.63     0.66
  1.25       1.50       1.310     191.87     0.51
  1.25       1.50       1.412     101.38     0.38
  1.25       1.50       1.511      42.95     0.25
  1.25       1.50       1.610      14.87     0.16
  1.25       1.50       1.709       4.13     0.11
  1.50       1.75       0.811       2.84     1.97
  1.50       1.75       0.907       2.62     1.07
  1.50       1.75       1.007       9.29     1.02
  1.50       1.75       1.107      46.64     0.97
  1.50       1.75       1.205     129.22     0.86
  1.50       1.75       1.310     219.11     0.77
  1.50       1.75       1.412     237.68     0.63
  1.50       1.75       1.511     187.00     0.50
  1.50       1.75       1.610     114.36     0.38
  1.50       1.75       1.709      56.95     0.26
  1.50       1.75       1.813      22.95     0.18
  1.50       1.75       1.932       6.35     0.12
  1.50       1.75       2.100       0.48     0.08
  1.75       2.00       0.811      39.19     1.84
  1.75       2.00       0.907      27.28     1.02
  1.75       2.00       1.007      12.61     0.99
  1.75       2.00       1.107       5.83     1.01
  1.75       2.00       1.205      11.58     0.96
  1.75       2.00       1.310      42.21     0.95
  1.75       2.00       1.412     103.96     0.85
  1.75       2.00       1.511     169.74     0.74
  1.75       2.00       1.610     197.59     0.62
  1.75       2.00       1.709     173.16     0.51
  1.75       2.00       1.813     117.90     0.41
  1.75       2.00       1.932      58.19     0.30
  1.75       2.00       2.100      14.73     0.17
  1.75       2.00       2.296       1.52     0.10
  2.00       2.49       0.811      26.42     1.45
  2.00       2.49       0.907      39.75     0.81
  2.00       2.49       1.007      44.19     0.75
  2.00       2.49       1.107      39.40     0.77
  2.00       2.49       1.205      29.43     0.75
  2.00       2.49       1.310      18.90     0.77
  2.00       2.49       1.412      17.33     0.75
  2.00       2.49       1.511      33.82     0.72
  2.00       2.49       1.610      70.62     0.67
  2.00       2.49       1.709     116.28     0.62
  2.00       2.49       1.813     152.58     0.56
  2.00       2.49       1.932     160.82     0.50
  2.00       2.49       2.100     116.17     0.37
  2.00       2.49       2.296      48.22     0.24
  2.00       2.49       2.499      12.47     0.14
  2.00       2.49       2.703       2.52     0.09
  2.00       2.49       2.898       0.66     0.06
  2.49       3.00       0.811       3.38     1.75
  2.49       3.00       0.907       3.65     1.04
  2.49       3.00       1.007       3.28     0.96
  2.49       3.00       1.107       8.85     1.01
  2.49       3.00       1.205      20.06     0.96
  2.49       3.00       1.310      29.30     1.00
  2.49       3.00       1.412      34.21     1.00
  2.49       3.00       1.511      34.08     0.98
  2.49       3.00       1.610      28.54     1.00
  2.49       3.00       1.709      21.87     1.00
  2.49       3.00       1.813      21.31     1.01
  2.49       3.00       1.932      38.97     1.00
  2.49       3.00       2.100      89.24     0.91
  2.49       3.00       2.296     125.46     0.70
  2.49       3.00       2.499     102.01     0.56
  2.49       3.00       2.703      52.23     0.38
  2.49       3.00       2.898      19.05     0.25
  2.49       3.00       3.097       5.05     0.17
  2.49       3.00       3.296       1.08     0.12
  3.00       3.50       0.811      30.96     1.75
  3.00       3.50       0.907      32.06     0.98
  3.00       3.50       1.007      22.63     0.87
  3.00       3.50       1.107      11.09     0.93
  3.00       3.50       1.205       4.58     0.87
  3.00       3.50       1.310       2.50     0.91
  3.00       3.50       1.412       4.03     0.93
  3.00       3.50       1.511       8.55     0.92
  3.00       3.50       1.610      15.82     0.95
  3.00       3.50       1.709      24.54     0.95
  3.00       3.50       1.813      31.52     0.99
  3.00       3.50       1.932      33.05     1.01
  3.00       3.50       2.100      25.61     1.01
  3.00       3.50       2.296      23.30     0.88
  3.00       3.50       2.499      44.89     0.84
  3.00       3.50       2.703      69.27     0.67
  3.00       3.50       2.898      66.45     0.58
  3.00       3.50       3.097      42.32     0.44
  3.00       3.50       3.296      18.91     0.31
  3.00       3.50       3.501       5.97     0.23
  3.00       3.50       3.707       1.23     0.16
  3.50       4.00       0.811      23.08     1.69
  3.50       4.00       0.907      24.15     0.94
  3.50       4.00       1.007      24.62     0.82
  3.50       4.00       1.107      27.36     0.85
  3.50       4.00       1.205      28.39     0.77
  3.50       4.00       1.310      24.51     0.78
  3.50       4.00       1.412      17.97     0.79
  3.50       4.00       1.511      11.68     0.79
  3.50       4.00       1.610       6.89     0.82
  3.50       4.00       1.709       4.61     0.83
  3.50       4.00       1.813       4.46     0.88
  3.50       4.00       1.932       6.03     0.92
  3.50       4.00       2.100      12.88     0.95
  3.50       4.00       2.296      23.76     0.86
  3.50       4.00       2.499      23.89     0.86
  3.50       4.00       2.703      21.24     0.77
  3.50       4.00       2.898      34.01     0.74
  3.50       4.00       3.097      52.41     0.60
  3.50       4.00       3.296      53.86     0.52
  3.50       4.00       3.501      37.52     0.43
  3.50       4.00       3.707      18.74     0.32
  3.50       4.00       3.906       7.28     0.23
  3.50       4.00       4.153       1.51     0.14
  4.00       4.49       0.811      29.12     1.89
  4.00       4.49       0.907      39.13     1.02
  4.00       4.49       1.007      43.67     0.89
  4.00       4.49       1.107      40.86     0.91
  4.00       4.49       1.205      32.14     0.82
  4.00       4.49       1.310      23.52     0.81
  4.00       4.49       1.412      21.16     0.80
  4.00       4.49       1.511      22.49     0.80
  4.00       4.49       1.610      23.17     0.80
  4.00       4.49       1.709      21.08     0.80
  4.00       4.49       1.813      16.20     0.84
  4.00       4.49       1.932       9.74     0.86
  4.00       4.49       2.100       4.48     0.91
  4.00       4.49       2.296       5.76     0.86
  4.00       4.49       2.499      12.66     0.86
  4.00       4.49       2.703      20.11     0.83
  4.00       4.49       2.898      21.98     0.85
  4.00       4.49       3.097      21.74     0.88
  4.00       4.49       3.296      28.05     0.75
  4.00       4.49       3.501      38.22     0.73
  4.00       4.49       3.707      39.82     0.57
  4.00       4.49       3.906      30.44     0.47
  4.00       4.49       4.153      14.92     0.34
  4.00       4.49       4.454       3.76     0.24
  4.00       4.49       4.752       0.58     0.15
  4.49       4.99       0.811       4.64     1.78
  4.49       4.99       0.907       6.40     1.04
  4.49       4.99       1.007       8.05     0.96
  4.49       4.99       1.107      13.65     1.02
  4.49       4.99       1.205      25.49     0.94
  4.49       4.99       1.310      38.06     0.88
  4.49       4.99       1.412      42.63     0.93
  4.49       4.99       1.511      39.69     0.94
  4.49       4.99       1.610      33.34     0.85
  4.49       4.99       1.709      27.72     0.84
  4.49       4.99       1.813      25.23     0.90
  4.49       4.99       1.932      25.91     0.91
  4.49       4.99       2.100      25.46     0.87
  4.49       4.99       2.296      16.89     0.93
  4.49       4.99       2.499       6.65     0.80
  4.49       4.99       2.703       4.77     0.88
  4.49       4.99       2.898      11.44     0.91
  4.49       4.99       3.097      18.20     1.05
  4.49       4.99       3.296      18.96     0.85
  4.49       4.99       3.501      19.17     0.98
  4.49       4.99       3.707      25.76     0.75
  4.49       4.99       3.906      34.94     0.64
  4.49       4.99       4.153      37.68     0.59
  4.49       4.99       4.454      24.87     0.41
  4.49       4.99       4.752      10.48     0.28
  4.49       4.99       5.042       3.23     0.19
  4.49       4.99       5.346       0.78     0.13
  4.99       6.01       0.811      16.03     1.22
  4.99       6.01       0.907      18.88     0.69
  4.99       6.01       1.007      18.09     0.63
  4.99       6.01       1.107      13.90     0.66
  4.99       6.01       1.205      10.09     0.62
  4.99       6.01       1.310       8.07     0.59
  4.99       6.01       1.412       8.10     0.64
  4.99       6.01       1.511       9.73     0.67
  4.99       6.01       1.610      12.32     0.62
  4.99       6.01       1.709      15.37     0.63
  4.99       6.01       1.813      18.40     0.67
  4.99       6.01       1.932      20.87     0.67
  4.99       6.01       2.100      22.80     0.66
  4.99       6.01       2.296      24.17     0.69
  4.99       6.01       2.499      22.62     0.57
  4.99       6.01       2.703      17.90     0.62
  4.99       6.01       2.898      13.52     0.63
  4.99       6.01       3.097      10.97     0.73
  4.99       6.01       3.296      10.07     0.63
  4.99       6.01       3.501      10.12     0.73
  4.99       6.01       3.707      11.10     0.60
  4.99       6.01       3.906      13.53     0.55
  4.99       6.01       4.153      18.91     0.53
  4.99       6.01       4.454      25.50     0.43
  4.99       6.01       4.752      26.51     0.35
  4.99       6.01       5.042      20.90     0.30
  4.99       6.01       5.346      12.02     0.23
  4.99       6.01       5.645       5.18     0.18
  4.99       6.01       5.938       1.73     0.14
  4.99       6.01       6.254       0.43     0.10
  4.99       6.01       6.556       0.16     0.07
  6.01       7.01       0.811      14.95     1.31
  6.01       7.01       0.907      20.47     0.73
  6.01       7.01       1.007      21.78     0.65
  6.01       7.01       1.107      19.84     0.68
  6.01       7.01       1.205      17.81     0.62
  6.01       7.01       1.310      16.88     0.58
  6.01       7.01       1.412      16.67     0.61
  6.01       7.01       1.511      16.72     0.63
  6.01       7.01       1.610      16.49     0.58
  6.01       7.01       1.709      15.47     0.58
  6.01       7.01       1.813      13.44     0.64
  6.01       7.01       1.932      10.86     0.64
  6.01       7.01       2.100       8.87     0.63
  6.01       7.01       2.296       9.25     0.68
  6.01       7.01       2.499      12.80     0.55
  6.01       7.01       2.703      16.26     0.63
  6.01       7.01       2.898      17.65     0.63
  6.01       7.01       3.097      17.79     0.71
  6.01       7.01       3.296      16.50     0.57
  6.01       7.01       3.501      13.64     0.68
  6.01       7.01       3.707      10.34     0.58
  6.01       7.01       3.906       8.31     0.52
  6.01       7.01       4.153       7.78     0.53
  6.01       7.01       4.454       8.51     0.46
  6.01       7.01       4.752      10.57     0.43
  6.01       7.01       5.042      14.12     0.42
  6.01       7.01       5.346      17.02     0.38
  6.01       7.01       5.645      16.31     0.34
  6.01       7.01       5.938      12.41     0.29
  6.01       7.01       6.254       7.35     0.26
  6.01       7.01       6.556       3.65     0.22
  6.01       7.01       6.839       1.58     0.16
  6.01       7.01       7.235       0.37     0.10
  7.01       8.02       0.811      14.97     1.33
  7.01       8.02       0.907      15.47     0.73
  7.01       8.02       1.007      15.27     0.69
  7.01       8.02       1.107      15.69     0.69
  7.01       8.02       1.205      17.70     0.64
  7.01       8.02       1.310      19.50     0.60
  7.01       8.02       1.412      19.03     0.63
  7.01       8.02       1.511      17.34     0.63
  7.01       8.02       1.610      15.76     0.58
  7.01       8.02       1.709      14.83     0.57
  7.01       8.02       1.813      14.56     0.61
  7.01       8.02       1.932      14.65     0.62
  7.01       8.02       2.100      14.04     0.60
  7.01       8.02       2.296      11.61     0.63
  7.01       8.02       2.499       9.52     0.52
  7.01       8.02       2.703       8.32     0.57
  7.01       8.02       2.898       6.99     0.59
  7.01       8.02       3.097       6.13     0.65
  7.01       8.02       3.296       7.14     0.56
  7.01       8.02       3.501       9.50     0.64
  7.01       8.02       3.707      12.04     0.57
  7.01       8.02       3.906      13.44     0.51
  7.01       8.02       4.153      12.41     0.53
  7.01       8.02       4.454       9.14     0.44
  7.01       8.02       4.752       6.50     0.43
  7.01       8.02       5.042       5.45     0.44
  7.01       8.02       5.346       5.79     0.44
  7.01       8.02       5.645       7.49     0.43
  7.01       8.02       5.938      10.23     0.38
  7.01       8.02       6.254      12.41     0.46
  7.01       8.02       6.556      11.88     0.39
  7.01       8.02       6.839       9.27     0.25
  7.01       8.02       7.235       4.74     0.19
  7.01       8.02       7.736       1.15     0.14
  7.01       8.02       8.236       0.10     0.09
  7.01       8.02       8.758       0.08     0.06
  8.02       9.00       0.811      11.61     1.38
  8.02       9.00       0.907      12.54     0.83
  8.02       9.00       1.007      13.80     0.73
  8.02       9.00       1.107      15.41     0.73
  8.02       9.00       1.205      15.95     0.67
  8.02       9.00       1.310      15.70     0.64
  8.02       9.00       1.412      15.14     0.67
  8.02       9.00       1.511      14.91     0.67
  8.02       9.00       1.610      14.78     0.63
  8.02       9.00       1.709      14.04     0.62
  8.02       9.00       1.813      13.05     0.66
  8.02       9.00       1.932      12.56     0.66
  8.02       9.00       2.100      12.66     0.64
  8.02       9.00       2.296      13.40     0.65
  8.02       9.00       2.499      13.24     0.54
  8.02       9.00       2.703      11.80     0.61
  8.02       9.00       2.898      10.83     0.65
  8.02       9.00       3.097       9.44     0.65
  8.02       9.00       3.296       7.78     0.58
  8.02       9.00       3.501       6.39     0.66
  8.02       9.00       3.707       5.18     0.58
  8.02       9.00       3.906       4.53     0.51
  8.02       9.00       4.153       4.99     0.53
  8.02       9.00       4.454       6.56     0.48
  8.02       9.00       4.752       8.09     0.49
  8.02       9.00       5.042       7.91     0.46
  8.02       9.00       5.346       6.20     0.45
  8.02       9.00       5.645       4.66     0.50
  8.02       9.00       5.938       3.85     0.45
  8.02       9.00       6.254       3.96     0.54
  8.02       9.00       6.556       5.52     0.47
  8.02       9.00       6.839       8.01     0.38
  8.02       9.00       7.235      10.35     0.35
  8.02       9.00       7.736       8.16     0.27
  8.02       9.00       8.236       3.80     0.22
  8.02       9.00       8.758       1.00     0.14
  8.02       9.00       9.261       0.14     0.09
  8.02       9.00       9.741       0.03     0.06
  9.00      10.03       0.811      13.31     1.40
  9.00      10.03       0.907      13.14     0.85
  9.00      10.03       1.007      12.86     0.74
  9.00      10.03       1.107      13.21     0.77
  9.00      10.03       1.205      13.25     0.72
  9.00      10.03       1.310      13.10     0.67
  9.00      10.03       1.412      13.24     0.68
  9.00      10.03       1.511      13.22     0.68
  9.00      10.03       1.610      12.69     0.64
  9.00      10.03       1.709      11.92     0.63
  9.00      10.03       1.813      11.32     0.67
  9.00      10.03       1.932      11.10     0.66
  9.00      10.03       2.100      11.01     0.64
  9.00      10.03       2.296      11.19     0.65
  9.00      10.03       2.499      11.49     0.56
  9.00      10.03       2.703      10.46     0.63
  9.00      10.03       2.898       9.22     0.65
  9.00      10.03       3.097       8.63     0.67
  9.00      10.03       3.296       8.20     0.57
  9.00      10.03       3.501       7.52     0.65
  9.00      10.03       3.707       6.89     0.57
  9.00      10.03       3.906       6.47     0.49
  9.00      10.03       4.153       5.51     0.53
  9.00      10.03       4.454       4.00     0.48
  9.00      10.03       4.752       3.94     0.49
  9.00      10.03       5.042       4.69     0.45
  9.00      10.03       5.346       5.40     0.46
  9.00      10.03       5.645       5.74     0.51
  9.00      10.03       5.938       5.69     0.48
  9.00      10.03       6.254       5.01     0.56
  9.00      10.03       6.556       4.01     0.49
  9.00      10.03       6.839       3.60     0.41
  9.00      10.03       7.235       4.81     0.45
  9.00      10.03       7.736       7.97     0.47
  9.00      10.03       8.236       9.03     0.37
  9.00      10.03       8.758       6.33     0.26
  9.00      10.03       9.261       2.84     0.21
  9.00      10.03       9.741       0.83     0.16
  9.00      10.03      10.259       0.12     0.11
  9.00      10.03      10.777       0.05     0.07
 10.03      12.49       0.811       9.95     1.17
 10.03      12.49       0.907      12.33     1.00
 10.03      12.49       1.007      12.07     0.66
 10.03      12.49       1.107      11.18     1.06
 10.03      12.49       1.205      10.49     0.70
 10.03      12.49       1.310      10.86     0.57
 10.03      12.49       1.412      11.87     0.57
 10.03      12.49       1.511      12.26     0.62
 10.03      12.49       1.610      11.66     0.51
 10.03      12.49       1.709      10.69     0.46
 10.03      12.49       1.813      10.24     0.50
 10.03      12.49       1.932      10.39     0.48
 10.03      12.49       2.100      10.32     0.50
 10.03      12.49       2.296       9.67     0.49
 10.03      12.49       2.499       9.64     0.41
 10.03      12.49       2.703       9.53     0.47
 10.03      12.49       2.898       8.94     0.49
 10.03      12.49       3.097       8.36     0.51
 10.03      12.49       3.296       7.68     0.42
 10.03      12.49       3.501       7.23     0.50
 10.03      12.49       3.707       6.90     0.42
 10.03      12.49       3.906       6.35     0.37
 10.03      12.49       4.153       5.59     0.39
 10.03      12.49       4.454       5.06     0.34
 10.03      12.49       4.752       5.11     0.34
 10.03      12.49       5.042       4.95     0.34
 10.03      12.49       5.346       4.22     0.32
 10.03      12.49       5.645       3.47     0.36
 10.03      12.49       5.938       3.34     0.36
 10.03      12.49       6.254       3.48     0.41
 10.03      12.49       6.556       3.45     0.36
 10.03      12.49       6.839       3.49     0.32
 10.03      12.49       7.235       3.59     0.33
 10.03      12.49       7.736       3.52     0.37
 10.03      12.49       8.236       3.70     0.37
 10.03      12.49       8.758       5.00     0.29
 10.03      12.49       9.261       6.64     0.28
 10.03      12.49       9.741       6.71     0.25
 10.03      12.49      10.259       5.14     0.21
 10.03      12.49      10.777       3.19     0.17
 10.03      12.49      11.247       1.78     0.14
 10.03      12.49      11.751       0.80     0.11
 10.03      12.49      12.393       0.19     0.07
 12.49      14.98       0.811       7.56     1.61
 12.49      14.98       0.907      10.80     1.13
 12.49      14.98       1.007      10.42     0.89
 12.49      14.98       1.107       8.82     1.22
 12.49      14.98       1.205       9.41     1.10
 12.49      14.98       1.310      10.59     0.97
 12.49      14.98       1.412      10.89     1.06
 12.49      14.98       1.511      10.87     0.99
 12.49      14.98       1.610      10.62     0.90
 12.49      14.98       1.709       9.79     0.74
 12.49      14.98       1.813       8.93     0.64
 12.49      14.98       1.932       8.70     0.64
 12.49      14.98       2.100       9.26     0.62
 12.49      14.98       2.296       9.53     0.62
 12.49      14.98       2.499       9.23     0.53
 12.49      14.98       2.703       8.21     0.53
 12.49      14.98       2.898       7.21     0.55
 12.49      14.98       3.097       6.73     0.58
 12.49      14.98       3.296       6.25     0.48
 12.49      14.98       3.501       6.06     0.59
 12.49      14.98       3.707       6.23     0.49
 12.49      14.98       3.906       6.14     0.43
 12.49      14.98       4.153       5.44     0.45
 12.49      14.98       4.454       4.92     0.39
 12.49      14.98       4.752       5.08     0.39
 12.49      14.98       5.042       4.75     0.39
 12.49      14.98       5.346       4.03     0.36
 12.49      14.98       5.645       3.52     0.39
 12.49      14.98       5.938       3.13     0.40
 12.49      14.98       6.254       2.85     0.43
 12.49      14.98       6.556       2.76     0.39
 12.49      14.98       6.839       2.70     0.36
 12.49      14.98       7.235       2.50     0.38
 12.49      14.98       7.736       1.91     0.41
 12.49      14.98       8.236       1.66     0.43
 12.49      14.98       8.758       2.04     0.37
 12.49      14.98       9.261       1.93     0.35
 12.49      14.98       9.741       1.81     0.39
 12.49      14.98      10.259       2.54     0.36
 12.49      14.98      10.777       4.10     0.35
 12.49      14.98      11.247       5.20     0.34
 12.49      14.98      11.751       5.24     0.30
 12.49      14.98      12.393       3.85     0.27
 12.49      14.98      13.201       1.72     0.18
 12.49      14.98      14.021       0.52     0.13
 12.49      14.98      14.792       0.12     0.11
 14.98      17.42       0.811      13.03     1.97
 14.98      17.42       0.907      13.74     1.23
 14.98      17.42       1.007      13.32     1.06
 14.98      17.42       1.107      12.68     1.34
 14.98      17.42       1.205      12.33     1.21
 14.98      17.42       1.310      11.52     1.19
 14.98      17.42       1.412      10.92     1.22
 14.98      17.42       1.511      10.83     1.10
 14.98      17.42       1.610      10.93     1.07
 14.98      17.42       1.709      10.79     0.95
 14.98      17.42       1.813      10.76     0.92
 14.98      17.42       1.932      10.22     0.83
 14.98      17.42       2.100       8.76     0.75
 14.98      17.42       2.296       7.74     0.75
 14.98      17.42       2.499       7.19     0.66
 14.98      17.42       2.703       6.51     0.66
 14.98      17.42       2.898       6.40     0.68
 14.98      17.42       3.097       6.74     0.67
 14.98      17.42       3.296       6.28     0.59
 14.98      17.42       3.501       5.43     0.68
 14.98      17.42       3.707       4.91     0.57
 14.98      17.42       3.906       4.95     0.50
 14.98      17.42       4.153       5.05     0.52
 14.98      17.42       4.454       4.57     0.45
 14.98      17.42       4.752       4.45     0.43
 14.98      17.42       5.042       4.35     0.44
 14.98      17.42       5.346       3.72     0.41
 14.98      17.42       5.645       3.05     0.45
 14.98      17.42       5.938       2.68     0.47
 14.98      17.42       6.254       2.55     0.48
 14.98      17.42       6.556       2.44     0.43
 14.98      17.42       6.839       2.31     0.39
 14.98      17.42       7.235       2.45     0.46
 14.98      17.42       7.736       2.68     0.45
 14.98      17.42       8.236       2.09     0.45
 14.98      17.42       8.758       1.35     0.40
 14.98      17.42       9.261       1.09     0.38
 14.98      17.42       9.741       1.34     0.43
 14.98      17.42      10.259       1.52     0.41
 14.98      17.42      10.777       1.26     0.41
 14.98      17.42      11.247       1.10     0.43
 14.98      17.42      11.751       1.44     0.43
 14.98      17.42      12.393       2.15     0.42
 14.98      17.42      13.201       2.62     0.39
 14.98      17.42      14.021       2.70     0.40
 14.98      17.42      14.792       2.06     0.32
 14.98      17.42      15.629       0.98     0.24
 14.98      17.42      16.539       0.19     0.21
 17.42      20.09       0.811      13.73     2.35
 17.42      20.09       0.907      17.46     1.41
 17.42      20.09       1.007      16.87     1.19
 17.42      20.09       1.107      14.78     1.50
 17.42      20.09       1.205      12.81     1.36
 17.42      20.09       1.310      11.84     1.31
 17.42      20.09       1.412      12.67     1.32
 17.42      20.09       1.511      13.69     1.24
 17.42      20.09       1.610      13.31     1.23
 17.42      20.09       1.709      12.41     1.21
 17.42      20.09       1.813      12.20     1.14
 17.42      20.09       1.932      12.64     1.10
 17.42      20.09       2.100      11.98     1.12
 17.42      20.09       2.296       9.99     1.04
 17.42      20.09       2.499       9.39     0.90
 17.42      20.09       2.703       8.41     0.85
 17.42      20.09       2.898       7.25     0.87
 17.42      20.09       3.097       7.01     0.85
 17.42      20.09       3.296       6.81     0.81
 17.42      20.09       3.501       6.44     0.81
 17.42      20.09       3.707       5.60     0.72
 17.42      20.09       3.906       4.43     0.68
 17.42      20.09       4.153       3.81     0.66
 17.42      20.09       4.454       4.30     0.56
 17.42      20.09       4.752       4.18     0.53
 17.42      20.09       5.042       3.54     0.51
 17.42      20.09       5.346       3.45     0.48
 17.42      20.09       5.645       3.86     0.52
 17.42      20.09       5.938       3.81     0.54
 17.42      20.09       6.254       2.99     0.54
 17.42      20.09       6.556       2.23     0.47
 17.42      20.09       6.839       2.00     0.44
 17.42      20.09       7.235       2.07     0.52
 17.42      20.09       7.736       2.39     0.50
 17.42      20.09       8.236       2.42     0.48
 17.42      20.09       8.758       1.85     0.45
 17.42      20.09       9.261       1.41     0.43
 17.42      20.09       9.741       1.25     0.45
 17.42      20.09      10.259       1.20     0.44
 17.42      20.09      10.777       1.03     0.45
 17.42      20.09      11.247       0.74     0.46
 17.42      20.09      11.751       0.58     0.45
 17.42      20.09      12.393       0.69     0.47
 17.42      20.09      13.201       0.60     0.47
 17.42      20.09      14.021       0.68     0.47
 17.42      20.09      14.792       1.51     0.47
 17.42      20.09      15.629       2.28     0.50
 17.42      20.09      16.539       2.08     0.43
 17.42      20.09      17.533       1.14     0.32
 17.42      20.09      18.521       0.39     0.29
 17.42      20.09      19.498       0.04     0.21
ENDDATA            544
ENDSUBENT          550
SUBENT        10976003   20030529   20030918
BIB                  2          3
REACTION   (13-AL-27(N,X)0-G-0,,DA/DE)
CORRECTION Corrections made for self-absorption of gammas in
            sample.
ENDBIB               3
NOCOMMON             0          0
DATA                 5       1009
EN-MIN     EN-MAX     E          DATA       ERR-S
MEV        MEV        MEV        MB/SR/MEV  MB/SR/MEV
  1.00       1.25      0.760      14.42      1.91
  1.00       1.25      0.800      21.88      0.74
  1.00       1.25      0.840      25.56      0.51
  1.00       1.25      0.880      26.05      0.45
  1.00       1.25      0.920      25.86      0.41
  1.00       1.25      0.960      25.55      0.38
  1.00       1.25      1.000      23.81      0.34
  1.00       1.25      1.040      19.94      0.29
  1.00       1.25      1.080      14.73      0.24
  1.00       1.25      1.125       9.10      0.19
  1.00       1.25      1.175       4.56      0.12
  1.00       1.25      1.225       2.00      0.09
  1.00       1.25      1.275       0.78      0.07
  1.00       1.25      1.325       0.27      0.05
  1.25       1.50      0.760      23.05      2.73
  1.25       1.50      0.800      32.19      1.02
  1.25       1.50      0.840      36.85      0.65
  1.25       1.50      0.880      38.15      0.57
  1.25       1.50      0.920      39.41      0.53
  1.25       1.50      0.960      40.60      0.49
  1.25       1.50      1.000      39.08      0.44
  1.25       1.50      1.040      33.50      0.40
  1.25       1.50      1.080      25.21      0.32
  1.25       1.50      1.125      15.83      0.24
  1.25       1.50      1.175       8.05      0.17
  1.25       1.50      1.225       3.54      0.12
  1.25       1.50      1.275       1.37      0.08
  1.25       1.50      1.325       0.46      0.06
  1.25       1.50      1.375       0.13      0.06
  1.25       1.50      1.425       0.02      0.05
  1.25       1.50      1.475      -0.01      0.05
  1.25       1.50      1.525      -0.03      0.04
  1.25       1.50      1.575      -0.04      0.04
  1.25       1.50      1.640      -0.04      0.03
  1.50       1.75      0.760      29.53      3.56
  1.50       1.75      0.800      42.13      1.29
  1.50       1.75      0.840      48.90      0.78
  1.50       1.75      0.880      51.84      0.68
  1.50       1.75      0.920      55.88      0.66
  1.50       1.75      0.960      60.11      0.62
  1.50       1.75      1.000      59.50      0.57
  1.50       1.75      1.040      51.69      0.51
  1.50       1.75      1.080      39.08      0.42
  1.50       1.75      1.125      24.44      0.32
  1.50       1.75      1.175      12.26      0.22
  1.50       1.75      1.225       5.30      0.15
  1.50       1.75      1.275       2.09      0.11
  1.50       1.75      1.325       0.87      0.09
  1.50       1.75      1.375       0.46      0.07
  1.50       1.75      1.425       0.31      0.06
  1.50       1.75      1.475       0.22      0.06
  1.50       1.75      1.525       0.13      0.05
  1.50       1.75      1.575       0.07      0.05
  1.50       1.75      1.640       0.02      0.04
  1.50       1.75      1.720       0.00      0.03
  1.50       1.75      1.800      -0.00      0.03
  1.50       1.75      1.880      -0.02      0.03
  1.75       2.00      0.760      19.79      3.28
  1.75       2.00      0.800      29.77      1.24
  1.75       2.00      0.840      36.19      0.79
  1.75       2.00      0.880      42.18      0.71
  1.75       2.00      0.920      50.88      0.70
  1.75       2.00      0.960      58.95      0.67
  1.75       2.00      1.000      60.34      0.62
  1.75       2.00      1.040      53.05      0.55
  1.75       2.00      1.080      40.34      0.47
  1.75       2.00      1.125      25.48      0.35
  1.75       2.00      1.175      13.16      0.25
  1.75       2.00      1.225       6.05      0.17
  1.75       2.00      1.275       2.56      0.13
  1.75       2.00      1.325       1.03      0.10
  1.75       2.00      1.375       0.39      0.09
  1.75       2.00      1.425       0.14      0.08
  1.75       2.00      1.475       0.05      0.07
  1.75       2.00      1.525       0.03      0.06
  1.75       2.00      1.575       0.03      0.06
  1.75       2.00      1.640       0.03      0.05
  1.75       2.00      1.720       0.00      0.04
  1.75       2.00      1.800      -0.01      0.03
  1.75       2.00      1.880      -0.01      0.03
  1.75       2.00      1.960       0.00      0.03
  1.75       2.00      2.040       0.02      0.03
  1.75       2.00      2.120       0.04      0.03
  2.00       2.49      0.760      23.22      3.60
  2.00       2.49      0.800      36.06      1.29
  2.00       2.49      0.840      44.26      0.76
  2.00       2.49      0.880      50.66      0.67
  2.00       2.49      0.920      59.31      0.66
  2.00       2.49      0.960      67.77      0.63
  2.00       2.49      1.000      69.47      0.60
  2.00       2.49      1.040      61.55      0.54
  2.00       2.49      1.080      47.18      0.44
  2.00       2.49      1.125      30.14      0.35
  2.00       2.49      1.175      15.84      0.26
  2.00       2.49      1.225       7.38      0.21
  2.00       2.49      1.275       3.13      0.17
  2.00       2.49      1.325       1.35      0.16
  2.00       2.49      1.375       0.78      0.16
  2.00       2.49      1.425       0.64      0.16
  2.00       2.49      1.475       0.53      0.16
  2.00       2.49      1.525       0.34      0.15
  2.00       2.49      1.575       0.13      0.15
  2.00       2.49      1.640      -0.03      0.14
  2.00       2.49      1.720       0.00      0.15
  2.00       2.49      1.800       0.13      0.15
  2.00       2.49      1.880       0.31      0.15
  2.00       2.49      1.960       0.87      0.16
  2.00       2.49      2.040       1.96      0.16
  2.00       2.49      2.120       3.11      0.15
  2.00       2.49      2.200       3.60      0.15
  2.00       2.49      2.280       3.21      0.12
  2.00       2.49      2.360       2.29      0.10
  2.00       2.49      2.450       1.26      0.07
  2.00       2.49      2.550       0.53      0.05
  2.00       2.49      2.650       0.21      0.04
  2.49       3.00      0.760      27.26      4.83
  2.49       3.00      0.800      38.09      1.82
  2.49       3.00      0.840      45.63      1.16
  2.49       3.00      0.880      52.39      1.05
  2.49       3.00      0.920      61.20      1.05
  2.49       3.00      0.960      69.80      1.01
  2.49       3.00      1.000      72.01      0.97
  2.49       3.00      1.040      64.35      0.90
  2.49       3.00      1.080      49.52      0.81
  2.49       3.00      1.125      31.39      0.69
  2.49       3.00      1.175      15.99      0.58
  2.49       3.00      1.225       6.95      0.55
  2.49       3.00      1.275       2.69      0.51
  2.49       3.00      1.325       1.61      0.50
  2.49       3.00      1.375       2.02      0.51
  2.49       3.00      1.425       2.48      0.52
  2.49       3.00      1.475       2.37      0.54
  2.49       3.00      1.525       2.08      0.52
  2.49       3.00      1.575       1.99      0.51
  2.49       3.00      1.640       2.13      0.51
  2.49       3.00      1.720       1.75      0.53
  2.49       3.00      1.800       1.15      0.53
  2.49       3.00      1.880       2.26      0.55
  2.49       3.00      1.960       6.87      0.60
  2.49       3.00      2.040      14.74      0.58
  2.49       3.00      2.120      22.55      0.59
  2.49       3.00      2.200      25.79      0.53
  2.49       3.00      2.280      22.89      0.46
  2.49       3.00      2.360      16.23      0.39
  2.49       3.00      2.450       8.73      0.27
  2.49       3.00      2.550       3.50      0.18
  2.49       3.00      2.650       1.30      0.11
  2.49       3.00      2.750       0.60      0.08
  2.49       3.00      2.850       0.36      0.06
  2.49       3.00      2.950       0.23      0.04
  2.49       3.00      3.050       0.12      0.04
  2.49       3.00      3.150       0.04      0.03
  2.49       3.00      3.250       0.00      0.02
  3.00       3.50      0.760      29.70      6.38
  3.00       3.50      0.800      43.90      2.37
  3.00       3.50      0.840      53.12      1.49
  3.00       3.50      0.880      61.70      1.35
  3.00       3.50      0.920      73.76      1.35
  3.00       3.50      0.960      85.51      1.33
  3.00       3.50      1.000      88.56      1.28
  3.00       3.50      1.040      79.01      1.20
  3.00       3.50      1.080      61.04      1.12
  3.00       3.50      1.125      39.65      1.00
  3.00       3.50      1.175      21.59      0.89
  3.00       3.50      1.225      10.57      0.89
  3.00       3.50      1.275       4.90      0.88
  3.00       3.50      1.325       3.15      0.85
  3.00       3.50      1.375       3.34      0.84
  3.00       3.50      1.425       4.11      0.88
  3.00       3.50      1.475       5.36      0.90
  3.00       3.50      1.525       7.85      0.87
  3.00       3.50      1.575      11.40      0.85
  3.00       3.50      1.640      15.45      0.86
  3.00       3.50      1.720      16.04      0.87
  3.00       3.50      1.800      13.10      0.87
  3.00       3.50      1.880      11.44      0.86
  3.00       3.50      1.960      15.00      0.90
  3.00       3.50      2.040      25.16      0.88
  3.00       3.50      2.120      37.47      0.89
  3.00       3.50      2.200      43.20      0.87
  3.00       3.50      2.280      38.06      0.80
  3.00       3.50      2.360      26.24      0.70
  3.00       3.50      2.450      13.89      0.57
  3.00       3.50      2.550       6.79      0.48
  3.00       3.50      2.650       5.10      0.43
  3.00       3.50      2.750       5.91      0.38
  3.00       3.50      2.850       7.45      0.35
  3.00       3.50      2.950       8.24      0.31
  3.00       3.50      3.050       7.49      0.27
  3.00       3.50      3.150       5.56      0.21
  3.00       3.50      3.250       3.46      0.16
  3.00       3.50      3.350       1.83      0.12
  3.00       3.50      3.450       0.85      0.09
  3.00       3.50      3.550       0.37      0.06
  3.00       3.50      3.665       0.16      0.05
  3.00       3.50      3.795       0.10      0.04
  3.50       4.00      0.760      34.73      6.31
  3.50       4.00      0.800      44.31      2.34
  3.50       4.00      0.840      49.42      1.47
  3.50       4.00      0.880      53.88      1.33
  3.50       4.00      0.920      62.45      1.33
  3.50       4.00      0.960      71.99      1.31
  3.50       4.00      1.000      74.75      1.27
  3.50       4.00      1.040      67.16      1.21
  3.50       4.00      1.080      52.65      1.14
  3.50       4.00      1.125      34.91      1.05
  3.50       4.00      1.175      19.12      0.97
  3.50       4.00      1.225       9.23      0.97
  3.50       4.00      1.275       4.54      0.97
  3.50       4.00      1.325       3.41      0.93
  3.50       4.00      1.375       3.80      0.93
  3.50       4.00      1.425       4.85      0.96
  3.50       4.00      1.475       6.47      0.99
  3.50       4.00      1.525       8.94      0.96
  3.50       4.00      1.575      12.34      0.94
  3.50       4.00      1.640      17.20      0.95
  3.50       4.00      1.720      19.56      0.96
  3.50       4.00      1.800      15.91      0.96
  3.50       4.00      1.880      11.69      0.94
  3.50       4.00      1.960      13.09      1.00
  3.50       4.00      2.040      21.71      0.96
  3.50       4.00      2.120      33.41      0.97
  3.50       4.00      2.200      39.84      0.95
  3.50       4.00      2.280      35.88      0.92
  3.50       4.00      2.360      25.07      0.84
  3.50       4.00      2.450      13.89      0.75
  3.50       4.00      2.550       8.67      0.67
  3.50       4.00      2.650       9.92      0.65
  3.50       4.00      2.750      14.85      0.60
  3.50       4.00      2.850      20.52      0.58
  3.50       4.00      2.950      23.28      0.54
  3.50       4.00      3.050      21.27      0.46
  3.50       4.00      3.150      15.92      0.38
  3.50       4.00      3.250       9.95      0.30
  3.50       4.00      3.350       5.33      0.21
  3.50       4.00      3.450       2.49      0.16
  3.50       4.00      3.550       1.05      0.12
  3.50       4.00      3.665       0.36      0.09
  3.50       4.00      3.795       0.12      0.07
  3.50       4.00      3.925       0.05      0.05
  3.50       4.00      4.055       0.03      0.04
  3.50       4.00      4.185       0.00      0.03
  3.50       4.00      4.315      -0.01      0.03
  4.00       4.49      0.760      42.48      7.07
  4.00       4.49      0.800      49.86      2.63
  4.00       4.49      0.840      54.66      1.65
  4.00       4.49      0.880      60.20      1.49
  4.00       4.49      0.920      71.62      1.50
  4.00       4.49      0.960      84.23      1.48
  4.00       4.49      1.000      87.69      1.42
  4.00       4.49      1.040      77.85      1.35
  4.00       4.49      1.080      59.86      1.28
  4.00       4.49      1.125      38.90      1.16
  4.00       4.49      1.175      21.09      1.06
  4.00       4.49      1.225       9.86      1.08
  4.00       4.49      1.275       4.11      1.06
  4.00       4.49      1.325       2.82      1.02
  4.00       4.49      1.375       3.91      1.02
  4.00       4.49      1.425       5.39      1.06
  4.00       4.49      1.475       6.38      1.09
  4.00       4.49      1.525       7.65      1.06
  4.00       4.49      1.575      10.17      1.03
  4.00       4.49      1.640      15.37      1.05
  4.00       4.49      1.720      20.32      1.07
  4.00       4.49      1.800      18.25      1.09
  4.00       4.49      1.880      11.93      1.06
  4.00       4.49      1.960      11.26      1.09
  4.00       4.49      2.040      20.67      1.07
  4.00       4.49      2.120      33.27      1.08
  4.00       4.49      2.200      39.15      1.07
  4.00       4.49      2.280      35.17      1.02
  4.00       4.49      2.360      25.28      0.96
  4.00       4.49      2.450      14.34      0.88
  4.00       4.49      2.550       8.68      0.79
  4.00       4.49      2.650      11.15      0.79
  4.00       4.49      2.750      18.74      0.77
  4.00       4.49      2.850      26.45      0.76
  4.00       4.49      2.950      29.63      0.75
  4.00       4.49      3.050      26.69      0.65
  4.00       4.49      3.150      19.87      0.55
  4.00       4.49      3.250      12.61      0.46
  4.00       4.49      3.350       7.12      0.36
  4.00       4.49      3.450       3.74      0.29
  4.00       4.49      3.550       1.94      0.24
  4.00       4.49      3.665       1.03      0.20
  4.00       4.49      3.795       0.73      0.17
  4.00       4.49      3.925       0.66      0.15
  4.00       4.49      4.055       0.56      0.12
  4.00       4.49      4.185       0.40      0.10
  4.00       4.49      4.315       0.22      0.09
  4.00       4.49      4.445       0.09      0.07
  4.00       4.49      4.575       0.01      0.05
  4.00       4.49      4.705      -0.01      0.05
  4.00       4.49      4.835      -0.01      0.04
  4.49       4.99      0.760      33.71      7.48
  4.49       4.99      0.800      49.95      2.80
  4.49       4.99      0.840      58.61      1.78
  4.49       4.99      0.880      65.19      1.62
  4.49       4.99      0.920      75.98      1.62
  4.49       4.99      0.960      87.30      1.60
  4.49       4.99      1.000      89.66      1.54
  4.49       4.99      1.040      78.92      1.46
  4.49       4.99      1.080      60.28      1.39
  4.49       4.99      1.125      39.52      1.27
  4.49       4.99      1.175      23.02      1.19
  4.49       4.99      1.225      12.67      1.20
  4.49       4.99      1.275       6.30      1.19
  4.49       4.99      1.325       3.75      1.14
  4.49       4.99      1.375       3.95      1.14
  4.49       4.99      1.425       5.12      1.19
  4.49       4.99      1.475       6.22      1.22
  4.49       4.99      1.525       7.95      1.18
  4.49       4.99      1.575      11.03      1.15
  4.49       4.99      1.640      16.43      1.16
  4.49       4.99      1.720      20.46      1.19
  4.49       4.99      1.800      18.10      1.20
  4.49       4.99      1.880      13.19      1.18
  4.49       4.99      1.960      14.00      1.23
  4.49       4.99      2.040      24.31      1.20
  4.49       4.99      2.120      37.83      1.21
  4.49       4.99      2.200      43.82      1.19
  4.49       4.99      2.280      38.56      1.15
  4.49       4.99      2.360      27.42      1.07
  4.49       4.99      2.450      16.38      0.98
  4.49       4.99      2.550      10.41      0.90
  4.49       4.99      2.650      11.23      0.89
  4.49       4.99      2.750      18.20      0.89
  4.49       4.99      2.850      27.80      0.87
  4.49       4.99      2.950      33.15      0.87
  4.49       4.99      3.050      30.47      0.80
  4.49       4.99      3.150      22.30      0.71
  4.49       4.99      3.250      13.89      0.61
  4.49       4.99      3.350       8.13      0.52
  4.49       4.99      3.450       4.90      0.45
  4.49       4.99      3.550       3.09      0.40
  4.49       4.99      3.665       1.97      0.37
  4.49       4.99      3.795       1.67      0.35
  4.49       4.99      3.925       2.08      0.33
  4.49       4.99      4.055       2.53      0.30
  4.49       4.99      4.185       2.54      0.25
  4.49       4.99      4.315       2.12      0.22
  4.49       4.99      4.445       1.51      0.20
  4.49       4.99      4.575       0.95      0.16
  4.49       4.99      4.705       0.53      0.11
  4.49       4.99      4.835       0.26      0.08
  4.49       4.99      4.985       0.11      0.06
  4.49       4.99      5.155       0.02      0.05
  4.49       4.99      5.325      -0.00      0.04
  4.99       6.01      0.760      32.70      7.15
  4.99       6.01      0.800      47.03      2.52
  4.99       6.01      0.840      56.15      1.45
  4.99       6.01      0.880      65.37      1.30
  4.99       6.01      0.920      78.26      1.32
  4.99       6.01      0.960      90.23      1.28
  4.99       6.01      1.000      92.16      1.26
  4.99       6.01      1.040      80.50      1.19
  4.99       6.01      1.080      60.73      1.12
  4.99       6.01      1.125      38.88      1.06
  4.99       6.01      1.175      21.63      1.01
  4.99       6.01      1.225      11.20      1.04
  4.99       6.01      1.275       5.73      1.07
  4.99       6.01      1.325       4.58      0.99
  4.99       6.01      1.375       6.21      0.97
  4.99       6.01      1.425       8.59      1.03
  4.99       6.01      1.475      10.70      1.05
  4.99       6.01      1.525      12.99      1.01
  4.99       6.01      1.575      16.42      0.98
  4.99       6.01      1.640      22.21      1.00
  4.99       6.01      1.720      26.02      1.00
  4.99       6.01      1.800      22.49      1.02
  4.99       6.01      1.880      17.22      0.98
  4.99       6.01      1.960      17.94      1.05
  4.99       6.01      2.040      26.98      0.99
  4.99       6.01      2.120      40.08      1.00
  4.99       6.01      2.200      48.53      1.00
  4.99       6.01      2.280      46.00      0.95
  4.99       6.01      2.360      34.89      0.89
  4.99       6.01      2.450      21.74      0.82
  4.99       6.01      2.550      14.49      0.75
  4.99       6.01      2.650      14.80      0.74
  4.99       6.01      2.750      19.43      0.73
  4.99       6.01      2.850      25.48      0.71
  4.99       6.01      2.950      29.02      0.71
  4.99       6.01      3.050      27.34      0.69
  4.99       6.01      3.150      21.44      0.64
  4.99       6.01      3.250      14.86      0.60
  4.99       6.01      3.350       9.97      0.57
  4.99       6.01      3.450       7.05      0.53
  4.99       6.01      3.550       5.30      0.51
  4.99       6.01      3.665       4.16      0.51
  4.99       6.01      3.795       4.03      0.48
  4.99       6.01      3.925       5.00      0.49
  4.99       6.01      4.055       6.26      0.50
  4.99       6.01      4.185       7.00      0.50
  4.99       6.01      4.315       7.08      0.49
  4.99       6.01      4.445       6.65      0.48
  4.99       6.01      4.575       5.84      0.43
  4.99       6.01      4.705       4.75      0.39
  4.99       6.01      4.835       3.50      0.34
  4.99       6.01      4.985       2.20      0.30
  4.99       6.01      5.155       1.22      0.24
  4.99       6.01      5.325       0.78      0.20
  4.99       6.01      5.495       0.65      0.17
  4.99       6.01      5.665       0.55      0.15
  4.99       6.01      5.835       0.43      0.12
  4.99       6.01      6.005       0.29      0.10
  4.99       6.01      6.175       0.15      0.07
  4.99       6.01      6.345       0.05      0.06
  4.99       6.01      6.515      -0.00      0.05
  6.01       7.01      0.760      32.43      7.96
  6.01       7.01      0.800      47.71      2.83
  6.01       7.01      0.840      57.55      1.65
  6.01       7.01      0.880      67.37      1.49
  6.01       7.01      0.920      81.59      1.51
  6.01       7.01      0.960      94.86      1.47
  6.01       7.01      1.000      97.49      1.45
  6.01       7.01      1.040      86.21      1.38
  6.01       7.01      1.080      66.53      1.32
  6.01       7.01      1.125      43.81      1.26
  6.01       7.01      1.175      24.84      1.21
  6.01       7.01      1.225      13.49      1.25
  6.01       7.01      1.275       8.06      1.28
  6.01       7.01      1.325       6.43      1.20
  6.01       7.01      1.375       6.55      1.16
  6.01       7.01      1.425       7.83      1.24
  6.01       7.01      1.475      10.56      1.26
  6.01       7.01      1.525      14.52      1.21
  6.01       7.01      1.575      18.80      1.19
  6.01       7.01      1.640      22.90      1.19
  6.01       7.01      1.720      23.37      1.19
  6.01       7.01      1.800      19.80      1.21
  6.01       7.01      1.880      17.13      1.18
  6.01       7.01      1.960      20.35      1.27
  6.01       7.01      2.040      30.57      1.21
  6.01       7.01      2.120      43.35      1.23
  6.01       7.01      2.200      51.04      1.21
  6.01       7.01      2.280      48.81      1.18
  6.01       7.01      2.360      39.12      1.13
  6.01       7.01      2.450      27.59      1.06
  6.01       7.01      2.550      21.00      0.98
  6.01       7.01      2.650      20.84      0.97
  6.01       7.01      2.750      24.99      0.94
  6.01       7.01      2.850      31.60      0.92
  6.01       7.01      2.950      36.54      0.92
  6.01       7.01      3.050      35.67      0.91
  6.01       7.01      3.150      29.10      0.86
  6.01       7.01      3.250      20.96      0.83
  6.01       7.01      3.350      14.66      0.79
  6.01       7.01      3.450      10.80      0.75
  6.01       7.01      3.550       8.50      0.76
  6.01       7.01      3.665       7.25      0.74
  6.01       7.01      3.795       7.51      0.73
  6.01       7.01      3.925       8.40      0.75
  6.01       7.01      4.055       8.41      0.76
  6.01       7.01      4.185       7.61      0.77
  6.01       7.01      4.315       7.12      0.79
  6.01       7.01      4.445       7.34      0.83
  6.01       7.01      4.575       7.63      0.83
  6.01       7.01      4.705       7.25      0.80
  6.01       7.01      4.835       6.31      0.75
  6.01       7.01      4.985       5.42      0.71
  6.01       7.01      5.155       5.50      0.67
  6.01       7.01      5.325       5.96      0.57
  6.01       7.01      5.495       5.59      0.50
  6.01       7.01      5.665       4.27      0.44
  6.01       7.01      5.835       2.70      0.35
  6.01       7.01      6.005       1.46      0.27
  6.01       7.01      6.175       0.70      0.22
  6.01       7.01      6.345       0.32      0.17
  6.01       7.01      6.515       0.16      0.13
  6.01       7.01      6.700       0.08      0.09
  6.01       7.01      6.900       0.06      0.05
  6.01       7.01      7.100       0.05      0.04
  6.01       7.01      7.300       0.04      0.03
  6.01       7.01      7.500       0.03      0.02
  6.01       7.01      7.700       0.02      0.02
  7.01       8.02      0.760      30.02      8.09
  7.01       8.02      0.800      43.60      2.92
  7.01       8.02      0.840      53.52      1.74
  7.01       8.02      0.880      63.50      1.58
  7.01       8.02      0.920      76.77      1.61
  7.01       8.02      0.960      88.44      1.56
  7.01       8.02      1.000      89.76      1.54
  7.01       8.02      1.040      78.29      1.48
  7.01       8.02      1.080      60.02      1.43
  7.01       8.02      1.125      40.24      1.36
  7.01       8.02      1.175      24.20      1.32
  7.01       8.02      1.225      14.14      1.38
  7.01       8.02      1.275       9.35      1.40
  7.01       8.02      1.325       8.79      1.31
  7.01       8.02      1.375       9.45      1.28
  7.01       8.02      1.425       9.53      1.36
  7.01       8.02      1.475      10.03      1.39
  7.01       8.02      1.525      12.36      1.33
  7.01       8.02      1.575      16.12      1.31
  7.01       8.02      1.640      20.42      1.33
  7.01       8.02      1.720      21.79      1.32
  7.01       8.02      1.800      19.72      1.35
  7.01       8.02      1.880      18.65      1.33
  7.01       8.02      1.960      22.96      1.42
  7.01       8.02      2.040      32.75      1.36
  7.01       8.02      2.120      44.29      1.37
  7.01       8.02      2.200      51.95      1.34
  7.01       8.02      2.280      50.80      1.30
  7.01       8.02      2.360      41.50      1.25
  7.01       8.02      2.450      28.80      1.19
  7.01       8.02      2.550      20.39      1.10
  7.01       8.02      2.650      19.01      1.09
  7.01       8.02      2.750      22.54      1.07
  7.01       8.02      2.850      29.19      1.05
  7.01       8.02      2.950      34.40      1.06
  7.01       8.02      3.050      33.56      1.05
  7.01       8.02      3.150      27.24      1.00
  7.01       8.02      3.250      20.19      0.99
  7.01       8.02      3.350      15.39      0.96
  7.01       8.02      3.450      12.54      0.93
  7.01       8.02      3.550      10.37      0.94
  7.01       8.02      3.665       8.54      0.94
  7.01       8.02      3.795       8.16      0.95
  7.01       8.02      3.925       9.05      0.96
  7.01       8.02      4.055       9.42      0.99
  7.01       8.02      4.185       8.59      1.02
  7.01       8.02      4.315       7.49      1.09
  7.01       8.02      4.445       7.08      1.14
  7.01       8.02      4.575       7.42      1.20
  7.01       8.02      4.705       8.16      1.18
  7.01       8.02      4.835       8.80      1.17
  7.01       8.02      4.985       8.98      1.21
  7.01       8.02      5.155       8.43      1.23
  7.01       8.02      5.325       7.30      1.13
  7.01       8.02      5.495       6.15      1.13
  7.01       8.02      5.665       5.18      1.06
  7.01       8.02      5.835       4.68      0.91
  7.01       8.02      6.005       4.49      0.75
  7.01       8.02      6.175       4.33      0.64
  7.01       8.02      6.345       3.92      0.55
  7.01       8.02      6.515       3.19      0.40
  7.01       8.02      6.700       2.24      0.26
  7.01       8.02      6.900       1.32      0.18
  7.01       8.02      7.100       0.70      0.12
  7.01       8.02      7.300       0.32      0.07
  7.01       8.02      7.500       0.14      0.04
  7.01       8.02      7.700       0.05      0.02
  7.01       8.02      7.900       0.02      0.01
  7.01       8.02      8.100       0.01      0.00
  7.01       8.02      8.300       0.00      0.00
  7.01       8.02      8.500       0.00      0.00
  7.01       8.02      8.725       0.00      0.00
  8.02       9.00      0.760      33.59      8.74
  8.02       9.00      0.800      46.14      3.18
  8.02       9.00      0.840      54.44      1.94
  8.02       9.00      0.880      62.35      1.77
  8.02       9.00      0.920      72.95      1.79
  8.02       9.00      0.960      82.86      1.75
  8.02       9.00      1.000      84.37      1.73
  8.02       9.00      1.040      74.20      1.66
  8.02       9.00      1.080      57.18      1.62
  8.02       9.00      1.125      38.42      1.54
  8.02       9.00      1.175      23.51      1.52
  8.02       9.00      1.225      14.88      1.58
  8.02       9.00      1.275      11.16      1.61
  8.02       9.00      1.325      10.71      1.51
  8.02       9.00      1.375      10.71      1.47
  8.02       9.00      1.425      10.21      1.56
  8.02       9.00      1.475      10.65      1.59
  8.02       9.00      1.525      13.47      1.51
  8.02       9.00      1.575      18.11      1.50
  8.02       9.00      1.640      23.23      1.52
  8.02       9.00      1.720      23.96      1.51
  8.02       9.00      1.800      20.87      1.53
  8.02       9.00      1.880      18.92      1.53
  8.02       9.00      1.960      21.92      1.63
  8.02       9.00      2.040      32.34      1.55
  8.02       9.00      2.120      46.83      1.57
  8.02       9.00      2.200      56.46      1.55
  8.02       9.00      2.280      55.06      1.51
  8.02       9.00      2.360      44.85      1.46
  8.02       9.00      2.450      31.03      1.39
  8.02       9.00      2.550      20.85      1.29
  8.02       9.00      2.650      18.95      1.28
  8.02       9.00      2.750      23.92      1.26
  8.02       9.00      2.850      31.03      1.23
  8.02       9.00      2.950      34.25      1.24
  8.02       9.00      3.050      31.43      1.22
  8.02       9.00      3.150      25.46      1.20
  8.02       9.00      3.250      20.15      1.19
  8.02       9.00      3.350      16.40      1.17
  8.02       9.00      3.450      13.34      1.14
  8.02       9.00      3.550      10.49      1.18
  8.02       9.00      3.665       7.95      1.18
  8.02       9.00      3.795       6.83      1.19
  8.02       9.00      3.925       7.55      1.21
  8.02       9.00      4.055       9.52      1.27
  8.02       9.00      4.185      11.63      1.35
  8.02       9.00      4.315      12.62      1.46
  8.02       9.00      4.445      11.96      1.54
  8.02       9.00      4.575      10.43      1.61
  8.02       9.00      4.705       9.43      1.64
  8.02       9.00      4.835       9.48      1.70
  8.02       9.00      4.985       9.99      1.78
  8.02       9.00      5.155       9.51      1.86
  8.02       9.00      5.325       7.78      1.87
  8.02       9.00      5.495       6.40      1.86
  8.02       9.00      5.665       6.31      1.83
  8.02       9.00      5.835       6.90      1.74
  8.02       9.00      6.005       6.95      1.53
  8.02       9.00      6.175       6.22      1.38
  8.02       9.00      6.345       5.12      1.17
  8.02       9.00      6.515       4.17      1.01
  8.02       9.00      6.700       3.64      0.75
  8.02       9.00      6.900       3.44      0.57
  8.02       9.00      7.100       3.18      0.46
  8.02       9.00      7.300       2.68      0.32
  8.02       9.00      7.500       2.01      0.22
  8.02       9.00      7.700       1.33      0.17
  8.02       9.00      7.900       0.78      0.14
  8.02       9.00      8.100       0.42      0.09
  8.02       9.00      8.300       0.20      0.06
  8.02       9.00      8.500       0.09      0.03
  8.02       9.00      8.725       0.03      0.01
  8.02       9.00      8.975       0.01      0.00
  8.02       9.00      9.225       0.00      0.00
  8.02       9.00      9.475       0.00      0.00
  8.02       9.00      9.725       0.00      0.00
  9.00      10.03      0.760      31.56      8.72
  9.00      10.03      0.800      42.67      3.21
  9.00      10.03      0.840      50.50      1.99
  9.00      10.03      0.880      58.54      1.84
  9.00      10.03      0.920      68.14      1.86
  9.00      10.03      0.960      75.96      1.81
  9.00      10.03      1.000      76.93      1.79
  9.00      10.03      1.040      68.86      1.74
  9.00      10.03      1.080      54.53      1.70
  9.00      10.03      1.125      37.23      1.63
  9.00      10.03      1.175      22.92      1.60
  9.00      10.03      1.225      15.34      1.67
  9.00      10.03      1.275      12.22      1.71
  9.00      10.03      1.325      11.54      1.60
  9.00      10.03      1.375      12.01      1.56
  9.00      10.03      1.425      13.22      1.65
  9.00      10.03      1.475      15.08      1.68
  9.00      10.03      1.525      17.71      1.61
  9.00      10.03      1.575      20.81      1.59
  9.00      10.03      1.640      23.86      1.60
  9.00      10.03      1.720      23.92      1.60
  9.00      10.03      1.800      22.01      1.63
  9.00      10.03      1.880      21.42      1.61
  9.00      10.03      1.960      25.06      1.72
  9.00      10.03      2.040      35.66      1.65
  9.00      10.03      2.120      49.10      1.65
  9.00      10.03      2.200      54.98      1.61
  9.00      10.03      2.280      49.02      1.56
  9.00      10.03      2.360      37.43      1.51
  9.00      10.03      2.450      27.02      1.44
  9.00      10.03      2.550      21.83      1.36
  9.00      10.03      2.650      21.50      1.36
  9.00      10.03      2.750      24.85      1.34
  9.00      10.03      2.850      29.82      1.31
  9.00      10.03      2.950      32.62      1.32
  9.00      10.03      3.050      31.03      1.30
  9.00      10.03      3.150      25.81      1.30
  9.00      10.03      3.250      19.59      1.28
  9.00      10.03      3.350      14.66      1.27
  9.00      10.03      3.450      12.09      1.24
  9.00      10.03      3.550      11.47      1.28
  9.00      10.03      3.665      11.72      1.30
  9.00      10.03      3.795      11.61      1.30
  9.00      10.03      3.925      10.57      1.36
  9.00      10.03      4.055       8.67      1.44
  9.00      10.03      4.185       6.33      1.54
  9.00      10.03      4.315       4.43      1.65
  9.00      10.03      4.445       4.18      1.77
  9.00      10.03      4.575       6.34      1.95
  9.00      10.03      4.705      10.09      1.96
  9.00      10.03      4.835      13.30      2.06
  9.00      10.03      4.985      14.13      2.20
  9.00      10.03      5.155      11.29      2.35
  9.00      10.03      5.325       7.63      2.41
  9.00      10.03      5.495       6.28      2.38
  9.00      10.03      5.665       6.92      2.40
  9.00      10.03      5.835       7.74      2.29
  9.00      10.03      6.005       7.21      2.12
  9.00      10.03      6.175       5.87      1.91
  9.00      10.03      6.345       4.88      1.76
  9.00      10.03      6.515       4.88      1.51
  9.00      10.03      6.700       5.30      1.21
  9.00      10.03      6.900       5.37      0.97
  9.00      10.03      7.100       4.71      0.85
  9.00      10.03      7.300       3.77      0.65
  9.00      10.03      7.500       3.06      0.54
  9.00      10.03      7.700       2.58      0.47
  9.00      10.03      7.900       2.21      0.33
  9.00      10.03      8.100       1.80      0.22
  9.00      10.03      8.300       1.32      0.16
  9.00      10.03      8.500       0.88      0.14
  9.00      10.03      8.725       0.49      0.10
  9.00      10.03      8.975       0.23      0.06
  9.00      10.03      9.225       0.09      0.03
  9.00      10.03      9.475       0.03      0.01
  9.00      10.03      9.725       0.01      0.00
  9.00      10.03      9.975       0.00      0.00
 10.03      12.49      0.760      29.97      7.88
 10.03      12.49      0.800      40.84      2.75
 10.03      12.49      0.840      49.61      1.56
 10.03      12.49      0.880      58.08      1.41
 10.03      12.49      0.920      66.94      1.44
 10.03      12.49      0.960      72.99      1.39
 10.03      12.49      1.000      71.84      1.37
 10.03      12.49      1.040      62.67      1.33
 10.03      12.49      1.080      49.30      1.31
 10.03      12.49      1.125      35.33      1.31
 10.03      12.49      1.175      24.82      1.28
 10.03      12.49      1.225      18.88      1.35
 10.03      12.49      1.275      15.77      1.41
 10.03      12.49      1.325      14.76      1.28
 10.03      12.49      1.375      15.09      1.22
 10.03      12.49      1.425      16.09      1.30
 10.03      12.49      1.475      17.73      1.30
 10.03      12.49      1.525      20.28      1.26
 10.03      12.49      1.575      23.67      1.24
 10.03      12.49      1.640      27.15      1.25
 10.03      12.49      1.720      26.70      1.24
 10.03      12.49      1.800      24.45      1.26
 10.03      12.49      1.880      25.08      1.24
 10.03      12.49      1.960      29.00      1.33
 10.03      12.49      2.040      37.38      1.26
 10.03      12.49      2.120      48.95      1.26
 10.03      12.49      2.200      56.27      1.24
 10.03      12.49      2.280      53.20      1.21
 10.03      12.49      2.360      42.35      1.17
 10.03      12.49      2.450      29.71      1.11
 10.03      12.49      2.550      21.89      1.03
 10.03      12.49      2.650      20.61      1.03
 10.03      12.49      2.750      23.97      1.03
 10.03      12.49      2.850      29.55      1.01
 10.03      12.49      2.950      33.24      1.02
 10.03      12.49      3.050      31.93      1.02
 10.03      12.49      3.150      26.28      1.01
 10.03      12.49      3.250      19.43      1.01
 10.03      12.49      3.350      13.94      1.00
 10.03      12.49      3.450      10.81      0.98
 10.03      12.49      3.550       9.70      1.01
 10.03      12.49      3.665       9.70      1.04
 10.03      12.49      3.795      10.12      1.06
 10.03      12.49      3.925      10.49      1.11
 10.03      12.49      4.055      10.41      1.17
 10.03      12.49      4.185       9.72      1.24
 10.03      12.49      4.315       8.93      1.37
 10.03      12.49      4.445       8.74      1.51
 10.03      12.49      4.575       9.14      1.63
 10.03      12.49      4.705       9.46      1.68
 10.03      12.49      4.835       9.25      1.76
 10.03      12.49      4.985       8.77      1.96
 10.03      12.49      5.155       8.48      2.06
 10.03      12.49      5.325       8.50      2.16
 10.03      12.49      5.495       8.56      2.28
 10.03      12.49      5.665       8.37      2.28
 10.03      12.49      5.835       8.10      2.19
 10.03      12.49      6.005       7.67      2.03
 10.03      12.49      6.175       7.23      1.94
 10.03      12.49      6.345       6.58      1.74
 10.03      12.49      6.515       5.76      1.57
 10.03      12.49      6.700       4.99      1.28
 10.03      12.49      6.900       4.70      1.11
 10.03      12.49      7.100       4.85      0.99
 10.03      12.49      7.300       4.88      0.87
 10.03      12.49      7.500       4.52      0.78
 10.03      12.49      7.700       3.84      0.63
 10.03      12.49      7.900       3.12      0.54
 10.03      12.49      8.100       2.49      0.45
 10.03      12.49      8.300       1.97      0.39
 10.03      12.49      8.500       1.53      0.31
 10.03      12.49      8.725       1.18      0.25
 10.03      12.49      8.975       0.88      0.18
 10.03      12.49      9.225       0.66      0.12
 10.03      12.49      9.475       0.48      0.09
 10.03      12.49      9.725       0.31      0.07
 10.03      12.49      9.975       0.19      0.05
 12.49      14.98      0.760      31.96      8.10
 12.49      14.98      0.800      35.69      2.96
 12.49      14.98      0.840      39.34      1.81
 12.49      14.98      0.880      44.88      1.66
 12.49      14.98      0.920      51.63      1.69
 12.49      14.98      0.960      55.62      1.66
 12.49      14.98      1.000      53.93      1.64
 12.49      14.98      1.040      47.46      1.61
 12.49      14.98      1.080      39.44      1.62
 12.49      14.98      1.125      31.62      1.56
 12.49      14.98      1.175      25.61      1.57
 12.49      14.98      1.225      21.43      1.65
 12.49      14.98      1.275      17.98      1.69
 12.49      14.98      1.325      15.68      1.58
 12.49      14.98      1.375      15.32      1.51
 12.49      14.98      1.425      17.12      1.60
 12.49      14.98      1.475      19.94      1.64
 12.49      14.98      1.525      22.93      1.57
 12.49      14.98      1.575      27.10      1.55
 12.49      14.98      1.640      35.94      1.55
 12.49      14.98      1.720      47.75      1.55
 12.49      14.98      1.800      50.47      1.57
 12.49      14.98      1.880      43.21      1.53
 12.49      14.98      1.960      36.18      1.57
 12.49      14.98      2.040      37.34      1.47
 12.49      14.98      2.120      43.91      1.47
 12.49      14.98      2.200      47.93      1.43
 12.49      14.98      2.280      45.10      1.40
 12.49      14.98      2.360      37.22      1.35
 12.49      14.98      2.450      27.57      1.30
 12.49      14.98      2.550      20.33      1.22
 12.49      14.98      2.650      17.61      1.21
 12.49      14.98      2.750      18.95      1.20
 12.49      14.98      2.850      23.05      1.16
 12.49      14.98      2.950      26.51      1.18
 12.49      14.98      3.050      26.03      1.18
 12.49      14.98      3.150      21.64      1.17
 12.49      14.98      3.250      16.26      1.16
 12.49      14.98      3.350      12.17      1.16
 12.49      14.98      3.450       9.92      1.14
 12.49      14.98      3.550       9.03      1.17
 12.49      14.98      3.665       8.94      1.18
 12.49      14.98      3.795       9.27      1.21
 12.49      14.98      3.925       9.36      1.30
 12.49      14.98      4.055       8.86      1.38
 12.49      14.98      4.185       7.85      1.44
 12.49      14.98      4.315       7.06      1.57
 12.49      14.98      4.445       7.15      1.70
 12.49      14.98      4.575       8.00      1.86
 12.49      14.98      4.705       8.80      1.88
 12.49      14.98      4.835       8.77      2.00
 12.49      14.98      4.985       7.82      2.16
 12.49      14.98      5.155       6.56      2.34
 12.49      14.98      5.325       5.78      2.41
 12.49      14.98      5.495       5.39      2.51
 12.49      14.98      5.665       5.17      2.54
 12.49      14.98      5.835       5.29      2.46
 12.49      14.98      6.005       5.73      2.27
 12.49      14.98      6.175       6.13      2.17
 12.49      14.98      6.345       6.06      1.96
 12.49      14.98      6.515       5.50      1.73
 12.49      14.98      6.700       4.69      1.44
 12.49      14.98      6.900       4.13      1.27
 12.49      14.98      7.100       3.95      1.15
 12.49      14.98      7.300       3.80      0.97
 12.49      14.98      7.500       3.49      0.88
 12.49      14.98      7.700       3.04      0.78
 12.49      14.98      7.900       2.59      0.64
 12.49      14.98      8.100       2.27      0.53
 12.49      14.98      8.300       2.06      0.47
 12.49      14.98      8.500       1.91      0.38
 12.49      14.98      8.725       1.70      0.26
 12.49      14.98      8.975       1.35      0.18
 12.49      14.98      9.225       0.94      0.15
 12.49      14.98      9.475       0.57      0.12
 12.49      14.98      9.725       0.31      0.07
 12.49      14.98      9.975       0.15      0.04
 14.98      17.42      0.760      19.95      7.92
 14.98      17.42      0.800      26.76      3.09
 14.98      17.42      0.840      31.12      2.09
 14.98      17.42      0.880      35.28      1.96
 14.98      17.42      0.920      41.60      1.99
 14.98      17.42      0.960      47.25      1.97
 14.98      17.42      1.000      48.24      1.96
 14.98      17.42      1.040      44.55      1.92
 14.98      17.42      1.080      39.24      1.93
 14.98      17.42      1.125      33.44      1.86
 14.98      17.42      1.175      26.92      1.86
 14.98      17.42      1.225      20.48      1.92
 14.98      17.42      1.275      15.80      1.93
 14.98      17.42      1.325      14.05      1.83
 14.98      17.42      1.375      13.79      1.80
 14.98      17.42      1.425      14.01      1.88
 14.98      17.42      1.475      15.27      1.91
 14.98      17.42      1.525      19.12      1.86
 14.98      17.42      1.575      26.65      1.84
 14.98      17.42      1.640      41.40      1.86
 14.98      17.42      1.720      59.48      1.89
 14.98      17.42      1.800      65.18      1.91
 14.98      17.42      1.880      56.14      1.82
 14.98      17.42      1.960      42.42      1.81
 14.98      17.42      2.040      34.25      1.67
 14.98      17.42      2.120      33.10      1.63
 14.98      17.42      2.200      33.80      1.59
 14.98      17.42      2.280      31.80      1.54
 14.98      17.42      2.360      27.35      1.50
 14.98      17.42      2.450      22.32      1.43
 14.98      17.42      2.550      18.16      1.35
 14.98      17.42      2.650      15.68      1.34
 14.98      17.42      2.750      16.29      1.32
 14.98      17.42      2.850      19.47      1.29
 14.98      17.42      2.950      21.17      1.30
 14.98      17.42      3.050      19.07      1.28
 14.98      17.42      3.150      15.07      1.25
 14.98      17.42      3.250      12.00      1.25
 14.98      17.42      3.350      10.24      1.24
 14.98      17.42      3.450       8.75      1.23
 14.98      17.42      3.550       7.14      1.23
 14.98      17.42      3.665       5.73      1.27
 14.98      17.42      3.795       5.36      1.30
 14.98      17.42      3.925       5.59      1.38
 14.98      17.42      4.055       5.70      1.44
 14.98      17.42      4.185       5.62      1.53
 14.98      17.42      4.315       5.59      1.63
 14.98      17.42      4.445       5.81      1.77
 14.98      17.42      4.575       6.61      1.85
 14.98      17.42      4.705       7.54      1.89
 14.98      17.42      4.835       7.89      1.95
 14.98      17.42      4.985       6.98      2.11
 14.98      17.42      5.155       4.92      2.15
 14.98      17.42      5.325       3.70      2.22
 14.98      17.42      5.495       3.87      2.27
 14.98      17.42      5.665       4.40      2.30
 14.98      17.42      5.835       4.28      2.18
 14.98      17.42      6.005       3.26      2.07
 14.98      17.42      6.175       2.27      1.96
 14.98      17.42      6.345       2.03      1.76
 14.98      17.42      6.515       2.64      1.59
 14.98      17.42      6.700       3.64      1.32
 14.98      17.42      6.900       4.07      1.13
 14.98      17.42      7.100       3.62      1.02
 14.98      17.42      7.300       2.67      0.88
 14.98      17.42      7.500       1.78      0.76
 14.98      17.42      7.700       1.15      0.67
 14.98      17.42      7.900       0.88      0.58
 14.98      17.42      8.100       0.90      0.49
 14.98      17.42      8.300       0.98      0.44
 14.98      17.42      8.500       1.13      0.37
 14.98      17.42      8.725       1.14      0.27
 14.98      17.42      8.975       0.99      0.22
 14.98      17.42      9.225       0.74      0.17
 14.98      17.42      9.475       0.48      0.13
 14.98      17.42      9.725       0.27      0.09
 14.98      17.42      9.975       0.15      0.06
 17.42      20.09      0.760      26.91      8.96
 17.42      20.09      0.800      25.75      3.60
 17.42      20.09      0.840      27.18      2.51
 17.42      20.09      0.880      31.69      2.37
 17.42      20.09      0.920      38.55      2.40
 17.42      20.09      0.960      45.13      2.39
 17.42      20.09      1.000      48.81      2.40
 17.42      20.09      1.040      48.78      2.36
 17.42      20.09      1.080      46.15      2.38
 17.42      20.09      1.125      41.26      2.31
 17.42      20.09      1.175      34.21      2.27
 17.42      20.09      1.225      26.51      2.31
 17.42      20.09      1.275      19.71      2.30
 17.42      20.09      1.325      15.63      2.21
 17.42      20.09      1.375      14.15      2.18
 17.42      20.09      1.425      14.80      2.26
 17.42      20.09      1.475      16.96      2.34
 17.42      20.09      1.525      21.43      2.27
 17.42      20.09      1.575      30.02      2.23
 17.42      20.09      1.640      48.40      2.26
 17.42      20.09      1.720      71.89      2.31
 17.42      20.09      1.800      77.80      2.31
 17.42      20.09      1.880      63.43      2.17
 17.42      20.09      1.960      44.33      2.10
 17.42      20.09      2.040      34.38      1.93
 17.42      20.09      2.120      33.48      1.91
 17.42      20.09      2.200      34.61      1.84
 17.42      20.09      2.280      33.29      1.78
 17.42      20.09      2.360      29.49      1.74
 17.42      20.09      2.450      24.21      1.66
 17.42      20.09      2.550      19.63      1.55
 17.42      20.09      2.650      17.59      1.54
 17.42      20.09      2.750      17.65      1.48
 17.42      20.09      2.850      18.57      1.43
 17.42      20.09      2.950      18.45      1.42
 17.42      20.09      3.050      16.19      1.41
 17.42      20.09      3.150      12.48      1.40
 17.42      20.09      3.250       9.35      1.38
 17.42      20.09      3.350       7.69      1.36
 17.42      20.09      3.450       7.00      1.33
 17.42      20.09      3.550       6.46      1.34
 17.42      20.09      3.665       6.06      1.37
 17.42      20.09      3.795       6.40      1.37
 17.42      20.09      3.925       6.95      1.44
 17.42      20.09      4.055       6.34      1.49
 17.42      20.09      4.185       4.23      1.57
 17.42      20.09      4.315       2.29      1.62
 17.42      20.09      4.445       1.84      1.74
 17.42      20.09      4.575       2.92      1.82
 17.42      20.09      4.705       4.22      1.86
 17.42      20.09      4.835       5.12      1.89
 17.42      20.09      4.985       5.59      1.96
 17.42      20.09      5.155       5.50      1.99
 17.42      20.09      5.325       4.86      2.04
 17.42      20.09      5.495       3.62      2.02
 17.42      20.09      5.665       2.28      2.04
 17.42      20.09      5.835       1.44      1.91
 17.42      20.09      6.005       1.28      1.74
 17.42      20.09      6.175       1.58      1.66
 17.42      20.09      6.345       2.22      1.52
 17.42      20.09      6.515       2.81      1.37
 17.42      20.09      6.700       3.15      1.10
 17.42      20.09      6.900       2.78      0.95
 17.42      20.09      7.100       2.05      0.87
 17.42      20.09      7.300       1.38      0.77
 17.42      20.09      7.500       1.05      0.64
 17.42      20.09      7.700       1.08      0.54
 17.42      20.09      7.900       1.18      0.46
 17.42      20.09      8.100       1.23      0.36
 17.42      20.09      8.300       1.11      0.26
 17.42      20.09      8.500       0.87      0.22
 17.42      20.09      8.725       0.58      0.18
 17.42      20.09      8.975       0.32      0.13
 17.42      20.09      9.225       0.15      0.08
 17.42      20.09      9.475       0.07      0.04
 17.42      20.09      9.725       0.03      0.02
 17.42      20.09      9.975       0.01      0.01
ENDDATA           1011
ENDSUBENT         1019
ENDENTRY             3
