ENTRY            40878     851112
SUBENT        40878001     851112
BIB                 10         16
INSTITUTE  (4CCPFEI)
           (4CCPMIF)
REFERENCE  (C,83KIEV,2,259,8310)
AUTHOR     (A.N.GUDKOV,A.N.DAVLETSHIN,V.M.ZHIVUN,
           A.V.ZVONAREV,V.V.KOVALENKO,A.B.KOLDOBSKIJ,
           JU.F.KOLEGANOV,V.M.KOLOBASHKIN,S.V.KRIVASHEEV,
           V.G.LIFOROV,N.S.PIVEN',A.O.TIPUNKOV,V.A.TOLSTIKOV)
TITLE       FISSION PRODUCT YIELD MEASUREMENT BY THE METHOD OF
            SEMICONDUCTOR GAMMA-SPECTROSCOPY FOR U-236 AND U-238
            FISSION BY THE MONOENERGETIC NEUTRONS
FACILITY   (VDG,4CCPFEI) ACCELERATOR KG-2.5
INC-SOURCE (P-T)
DETECTOR   (GELI)
MONITOR     ABSOLUTE MEASUREMENTS
PART-DET   (G)
HISTORY    (851112C) COMPILED AT THE CENTER BY MAJEV S.A.
ENDBIB              16
NOCOMMON             0          0
ENDSUBENT           19
SUBENT        40878002     851112
BIB                  2          3
REACTION   (92-U-238(N,F)ELEM/MASS,CUM,FY)
SAMPLE      OXIDE U3-08 DISK FOLDED IN THE NICKEL FOIL 0.1 MM
            THICKNESS, WEIGHT 1110 +- 1 MILLIGRAM, DIAMETER 13 MM
ENDBIB               3
COMMON               2          3
EN         EN-ERR
KEV        PER-CENT
 1.0100E+03 1.5000E+00
ENDCOMMON            3
DATA                 4         10
MASS       ELEMENT    DATA       ERR-T
NO-DIM     NO-DIM     PC/FIS     PC/FIS
 9.1000E+01 3.8000E+01 2.9400E+00 4.1000E-01
 9.7000E+01 4.0000E+01 6.0000E+00 1.6000E+00
 1.0500E+02 4.4000E+01 3.0700E+00 8.3000E-01
 1.3200E+02 5.2000E+01 6.7000E+00 3.1000E+00
 1.3300E+02 5.3000E+01 5.6300E+00 5.3000E-01
 1.3500E+02 5.3000E+01 8.4000E+00 3.9000E+00
 1.3500E+02 5.4000E+01 5.7600E+00 8.1000E-01
 1.3900E+02 5.6000E+01 5.4000E+00 1.1000E+00
 1.4200E+02 5.7000E+01 4.2200E+00 4.9000E-01
 1.4900E+02 6.0000E+01 4.0000E+00 1.8000E+00
ENDDATA             12
ENDSUBENT           24
SUBENT        40878003     851112
BIB                  3          6
REACTION   (92-U-236(N,F)ELEM/MASS,CUM,FY)
SAMPLE      OXID U3-08 DISK FOLDED IN THE NICKEL FOIL 0.1 MM
            THICKNESS, SAMPLE WEIGHT IS 995.8 +- 0.9 MILLIGRAM,
            DIAMETER 12 MM
FLAG       (1.) ISOMER HAS HALF-LIFE 40.0 MIN
           (2.) NORMALIZATION VALUE
ENDBIB               6
COMMON               2          3
EN         EN-ERR
KEV        PER-CENT
 9.5900E+02 2.0000E-01
ENDCOMMON            3
DATA                 6         25
MASS       ELEMENT    ISOMER     DATA       ERR-T      FLAG
NO-DIM     NO-DIM     NO-DIM     PC/FIS     PC/FIS     NO-DIM
 9.1000E+01 3.8000E+01            5.4700E+00 3.0000E-01
 9.2000E+01 3.8000E+01            4.5800E+00 5.6000E-01
 9.2000E+01 3.9000E+01            4.3600E+00 4.2000E-01
 9.3000E+01 3.8000E+01            5.4000E+00 1.4000E+00
 9.3000E+01 3.9000E+01            4.4500E+00 5.7000E-01
 9.4000E+01 3.9000E+01            4.7200E+00 7.0000E-01
 9.7000E+01 4.0000E+01            5.3400E+00 2.7000E-01 2.0000E+00
 9.9000E+01 4.2000E+01            5.3300E+00 6.2000E-01
 9.9000E+01 4.2000E+01            5.9000E+00 1.1000E+00
 1.0100E+02 4.2000E+01            5.0100E+00 5.9000E-01
 1.0100E+02 4.2000E+01            5.4200E+00 7.2000E-01
 1.2800E+02 5.1000E+01            1.1000E-01 3.0000E-02
 1.2900E+02 5.1000E+01            2.4000E-01 1.4000E-01
 1.3000E+02 5.1000E+01            8.2000E-01 3.8000E-01 1.0000E+00
 1.3100E+02 5.2000E+01 1.0000E+00 7.2000E-01 1.5000E-01
 1.3200E+02 5.2000E+01            4.8200E+00 4.1000E-01
 1.3300E+02 5.2000E+01 1.0000E+00 2.4200E+00 3.9000E-01
 1.3300E+02 5.3000E+01            5.7300E+00 5.2000E-01
 1.3400E+02 5.2000E+01            6.1800E+00 5.4000E-01
 1.3400E+02 5.3000E+01            6.8500E+00 8.2000E-01
 1.3500E+02 5.3000E+01            5.9800E+00 3.3000E-01
 1.3900E+02 5.6000E+01            6.1400E+00 7.2000E-01
 1.4000E+02 5.6000E+01            5.2000E+00 3.0000E-01
 1.4200E+02 5.7000E+01            4.9300E+00 5.2000E-01
 1.4600E+02 5.9000E+01            3.6900E+00 5.7000E-01
ENDDATA             27
ENDSUBENT           42
SUBENT        40878004     851112
BIB                  3          6
REACTION   (92-U-236(N,F)ELEM/MASS,CUM,FY)
SAMPLE      OXIDE U3-08 DISK FOLDED IN THE NICKEL FOIL 0.1 MM
            THICKNESS, SAMPLE WEIGHT IS 995.8 +- 0.9 MILLIGRAM,
            SAMPLE DIAMETER 14.62 MM
FLAG       (1.) ISOMER HAS HALF-LIFE 40.0 MIN
           (2.) NORMALIZATION VALUE
ENDBIB               6
COMMON               2          3
EN         EN-ERR
KEV        PER-CENT
 3.3000E+03 6.0000E+00
ENDCOMMON            3
DATA                 6         23
MASS       ELEMENT    ISOMER     DATA       ERR-T      FLAG
NO-DIM     NO-DIM     NO-DIM     PC/FIS     PC/FIS     NO-DIM
 9.1000E+01 3.8000E+01            5.4400E+00 3.9000E-01
 9.2000E+01 3.8000E+01            4.4200E+00 5.8000E-01
 9.2000E+01 3.9000E+01            5.0100E+00 4.3000E-01
 9.3000E+01 3.9000E+01            4.5900E+00 6.1000E-01
 9.4000E+01 3.9000E+01            4.7000E+00 1.3000E+00
 9.7000E+01 4.0000E+01            5.3400E+00 2.7000E-01 2.0000E+00
 9.9000E+01 4.2000E+01            5.8000E+00 8.6000E-01
 9.9000E+01 4.2000E+01            5.0100E+00 7.0000E-01
 1.0100E+02 4.2000E+01            5.2800E+00 3.9000E-01
 1.0100E+02 4.2000E+01            4.8000E+00 1.1000E+00
 1.2800E+02 5.1000E+01            3.6000E-01 5.0000E-02
 1.2900E+02 5.1000E+01            5.0000E-01 9.0000E-02
 1.3000E+02 5.1000E+01            8.3000E-01 1.1000E-01 1.0000E+00
 1.3100E+02 5.2000E+01 1.0000E+00 7.1000E-01 1.0000E-01
 1.3200E+02 5.2000E+01            3.9700E+00 4.5000E-01
 1.3300E+02 5.3000E+01            5.8200E+00 4.1000E-01
 1.3400E+02 5.2000E+01            6.5900E+00 7.0000E-01
 1.3400E+02 5.3000E+01            7.4200E+00 7.2000E-01
 1.3500E+02 5.3000E+01            6.7200E+00 4.8000E-01
 1.3900E+02 5.6000E+01            6.5000E+00 4.7000E-01
 1.4000E+02 5.6000E+01            4.9700E+00 4.6000E-01
 1.4200E+02 5.7000E+01            5.1800E+00 5.7000E-01
 1.4600E+02 5.9000E+01            3.3700E+00 3.8000E-01
ENDDATA             25
ENDSUBENT           40
ENDENTRY             4
