ENTRY            40875     870421
SUBENT        40875001     870421              20050926       0000
BIB                  9         16
INSTITUTE  (4CCPFEI)  ALL EXEPT A.LAJTAI
           (3HUNKFI)  A.LAJTAI
REFERENCE  (C,83KIEV,2,197,8310)
AUTHOR     (P.P.D'JACHENKO,L.S.KUCAEVA,V.N.KONONOV,
           P.A.ANDROSENKO,E.A.SEREGINA,A.A.ANDROSENKO,A.LAJTAI)
TITLE       AN  ABSOLUTE MEASUREMENT OF CF-252 PROMPT FISSION
            NEUTRON SPECTRUM AT LOW ENERGY
METHOD     (TOF)  FLIGHT BASE IS 30 CM
DETECTOR   (FISCH) FOR FISSION FRAGMENTS
           (GLASD) LITHIUM-GLASS DETECTOR FOR NEUTRONS
HISTORY    (851030C) COMPILED IN CJD
           (860901A) NEW SUBENTRY WITH CORRECTED DATA INTRODUCED
           (870421U) REACTION CODE IN SAN 003 CORRECTED ACCORDING
                     TO MEMO 4C-3/308
PART-DET   (FF,N)
INC-SOURCE (CF252)
ENDBIB              16
NOCOMMON             0          0
ENDSUBENT           19
SUBENT        40875002     890407              20050926       0000
BIB                  2          3
REACTION   (98-CF-252(0,F),PR,DE,N,REL) SPECTRUM MEASURED IN
               NEUTRONS PER FISSION PER MEV*STERADIAN TIMES E-2
MISC-COL   (MISC) NEUTRON DETECTOR EFFICIENCY
ENDBIB               3
NOCOMMON             0          0
DATA                 5         69
E          DATA       DATA-ERR   MISC       MISC-ERR
KEV        ARB-UNITS  ARB-UNITS  PER-CENT   PER-CENT
  25.        3.27       .46       1.89        0.04
  35.        2.72       .45       1.70        0.04
  45.        4.34       .48       1.53        0.03
  55.        4.37       .49       1.39        0.03
  65.        4.55       .48       1.35        0.03
  75.        5.05       .49       1.29        0.03
  85.        4.80       .46       1.29         .03
  95.        5.67       .45       1.32         .03
 105.        5.67       .50       1.34         .03
 115.        6.44       .53       1.38         .04
 125.        7.35       .56       1.40         .05
 135.        7.12       .52       1.48         .07
 145.        6.86       .50       1.58         .08
 155.        7.83       .54       1.74         .09
 165.        7.72       .53       1.94         .10
 175.        7.05       .48       2.65         .14
 185.        8.39       .56       2.02         .14
 195.        7.38       .49       3.78         .20
 205.        7.12       .47       4.58         .24
 215.        8.39       .55       5.38         .28
 225.        8.02       .53       5.40         .28
 235.        7.76       .51       6.52         .34
 245.        7.83       .51       6.54         .34
 255.        8.02       .52       5.72         .30
 265.        8.95       .58       5.00         .26
 275.        8.47       .56       5.16         .27
 285.        8.35       .55       4.54         .23
 295.        9.55       .63       3.35         .17
 305.        9.21       .61       2.97         .15
 315.        9.19       .61       2.70         .14
 325.        8.64       .57       2.69         .14
 335.        9.38       .63       2.19         .11
 345.        8.88       .60       2.04         .11
 355.        9.32       .61       1.88         .10
 365.        9.14       .62       1.89         .10
 375.        9.17       .68       1.79         .09
 385.        9.40       .64       1.62         .08
 395.        9.06       .62       1.59         .08
 410.        9.70       .65       1.48         .08
 430.        9.99       .67       1.30         .06
 450.        9.43       .63       1.28         .07
 470.        9.73       .66       1.11         .06
 490.        9.39       .63       1.00         .05
 510.        9.85       .67       0.89         .05
 530.       10.14       .68        .82         .04
 550.       10.03       .68        .76         .04
 570.        9.66       .66        .74         .04
 590.        9.85       .67        .71         .04
 610.       10.10       .69        .68         .04
 630.       10.03       .69        .65         .03
 650.       10.07       .69        .63         .03
 670.       10.03       .69        .62         .03
 690.        9.99       .69        .60         .03
 710.       10.37       .71        .56         .03
 735.       10.41       .70        .54         .03
 765.       10.55       .71        .52         .03
 795.       10.22       .69        .53         .03
 825.        9.99       .68        .54         .03
 855.        9.66       .65        .54         .03
 885.       10.07       .68        .53         .03
 945.        9.70       .66        .53         .03
 975.        9.47       .64        .54         .03
1005.        9.51       .64        .54         .03
1020.        9.40       .63        .53         .03
1060.       10.03       .67        .52         .03
1100.       10.00       .67        .50         .03
1140.       10.07       .67        .51         .03
1180.        9.66       .63        .50         .03
1220.       10.00       .67        .50         .03
ENDDATA             71
ENDSUBENT           79
SUBENT        40875003     870421              20050926       0000
BIB                  5          8
REACTION   ((98-CF-252(0,F),PR,DE,N)/
           (98-CF-252(0,F),PR,DE,N))      RATIO OF THE MEASURED
                      NEUTRON SPECTRUM TO THAT OF MAXWELL
COMMENT     KT-VALUE    EQUAL 1.42 MEV IS THE TEMPERATURE OF THE
            REFERENCE MAXWELL SPECTRUM
REFERENCE  (J,AE,60,(1),65,8601)  GRAPH IS GIVEN
STATUS     (APRVD)  SEREGINA, 860822
HISTORY    (870421U) MXW IN SF8 DELETED
ENDBIB               8
NOCOMMON             0          0
DATA                 3         70
E          DATA       ERR-T
KEV        NO-DIM     NO-DIM
   25.      1.14        .15
   35.       .79        .12
   45.      1.10        .12
   55.       .97        .11
   65.       .94        .10
   75.       .98        .095
   85.       .90        .084
   95.       .99        .078
  105.       .95        .083
  115.      1.03        .083
  125.      1.14        .087
  135.      1.07        .078
  145.      1.0         .073
  155.      1.1         .077
  165.      1.07        .074
  175.       .96        .065
  185.      1.1         .074
  195.       .96        .064
  205.       .91        .060
  215.      1.06        .069
  225.       .99        .066
  235.       .95        .062
  245.       .94        .061
  255.       .95        .062
  265.      1.05        .068
  275.       .98        .065
  285.       .96        .063
  295.      1.08        .072
  305.      1.04        .067
  315.      1.03        .067
  325.       .96        .063
  335.      1.03        .069
  345.       .97        .065
  355.      1.01        .066
  365.       .98        .066
  375.       .98        .073
  385.      1.00        .068
  395.       .96        .065
  410.      1.01        .068
  430.      1.03        .069
  450.       .97        .065
  470.       .99        .067
  490.       .95        .064
  510.       .99        .067
  530.      1.015       .068
  550.      1.00        .068
  570.       .96        .066
  590.       .98        .067
  610.      1.00        .068
  630.       .99        .068
  650.       .99        .068
  670.       .99        .068
  690.       .98        .068
  710.      1.02        .070
  735.      1.02        .069
  765.      1.04        .070
  795.      1.01        .068
  825.       .99        .067
  855.       .96        .064
  885.      1.00        .067
  915.       .97        .066
  945.       .97        .066
  975.       .96        .068
 1005.       .97        .070
 1020.       .96        .064
 1060.      1.03        .069
 1100.      1.04        .069
 1140.      1.055       .070
 1180.      1.02        .067
 1220.      1.07        .072
ENDDATA             72
ENDSUBENT           85
ENDENTRY             3
