ENTRY            40887   19890316              20050926       0000
SUBENT        40887001   19890316              20050926       0000
BIB                  9         12
TITLE       IODINE-128 LEVELS EXCITED AT THE NEUTRON CAPTURE
            WITH THE ENERGY 2. KEV
AUTHOR     (JU.E.LOGINOV,V.V.MARTYNOV,A.V.MURZIN,E.I.FEDOROVA)
INSTITUTE  (4CCPIJI)
           (4CCPLIN)
REFERENCE  (C,83KIEV,3,20,8310)
FACILITY   (REAC,4CCPIJI)
DETECTOR   (GELI)   DETECTOR RESOLUTION IS 8 KEV AT 7000KEV
           (NAICR)  GAMMA ENERGY
SAMPLE      I2-O5 DIAMETER 32 MM, WEIGHT 53 GRAM
HISTORY    (851225C)
STATUS     (APRVD)  MURZIN, 8512
ENDBIB              12
NOCOMMON             0          0
ENDSUBENT           15
SUBENT        40887002   19851225              20050926       0000
BIB                  4          5
REACTION   (53-I-127(N,G)53-I-128,,SPC,,REL) RELATIVE TO THE
                    H(N,G) AND FE-56(N,G) GAMMA INTENSITIES
MONITOR    (26-FE-56(N,G)26-FE-57,,SPC)
INC-SPECT   SCANDIUM FILTER SPECTRUM
ERR-ANALYS (DATA-ERR) NOT SPECIFIED
ENDBIB               5
COMMON               2          3
EN         EN-RSL-FW
KEV        KEV
  2.        .7
ENDCOMMON            3
DATA                 5         70
E          E-ERR      E-LVL-FIN  DATA       DATA-ERR
KEV        KEV        KEV        ARB-UNITS  ARB-UNITS
 6828.4      .9           0.        78.        7.
 6800.7      .8          27.7      178.        7.
 6746.7      .16         81.7       69.       20.
 6740.4      .10         88.0      165.       20.
 6694.8      .9         133.6      712.       35.
 6689.6      .12        138.8      476.       74.
 6683.9      .9         144.5      648.       32.
 6676.4      .40        152.0      149.       10.
 6668.6      .10        159.8      120.       10.
 6647.8      .9         180.6      161.        9.
 6607.4      .13        221.0       52.        6.
 6595.2      .12        233.2       69.        6.
 6531.5      .10        296.9      156.        8.
 6483.8      .12        344.6       81.        7.
 6453.3      .11        375.1      104.       30.
 6450.5      .11        377.9      294.       23.
 6443.3      .18        385.1      156.       16.
 6436.1      .13        392.3      142.       10.
 6412.6      .12        415.8       94.        8.
 6403.9      .22        424.5       54.       12.
 6393.7      .12        434.7      310.       60.
 6390.5      .11        437.9      425.       60.
 6340.5      .11        487.9       82.        9.
 6308.7      .11        519.7      262.       10.
 6294.2      .11        534.2      163.       10.
 6272.9      .11        555.5      700.       65.
 6217.2      .11        611.2      276.       10.
 6196.2      .13        632.2      189.       19.
 6166.2      .13        662.2      139.       19.
 6149.2      .14        679.2       95.       12.
 6139.9      .12        688.5      228.       12.
 6116.7      .17        711.7       63.       11.
 6102.6      .15        725.8       70.       12.
 6076.1      .14        752.3       88.       11.
 6033.9      .18        794.5      114.       10.
 6004.6      .13        823.8      126.       10.
 5984.8      .13        843.6      541.       42.
 5979.0      .13        849.4      399.       41.
 5961.3      .15        867.1       85.        9.
 5945.2      .12        883.2      911.       11.
 5917.1      .17        911.3      107.       26.
 5910.5      .16        917.9      135.       10.
 5892.3      .13        936.1      412.       10.
 5884.0      .17        944.4       75.       11.
 5840.1      .16        988.3      249.       13.
 5830.4      .16        998.0       76.        8.
 5815.4      .16       1013.0       65.        8.
 5794.3      .13       1034.1      237.        9.
 5778.0      .13       1050.4      237.        9.
 5760.5      .16       1067.9       69.        8.
 5739.6      .18       1088.8       83.       13.
 5726.1      .14       1102.3      382.       48.
 5691.5      .13       1136.9      281.       11.
 5676.6      .17       1151.8       83.       14.
 5658.8      .14       1169.6      412.       20.
 5647.5      .18       1180.9       76.       20.
 5630.1      .16       1198.3      124.       11.
 5608.5      .20       1219.9       68.        9.
 5599.3      .14       1229.1      202.       11.
 5580.7      .15       1247.7      277.       24.
 5574.3      .16       1254.1      230.       30.
 5559.4      .14       1269.0      286.       11.
 5551.0      .14       1277.4      209.       10.
 5522.0      .14       1306.4      445.       13.
 5494.7      .14       1333.7      194.       12.
 5483.5      .15       1344.9      141.       12.
 5460.4      .14       1368.0      301.       13.
 5449.0      .16       1379.4      236.       25.
 5441.6      .24       1386.8       84.       24.
 5424.7      .15       1403.7      122.       12.
ENDDATA             72
ENDSUBENT           86
ENDENTRY             2
