ENTRY            10415   20030220   20030411
SUBENT        10415001   20030220   20030411
BIB                 11         24
INSTITUTE  (1USAANL)
REFERENCE  (J,AP,12,135,196102)
AUTHOR     (R.O.Lane,A.S.Langsdorf Jr,J.E.Monahan,A.J.Elwyn)
TITLE      The Angular Distributions of Neutrons Scattered from
            Various Nuclei
FACILITY   (ACCEL,1USAANL) 4-MeV Argonne electrostatic accelerator
INC-SOURCE (P-LI7)
DETECTOR   (PROPC) BF-3 counters in oil
CORRECTION Corrections made for beam attenuation, multiple
            scattering and resolution of experimental equipment
ERR-ANALYS Systematic uncertainty is 5-7% and includes
            uncertainty due to:
            . non-uniformity of detector efficiencies,
            . variation of detector efficiency due to energy,
            . second neutron group from p-Li7,
            . error in multiple scattering correction,
            . finite solid angle effects,
            . uncertainty in C standard.
STATUS     (APRVD) Approved by author.
           (CURVE) Data read from large curves.
HISTORY    (19740725T)
           (19830328A) Converted to REACTION formalism
           (19840423A) BIB corrections.
           (20030220A) Updated to new date formats, lower case.
ENDBIB              24
NOCOMMON             0          0
ENDSUBENT           27
SUBENT        10415002   20030220   20030411
BIB                  6          8
REACTION   (3-LI-6(N,EL)3-LI-6,,DA)
INC-SPECT  Resolution 5-10 keV
SAMPLE     Sample thickness = 0.01849 atoms/barn
MONITOR    (6-C-12(N,EL)6-C-12,,DA)
CORRECTION Corrected for minor isotope effects and detector
            efficiency.
           Not corrected for multiple scattering.
HISTORY    (19840423A) MONITOR added, BIB correction.
ENDBIB               8
NOCOMMON             0          0
DATA                 3         48
EN         ANG        DATA
MEV        ADEG       B/SR
      0.225       23.3     0.7031
      0.225       40.1     0.5394
      0.225       57.0     0.4603
      0.225       74.2     0.3814
      0.225       94.1     0.3631
      0.225      110.7     0.3918
      0.225      128.5     0.4590
      0.225      144.2     0.5201
      0.235       23.3     0.9549
      0.235       40.1     0.7092
      0.235       57.0     0.5548
      0.235       74.2     0.4675
      0.235       94.1     0.4351
      0.235      110.7     0.4497
      0.235      128.5     0.5306
      0.235      144.2     0.5804
      0.245       23.3     1.0749
      0.245       40.1     0.7440
      0.245       57.0     0.5300
      0.245       74.2     0.4531
      0.245       94.1     0.4519
      0.245      110.7     0.4418
      0.245      128.5     0.4914
      0.245      144.2     0.5909
      0.255       23.3     0.9602
      0.255       40.1     0.7784
      0.255       57.0     0.5595
      0.255       74.2     0.4631
      0.255       94.1     0.4294
      0.255      110.7     0.4424
      0.255      128.5     0.4607
      0.255      144.2     0.5534
      0.265       23.3     1.0015
      0.265       40.1     0.7406
      0.265       57.0     0.5696
      0.265       74.2     0.4528
      0.265       94.1     0.4529
      0.265      110.7     0.4947
      0.265      128.5     0.4558
      0.265      144.2     0.4835
      0.275       23.3     0.7905
      0.275       40.1     0.6365
      0.275       57.0     0.4234
      0.275       74.2     0.3629
      0.275       94.1     0.3221
      0.275      110.7     0.3703
      0.275      128.5     0.3639
      0.275      144.2     0.3203
ENDDATA             50
ENDSUBENT           63
SUBENT        10415003   20030220   20030411
BIB                  5          8
REACTION   (3-LI-7(N,SCT)3-LI-7,,DA)
INC-SPECT  Resolution 5-10 kev
CORRECTION Corrected for minor isotope effects, plural scattering,
            and detector efficiency
FLAG       (1.) sample thickness = 0.01833 atoms/barn
           (2.) sample thickness = 0.02636 atoms/barn
           (3.) sample thickness = 0.05612 atoms/barn
HISTORY    (19840423A) MONITOR added. DATA sorted.
ENDBIB               8
NOCOMMON             0          0
DATA                 4        168
EN         ANG        DATA       FLAG
MEV        ADEG       B/SR       NO-DIM
      0.085       23.3     0.0783         3.
      0.085       40.1     0.0865         3.
      0.085       57.0     0.0875         3.
      0.085       74.2     0.0823         3.
      0.085       94.1     0.0586         3.
      0.085      110.7     0.0561         3.
      0.085      128.5     0.0493         3.
      0.085      144.2     0.0429         3.
      0.100       23.3     0.1003         3.
      0.100       40.1     0.0907         3.
      0.100       57.0     0.0839         3.
      0.100       74.2     0.0746         3.
      0.100       94.1     0.0668         3.
      0.100      110.7     0.0628         3.
      0.100      128.5     0.0524         3.
      0.100      144.2     0.0519         3.
      0.115       23.3     0.1118         3.
      0.115       40.1     0.1132         3.
      0.115       57.0     0.1010         3.
      0.115       74.2     0.0761         3.
      0.115       94.1     0.0574         3.
      0.115      110.7     0.0523         3.
      0.115      128.5     0.0424         3.
      0.115      144.2     0.0413         3.
      0.145       23.3     0.1378         3.
      0.145       40.1     0.1193         3.
      0.145       57.0     0.1005         3.
      0.145       74.2     0.0894         3.
      0.145       94.1     0.0621         3.
      0.145      110.7     0.0415         3.
      0.145      128.5     0.0324         3.
      0.145      144.2     0.0297         3.
      0.185       23.3     0.2248         3.
      0.185       40.1     0.1819         3.
      0.185       57.0     0.1328         3.
      0.185       74.2     0.1034         3.
      0.185       94.1     0.0752         3.
      0.185      110.7     0.0487         3.
      0.185      128.5     0.0380         3.
      0.185      144.2     0.0233         3.
      0.215       23.3     0.3928         3.
      0.215       40.1     0.3141         3.
      0.215       57.0     0.2487         3.
      0.215       74.2     0.1654         3.
      0.215       94.1     0.1013         3.
      0.215      110.7     0.0541         3.
      0.215      128.5     0.0476         3.
      0.215      144.2     0.0313         3.
      0.225       23.3     0.5838         3.
      0.225       23.3     0.5685         2.
      0.225       40.1     0.4524         3.
      0.225       40.1     0.4666         2.
      0.225       57.0     0.3380         3.
      0.225       57.0     0.3399         2.
      0.225       74.2     0.2429         3.
      0.225       74.2     0.2410         2.
      0.225       94.1     0.1496         3.
      0.225       94.1     0.1521         2.
      0.225      110.7     0.1016         3.
      0.225      110.7     0.1038         2.
      0.225      128.5     0.0766         3.
      0.225      128.5     0.0812         2.
      0.225      144.2     0.0768         3.
      0.225      144.2     0.0781         2.
      0.235       23.3     0.9192         2.
      0.235       23.3     0.8940         1.
      0.235       40.1     0.6833         2.
      0.235       40.1     0.7301         1.
      0.235       57.0     0.5117         2.
      0.235       57.0     0.4946         1.
      0.235       74.2     0.3503         2.
      0.235       74.2     0.3615         1.
      0.235       94.1     0.2406         2.
      0.235       94.1     0.2758         1.
      0.235      110.7     0.1827         2.
      0.235      110.7     0.2130         1.
      0.235      128.5     0.1617         2.
      0.235      128.5     0.1463         1.
      0.235      144.2     0.1755         2.
      0.235      144.2     0.1778         1.
      0.245       23.3     1.4071         1.
      0.245       40.1     1.0755         1.
      0.245       57.0     0.7849         1.
      0.245       74.2     0.6025         1.
      0.245       94.1     0.4922         1.
      0.245      110.7     0.3909         1.
      0.245      128.5     0.3588         1.
      0.245      144.2     0.3969         1.
      0.255       23.3     1.6520         1.
      0.255       40.1     1.3650         1.
      0.255       57.0     1.0393         1.
      0.255       74.2     0.7465         1.
      0.255       94.1     0.7011         1.
      0.255      110.7     0.6549         1.
      0.255      128.5     0.6505         1.
      0.255      144.2     0.6861         1.
      0.265       23.3     1.1557         1.
      0.265       40.1     0.9646         1.
      0.265       57.0     0.7434         1.
      0.265       74.2     0.6134         1.
      0.265       94.1     0.6860         1.
      0.265      110.7     0.6395         1.
      0.265      128.5     0.7225         1.
      0.265      144.2     0.7266         1.
      0.275       23.3     0.2378         1.
      0.275       23.3     0.2468         2.
      0.275       40.1     0.2298         1.
      0.275       40.1     0.2396         2.
      0.275       57.0     0.2248         1.
      0.275       57.0     0.1994         2.
      0.275       74.2     0.2547         1.
      0.275       74.2     0.2285         2.
      0.275       94.1     0.2666         1.
      0.275       94.1     0.2631         2.
      0.275      110.7     0.3261         1.
      0.275      110.7     0.3053         2.
      0.275      128.5     0.3491         1.
      0.275      128.5     0.3145         2.
      0.275      144.2     0.3695         1.
      0.275      144.2     0.3736         2.
      0.295       23.3     0.1871         2.
      0.295       40.1     0.1623         2.
      0.295       57.0     0.1673         2.
      0.295       74.2     0.1706         2.
      0.295       94.1     0.2029         2.
      0.295      110.7     0.2783         2.
      0.295      128.5     0.2882         2.
      0.295      144.2     0.3287         2.
      0.345       23.3     0.0583         2.
      0.345       23.3     0.0580         3.
      0.345       40.1     0.0613         2.
      0.345       40.1     0.0611         3.
      0.345       57.0     0.0681         2.
      0.345       57.0     0.0786         3.
      0.345       74.2     0.0940         2.
      0.345       74.2     0.0838         3.
      0.345       94.1     0.1319         2.
      0.345       94.1     0.1331         3.
      0.345      110.7     0.1564         2.
      0.345      110.7     0.1471         3.
      0.345      128.5     0.1607         2.
      0.345      128.5     0.1574         3.
      0.345      144.2     0.1677         2.
      0.345      144.2     0.1680         3.
      0.395       23.3     0.0338         3.
      0.395       40.1     0.0467         3.
      0.395       57.0     0.0613         3.
      0.395       74.2     0.0805         3.
      0.395       94.1     0.0997         3.
      0.395      110.7     0.1028         3.
      0.395      128.5     0.1176         3.
      0.395      144.2     0.1261         3.
      0.495       23.3     0.0334         3.
      0.495       40.1     0.0412         3.
      0.495       57.0     0.0567         3.
      0.495       74.2     0.0702         3.
      0.495       94.1     0.0867         3.
      0.495      110.7     0.0945         3.
      0.495      128.5     0.0986         3.
      0.495      144.2     0.0994         3.
      0.595       23.3     0.0466         3.
      0.595       40.1     0.0576         3.
      0.595       57.0     0.0651         3.
      0.595       74.2     0.0792         3.
      0.595       94.1     0.0795         3.
      0.595      110.7     0.0906         3.
      0.595      128.5     0.0896         3.
      0.595      144.2     0.0934         3.
ENDDATA            170
ENDSUBENT          183
SUBENT        10415004   20030220   20030411
BIB                  6         11
REACTION   (3-LI-6(N,EL)3-LI-6,,DA)
INC-SPECT  For neutron energies of 0.05-0.60 MeV, resolution is
            40 keV.
           For neutron energies of 0.60-2.25 MeV, resolution is
            130 keV at lower end of interval and 80 keV at higher
            end.
SAMPLE     Sample thickness = 0.03614 atoms/barn
MONITOR    (6-C-12(N,EL)6-C-12,,DA)
CORRECTION Corrected for multiple scattering and detector
            efficiency.
HISTORY    (19840423A) MONITOR added.
ENDBIB              11
NOCOMMON             0          0
DATA                 3        224
EN         ANG        DATA
MEV        ADEG       B/SR
      0.050       23.3     0.0419
      0.050       40.1     0.0430
      0.050       57.0     0.0460
      0.050       74.2     0.0435
      0.050       94.1     0.0455
      0.050      110.7     0.0387
      0.050      128.5     0.0369
      0.050      144.2     0.0388
      0.070       23.3     0.0415
      0.070       40.1     0.0419
      0.070       57.0     0.0432
      0.070       74.2     0.0444
      0.070       94.1     0.0504
      0.070      110.7     0.0478
      0.070      128.5     0.0420
      0.070      144.2     0.0398
      0.085       23.3     0.0459
      0.085       40.1     0.0413
      0.085       57.0     0.0415
      0.085       74.2     0.0520
      0.085       94.1     0.0489
      0.085      110.7     0.0503
      0.085      128.5     0.0455
      0.085      144.2     0.0403
      0.100       23.3     0.0465
      0.100       40.1     0.0467
      0.100       57.0     0.0480
      0.100       74.2     0.0541
      0.100       94.1     0.0555
      0.100      110.7     0.0533
      0.100      128.5     0.0447
      0.100      144.2     0.0462
      0.120       23.3     0.0428
      0.120       40.1     0.0470
      0.120       57.0     0.0468
      0.120       74.2     0.0499
      0.120       94.1     0.0558
      0.120      110.7     0.0545
      0.120      128.5     0.0511
      0.120      144.2     0.0510
      0.207       23.3     0.2817
      0.207       40.1     0.2377
      0.207       57.0     0.1933
      0.207       74.2     0.1684
      0.207       94.1     0.1775
      0.207      110.7     0.1974
      0.207      128.5     0.2122
      0.207      144.2     0.2192
      0.307       23.3     0.6800
      0.307       40.1     0.5298
      0.307       57.0     0.3999
      0.307       74.2     0.3111
      0.307       94.1     0.2836
      0.307      110.7     0.2870
      0.307      128.5     0.3073
      0.307      144.2     0.3235
      0.357       23.3     0.4454
      0.357       40.1     0.3534
      0.357       57.0     0.2654
      0.357       74.2     0.1946
      0.357       94.1     0.1719
      0.357      110.7     0.1667
      0.357      128.5     0.1693
      0.357      144.2     0.1750
      0.407       23.3     0.3245
      0.407       40.1     0.2649
      0.407       57.0     0.2005
      0.407       74.2     0.1593
      0.407       94.1     0.1228
      0.407      110.7     0.1174
      0.407      128.5     0.1139
      0.407      144.2     0.1088
      0.430       23.3     0.3052
      0.430       40.1     0.2378
      0.430       57.0     0.1880
      0.430       74.2     0.1467
      0.430       94.1     0.1258
      0.430      110.7     0.1158
      0.430      128.5     0.1092
      0.430      144.2     0.1061
      0.457       23.3     0.2623
      0.457       40.1     0.2113
      0.457       57.0     0.1667
      0.457       74.2     0.1345
      0.457       94.1     0.1043
      0.457      110.7     0.0953
      0.457      128.5     0.0889
      0.457      144.2     0.0848
      0.507       23.3     0.2463
      0.507       40.1     0.1957
      0.507       57.0     0.1523
      0.507       74.2     0.1269
      0.507       94.1     0.0966
      0.507      110.7     0.0875
      0.507      128.5     0.0788
      0.507      144.2     0.0800
      0.530       23.3     0.2342
      0.530       40.1     0.1871
      0.530       57.0     0.1477
      0.530       74.2     0.1145
      0.530       94.1     0.0952
      0.530      110.7     0.0815
      0.530      128.5     0.0738
      0.530      144.2     0.0728
      0.630       23.3     0.1928
      0.630       40.1     0.1678
      0.630       57.0     0.1306
      0.630       74.2     0.1032
      0.630       94.1     0.0854
      0.630      110.7     0.0706
      0.630      128.5     0.0607
      0.630      144.2     0.0574
      0.730       23.3     0.1806
      0.730       40.1     0.1525
      0.730       57.0     0.1248
      0.730       74.2     0.0992
      0.730       94.1     0.0771
      0.730      110.7     0.0635
      0.730      128.5     0.0540
      0.730      144.2     0.0522
      0.830       23.3     0.1734
      0.830       40.1     0.1461
      0.830       57.0     0.1157
      0.830       74.2     0.0980
      0.830       94.1     0.0732
      0.830      110.7     0.0596
      0.830      128.5     0.0536
      0.830      144.2     0.0469
      0.930       23.3     0.1608
      0.930       40.1     0.1400
      0.930       57.0     0.1133
      0.930       74.2     0.0903
      0.930       94.1     0.0738
      0.930      110.7     0.0570
      0.930      128.5     0.0464
      0.930      144.2     0.0421
      1.040       23.3     0.1519
      1.040       40.1     0.1346
      1.040       57.0     0.1104
      1.040       74.2     0.0901
      1.040       94.1     0.0705
      1.040      110.7     0.0542
      1.040      128.5     0.0448
      1.040      144.2     0.0390
      1.140       23.3     0.1459
      1.140       40.1     0.1315
      1.140       57.0     0.1120
      1.140       74.2     0.0931
      1.140       94.1     0.0711
      1.140      110.7     0.0541
      1.140      128.5     0.0434
      1.140      144.2     0.0380
      1.240       23.3     0.1369
      1.240       40.1     0.1273
      1.240       57.0     0.1078
      1.240       74.2     0.0911
      1.240       94.1     0.0710
      1.240      110.7     0.0537
      1.240      128.5     0.0431
      1.240      144.2     0.0382
      1.340       23.3     0.1354
      1.340       40.1     0.1250
      1.340       57.0     0.1065
      1.340       74.2     0.0928
      1.340       94.1     0.0746
      1.340      110.7     0.0569
      1.340      128.5     0.0438
      1.340      144.2     0.0375
      1.440       23.3     0.1346
      1.440       40.1     0.1294
      1.440       57.0     0.1104
      1.440       74.2     0.0940
      1.440       94.1     0.0747
      1.440      110.7     0.0580
      1.440      128.5     0.0452
      1.440      144.2     0.0370
      1.540       23.3     0.1351
      1.540       40.1     0.1218
      1.540       57.0     0.1068
      1.540       74.2     0.0940
      1.540       94.1     0.0736
      1.540      110.7     0.0588
      1.540      128.5     0.0438
      1.540      144.2     0.0405
      1.650       23.3     0.1360
      1.650       40.1     0.1243
      1.650       57.0     0.1095
      1.650       74.2     0.0962
      1.650       94.1     0.0731
      1.650      110.7     0.0610
      1.650      128.5     0.0470
      1.650      144.2     0.0434
      1.750       23.3     0.1358
      1.750       40.1     0.1255
      1.750       57.0     0.1093
      1.750       74.2     0.0930
      1.750       94.1     0.0775
      1.750      110.7     0.0572
      1.750      128.5     0.0494
      1.750      144.2     0.0418
      1.850       23.3     0.1410
      1.850       40.1     0.1280
      1.850       57.0     0.1083
      1.850       74.2     0.0956
      1.850       94.1     0.0813
      1.850      110.7     0.0639
      1.850      128.5     0.0524
      1.850      144.2     0.0485
      1.950       23.3     0.1467
      1.950       40.1     0.1284
      1.950       57.0     0.1140
      1.950       74.2     0.0957
      1.950       94.1     0.0824
      1.950      110.7     0.0667
      1.950      128.5     0.0559
      1.950      144.2     0.0481
      2.250       23.3     0.1477
      2.250       40.1     0.1339
      2.250       57.0     0.1137
      2.250       74.2     0.1003
      2.250       94.1     0.0836
      2.250      110.7     0.0692
      2.250      128.5     0.0632
      2.250      144.2     0.0619
ENDDATA            226
ENDSUBENT          242
SUBENT        10415005   20030220   20030411
BIB                  6         11
REACTION   (3-LI-7(N,SCT)3-LI-7,,DA)
INC-SPECT  For neutron energies of 0.05-0.60 MeV, resolution is
            40 keV.
           For neutron energies of 0.60-2.25 MeV, resolution is
            130 keV at lower end of interval and 80 keV at higher
            end.
SAMPLE     Sample thickness = 0.05612 atoms/barn
MONITOR    (6-C-12(N,EL)6-C-12,,DA)
CORRECTION Corrected for multiple scattering and detector
            efficiency.
HISTORY    (19840423A) MONITOR added.
ENDBIB              11
NOCOMMON             0          0
DATA                 3        240
EN         ANG        DATA
MEV        ADEG       B/SR
      0.050       23.3     0.0780
      0.050       40.1     0.0764
      0.050       57.0     0.0732
      0.050       74.2     0.0692
      0.050       94.1     0.0696
      0.050      110.7     0.0658
      0.050      128.5     0.0515
      0.050      144.2     0.0543
      0.070       23.3     0.0808
      0.070       40.1     0.0790
      0.070       57.0     0.0741
      0.070       74.2     0.0713
      0.070       94.1     0.0681
      0.070      110.7     0.0651
      0.070      128.5     0.0541
      0.070      144.2     0.0531
      0.085       23.3     0.0848
      0.085       40.1     0.0789
      0.085       57.0     0.0786
      0.085       74.2     0.0733
      0.085       94.1     0.0695
      0.085      110.7     0.0609
      0.085      128.5     0.0532
      0.085      144.2     0.0462
      0.100       23.3     0.0862
      0.100       40.1     0.0795
      0.100       57.0     0.0778
      0.100       74.2     0.0695
      0.100       94.1     0.0686
      0.100      110.7     0.0594
      0.100      128.5     0.0541
      0.100      144.2     0.0472
      0.120       23.3     0.0894
      0.120       40.1     0.0858
      0.120       57.0     0.0811
      0.120       74.2     0.0728
      0.120       94.1     0.0657
      0.120      110.7     0.0595
      0.120      128.5     0.0477
      0.120      144.2     0.0481
      0.207       23.3     0.2632
      0.207       40.1     0.2135
      0.207       57.0     0.1714
      0.207       74.2     0.1203
      0.207       94.1     0.0837
      0.207      110.7     0.0621
      0.207      128.5     0.0486
      0.207      144.2     0.0434
      0.257       23.3     0.7532
      0.257       40.1     0.6431
      0.257       57.0     0.4918
      0.257       74.2     0.3849
      0.257       94.1     0.3146
      0.257      110.7     0.2983
      0.257      128.5     0.2892
      0.257      144.2     0.3082
      0.307       23.3     0.3827
      0.307       40.1     0.3125
      0.307       57.0     0.2815
      0.307       74.2     0.2596
      0.307       94.1     0.2832
      0.307      110.7     0.3075
      0.307      128.5     0.3349
      0.307      144.2     0.3547
      0.330       23.3     0.2808
      0.330       40.1     0.2221
      0.330       57.0     0.2019
      0.330       74.2     0.1727
      0.330       94.1     0.1877
      0.330      110.7     0.1787
      0.330      128.5     0.1927
      0.330      144.2     0.1891
      0.357       23.3     0.1082
      0.357       40.1     0.1022
      0.357       57.0     0.1031
      0.357       74.2     0.1145
      0.357       94.1     0.1326
      0.357      110.7     0.1551
      0.357      128.5     0.1694
      0.357      144.2     0.1837
      0.407       23.3     0.0677
      0.407       40.1     0.0697
      0.407       57.0     0.0768
      0.407       74.2     0.0903
      0.407       94.1     0.1064
      0.407      110.7     0.1130
      0.407      128.5     0.1184
      0.407      144.2     0.1280
      0.430       23.3     0.0728
      0.430       40.1     0.0760
      0.430       57.0     0.0814
      0.430       74.2     0.0920
      0.430       94.1     0.1105
      0.430      110.7     0.1181
      0.430      128.5     0.1261
      0.430      144.2     0.1262
      0.457       23.3     0.0535
      0.457       40.1     0.0620
      0.457       57.0     0.0661
      0.457       74.2     0.0826
      0.457       94.1     0.0982
      0.457      110.7     0.1054
      0.457      128.5     0.1066
      0.457      144.2     0.1079
      0.507       23.3     0.0630
      0.507       40.1     0.0572
      0.507       57.0     0.0636
      0.507       74.2     0.0781
      0.507       94.1     0.0889
      0.507      110.7     0.0984
      0.507      128.5     0.1009
      0.507      144.2     0.1022
      0.530       23.3     0.0527
      0.530       40.1     0.0608
      0.530       57.0     0.0645
      0.530       74.2     0.0765
      0.530       94.1     0.0871
      0.530      110.7     0.0928
      0.530      128.5     0.0959
      0.530      144.2     0.0997
      0.630       23.3     0.0588
      0.630       40.1     0.0647
      0.630       57.0     0.0693
      0.630       74.2     0.0768
      0.630       94.1     0.0821
      0.630      110.7     0.0862
      0.630      128.5     0.0869
      0.630      144.2     0.0884
      0.730       23.3     0.0766
      0.730       40.1     0.0762
      0.730       57.0     0.0816
      0.730       74.2     0.0835
      0.730       94.1     0.0894
      0.730      110.7     0.0842
      0.730      128.5     0.0822
      0.730      144.2     0.0836
      0.830       23.3     0.0919
      0.830       40.1     0.0945
      0.830       57.0     0.0942
      0.830       74.2     0.0970
      0.830       94.1     0.0965
      0.830      110.7     0.0929
      0.830      128.5     0.0879
      0.830      144.2     0.0863
      0.930       23.3     0.1133
      0.930       40.1     0.1114
      0.930       57.0     0.1074
      0.930       74.2     0.1076
      0.930       94.1     0.1046
      0.930      110.7     0.0998
      0.930      128.5     0.0915
      0.930      144.2     0.0893
      1.040       23.3     0.1353
      1.040       40.1     0.1247
      1.040       57.0     0.1197
      1.040       74.2     0.1180
      1.040       94.1     0.1083
      1.040      110.7     0.1012
      1.040      128.5     0.0935
      1.040      144.2     0.0933
      1.140       23.3     0.1518
      1.140       40.1     0.1390
      1.140       57.0     0.1290
      1.140       74.2     0.1232
      1.140       94.1     0.1131
      1.140      110.7     0.1061
      1.140      128.5     0.0977
      1.140      144.2     0.0912
      1.240       23.3     0.1558
      1.240       40.1     0.1448
      1.240       57.0     0.1294
      1.240       74.2     0.1238
      1.240       94.1     0.1141
      1.240      110.7     0.1065
      1.240      128.5     0.0976
      1.240      144.2     0.0958
      1.340       23.3     0.1657
      1.340       40.1     0.1523
      1.340       57.0     0.1326
      1.340       74.2     0.1268
      1.340       94.1     0.1146
      1.340      110.7     0.1088
      1.340      128.5     0.0982
      1.340      144.2     0.0975
      1.440       23.3     0.1740
      1.440       40.1     0.1536
      1.440       57.0     0.1381
      1.440       74.2     0.1250
      1.440       94.1     0.1129
      1.440      110.7     0.1040
      1.440      128.5     0.1007
      1.440      144.2     0.0995
      1.540       23.3     0.1784
      1.540       40.1     0.1561
      1.540       57.0     0.1350
      1.540       74.2     0.1200
      1.540       94.1     0.1071
      1.540      110.7     0.1023
      1.540      128.5     0.0960
      1.540      144.2     0.0994
      1.650       23.3     0.1756
      1.650       40.1     0.1607
      1.650       57.0     0.1398
      1.650       74.2     0.1238
      1.650       94.1     0.1096
      1.650      110.7     0.1015
      1.650      128.5     0.0955
      1.650      144.2     0.0978
      1.750       23.3     0.1905
      1.750       40.1     0.1593
      1.750       57.0     0.1400
      1.750       74.2     0.1176
      1.750       94.1     0.1066
      1.750      110.7     0.0974
      1.750      128.5     0.0979
      1.750      144.2     0.0943
      1.850       23.3     0.1966
      1.850       40.1     0.1671
      1.850       57.0     0.1382
      1.850       74.2     0.1216
      1.850       94.1     0.1096
      1.850      110.7     0.0983
      1.850      128.5     0.0952
      1.850      144.2     0.0982
      1.950       23.3     0.2085
      1.950       40.1     0.1747
      1.950       57.0     0.1414
      1.950       74.2     0.1219
      1.950       94.1     0.1047
      1.950      110.7     0.0969
      1.950      128.5     0.0956
      1.950      144.2     0.0998
      2.250       23.3     0.2201
      2.250       40.1     0.1804
      2.250       57.0     0.1416
      2.250       74.2     0.1171
      2.250       94.1     0.1028
      2.250      110.7     0.0955
      2.250      128.5     0.0926
      2.250      144.2     0.0971
ENDDATA            242
ENDSUBENT          258
SUBENT        10415006   20030220   20030411
BIB                  7         14
REACTION   (4-BE-9(N,EL)4-BE-9,,DA)
INC-SPECT  For neutron energies of 0.05-0.60 MeV, resolution is
            40 keV.
           For neutron energies of 0.60-2.25 MeV, resolution is
            130 keV at lower end of interval, 80 keV at higher
            end.
SAMPLE     Sample thickness = 0.00794 atoms/barn
MONITOR    Relative to C, Li or Sn. See FLAG.
CORRECTION Corrected for multiple scattering and detector
            efficiency.
FLAG       (1.) Li standard
           (2.) Sn standard
           (3.) C standard
HISTORY    (19840423A) BIB correction, Flags added, DATA sorted.
ENDBIB              14
NOCOMMON             0          0
DATA                 4        352
EN         ANG        DATA       FLAG
MEV        ADEG       B/SR       NO-DIM
      0.050       23.3     0.5804  3.
      0.050       40.1     0.5440  3.
      0.050       57.0     0.5380  3.
      0.050       74.2     0.4744  3.
      0.050       94.1     0.4515  3.
      0.050      110.7     0.4151  3.
      0.050      128.5     0.3901  3.
      0.050      144.2     0.3679  3.
      0.070       23.3     0.5709  3.
      0.070       40.1     0.5386  3.
      0.070       57.0     0.5343  3.
      0.070       74.2     0.4882  3.
      0.070       94.1     0.4640  3.
      0.070      110.7     0.3977  3.
      0.070      128.5     0.3866  3.
      0.070      144.2     0.3527  3.
      0.085       23.3     0.5574  3.
      0.085       40.1     0.5416  3.
      0.085       57.0     0.5014  3.
      0.085       74.2     0.4868  3.
      0.085       94.1     0.4333  3.
      0.085      110.7     0.4012  3.
      0.085      128.5     0.3662  3.
      0.085      144.2     0.3621  3.
      0.100       23.3     0.5460  3.
      0.100       40.1     0.5183  3.
      0.100       57.0     0.4939  3.
      0.100       74.2     0.4870  3.
      0.100       94.1     0.4280  3.
      0.100      110.7     0.4085  3.
      0.100      128.5     0.3602  3.
      0.100      144.2     0.3800  3.
      0.120       23.3     0.5435  3.
      0.120       40.1     0.5141  3.
      0.120       57.0     0.4911  3.
      0.120       74.2     0.4603  3.
      0.120       94.1     0.4490  3.
      0.120      110.7     0.3954  3.
      0.120      128.5     0.3686  3.
      0.120      144.2     0.3505  3.
      0.157       23.3     0.5185  3.
      0.157       40.1     0.5214  3.
      0.157       57.0     0.4631  3.
      0.157       74.2     0.4490  3.
      0.157       94.1     0.3776  3.
      0.157      110.7     0.3654  3.
      0.157      128.5     0.3398  3.
      0.157      144.2     0.3224  3.
      0.207       23.3     0.4877  3.
      0.207       40.1     0.4649  3.
      0.207       57.0     0.4452  3.
      0.207       74.2     0.4144  3.
      0.207       94.1     0.3847  3.
      0.207      110.7     0.3458  3.
      0.207      128.5     0.3019  3.
      0.207      144.2     0.3025  3.
      0.257       23.3     0.5064  3.
      0.257       40.1     0.4355  3.
      0.257       57.0     0.4252  3.
      0.257       74.2     0.3921  3.
      0.257       94.1     0.3429  3.
      0.257      110.7     0.3128  3.
      0.257      128.5     0.2556  3.
      0.257      144.2     0.2644  3.
      0.307       23.3     0.4587  3.
      0.307       40.1     0.4126  3.
      0.307       57.0     0.3947  3.
      0.307       74.2     0.3675  3.
      0.307       94.1     0.3490  3.
      0.307      110.7     0.2965  3.
      0.307      128.5     0.2701  3.
      0.307      144.2     0.2455  3.
      0.330       23.3     0.4347  3.
      0.330       40.1     0.4198  3.
      0.330       57.0     0.4035  3.
      0.330       74.2     0.3815  3.
      0.330       94.1     0.3364  3.
      0.330      110.7     0.3044  3.
      0.330      128.5     0.2640  3.
      0.330      144.2     0.2565  3.
      0.357       23.3     0.4236  3.
      0.357       40.1     0.4004  3.
      0.357       57.0     0.3684  3.
      0.357       74.2     0.3598  3.
      0.357       94.1     0.3054  3.
      0.357      110.7     0.2830  3.
      0.357      128.5     0.2488  3.
      0.357      144.2     0.2371  3.
      0.407       23.3     0.3953  3.
      0.407       40.1     0.3829  3.
      0.407       57.0     0.3615  3.
      0.407       74.2     0.3312  3.
      0.407       94.1     0.3104  3.
      0.407      110.7     0.2717  3.
      0.407      128.5     0.2385  3.
      0.407      144.2     0.2367  3.
      0.430       23.3     0.3793  3.
      0.430       40.1     0.3664  3.
      0.430       57.0     0.3434  3.
      0.430       74.2     0.3316  3.
      0.430       94.1     0.2949  3.
      0.430      110.7     0.2543  3.
      0.430      128.5     0.2327  3.
      0.430      144.2     0.2016  3.
      0.432       23.3     0.3954  3.
      0.432       40.1     0.3760  3.
      0.432       57.0     0.3602  3.
      0.432       74.2     0.3480  3.
      0.432       94.1     0.3055  3.
      0.432      110.7     0.2636  3.
      0.432      128.5     0.2378  3.
      0.432      144.2     0.2242  3.
      0.457       23.3     0.3654  3.
      0.457       40.1     0.3649  3.
      0.457       57.0     0.3568  3.
      0.457       74.2     0.3372  3.
      0.457       94.1     0.2929  3.
      0.457      110.7     0.2564  3.
      0.457      128.5     0.2250  3.
      0.457      144.2     0.2083  3.
      0.507       23.3     0.3794  3.
      0.507       40.1     0.3549  3.
      0.507       57.0     0.3289  3.
      0.507       74.2     0.3240  3.
      0.507       94.1     0.2795  3.
      0.507      110.7     0.2547  3.
      0.507      128.5     0.2136  3.
      0.507      144.2     0.2055  3.
      0.530       23.3     0.3634  3.
      0.530       40.1     0.3637  3.
      0.530       57.0     0.3419  3.
      0.530       74.2     0.3280  3.
      0.530       94.1     0.2882  3.
      0.530      110.7     0.2619  3.
      0.530      128.5     0.2116  3.
      0.530      144.2     0.2022  3.
      0.630       23.3     0.5294  3.
      0.630       40.1     0.4457  3.
      0.630       57.0     0.3677  3.
      0.630       74.2     0.3177  3.
      0.630       94.1     0.2819  3.
      0.630      110.7     0.2734  3.
      0.630      128.5     0.2700  3.
      0.630      144.2     0.2712  3.
      0.730       23.3     0.5199  3.
      0.730       40.1     0.4157  3.
      0.730       57.0     0.3476  3.
      0.730       74.2     0.2949  3.
      0.730       94.1     0.2555  3.
      0.730      110.7     0.2475  3.
      0.730      128.5     0.2545  3.
      0.730      144.2     0.2482  3.
      0.830       23.3     0.5100  3.
      0.830       40.1     0.4152  3.
      0.830       57.0     0.3552  3.
      0.830       74.2     0.2905  3.
      0.830       94.1     0.2580  3.
      0.830      110.7     0.2139  3.
      0.830      128.5     0.2043  3.
      0.830      144.2     0.1851  3.
      0.930       23.3     0.5038  3.
      0.930       40.1     0.4327  3.
      0.930       57.0     0.3472  3.
      0.930       74.2     0.2923  3.
      0.930       94.1     0.2318  3.
      0.930      110.7     0.1939  3.
      0.930      128.5     0.1413  3.
      0.930      144.2     0.1352  3.
      1.040       23.3     0.5054  3.
      1.040       40.1     0.4231  3.
      1.040       57.0     0.3552  3.
      1.040       74.2     0.2768  3.
      1.040       94.1     0.2230  3.
      1.040      110.7     0.1817  3.
      1.040      128.5     0.1498  3.
      1.040      144.2     0.1234  3.
      1.140       23.3     0.4881  3.
      1.140       40.1     0.4133  3.
      1.140       57.0     0.3185  3.
      1.140       74.2     0.2647  3.
      1.140       94.1     0.2080  3.
      1.140      110.7     0.1609  3.
      1.140      128.5     0.1340  3.
      1.140      144.2     0.1223  3.
      1.240       23.3     0.4707  3.
      1.240       40.1     0.3894  3.
      1.240       57.0     0.3090  3.
      1.240       74.2     0.2387  3.
      1.240       94.1     0.1845  3.
      1.240      110.7     0.1518  3.
      1.240      128.5     0.1218  3.
      1.240      144.2     0.1094  3.
      1.340       23.3     0.4230  3.
      1.340       40.1     0.3639  3.
      1.340       57.0     0.2879  3.
      1.340       74.2     0.2184  3.
      1.340       94.1     0.1610  3.
      1.340      110.7     0.1380  3.
      1.340      128.5     0.1086  3.
      1.340      144.2     0.1000  3.
      1.440       23.3     0.4096  3.
      1.440       40.1     0.3337  3.
      1.440       57.0     0.2758  3.
      1.440       74.2     0.2026  3.
      1.440       94.1     0.1557  3.
      1.440      110.7     0.1203  3.
      1.440      128.5     0.1036  3.
      1.440      144.2     0.0866  3.
      1.540       23.3     0.3628  3.
      1.540       40.1     0.3086  3.
      1.540       57.0     0.2411  3.
      1.540       74.2     0.1768  3.
      1.540       94.1     0.1371  3.
      1.540      110.7     0.1085  3.
      1.540      128.5     0.0947  3.
      1.540      144.2     0.0865  3.
      1.650       23.3     0.3395  3.
      1.650       40.1     0.2710  3.
      1.650       57.0     0.2138  3.
      1.650       74.2     0.1617  3.
      1.650       94.1     0.1065  3.
      1.650      110.7     0.1011  3.
      1.650      128.5     0.0926  3.
      1.650      144.2     0.0873  3.
      1.750       23.3     0.3135  3.
      1.750       23.3     0.3417  1.
      1.750       23.3     0.3385  2.
      1.750       40.1     0.2510  3.
      1.750       40.1     0.2736  1.
      1.750       40.1     0.2711  2.
      1.750       57.0     0.1984  3.
      1.750       57.0     0.2162  1.
      1.750       57.0     0.2142  2.
      1.750       74.2     0.1421  3.
      1.750       74.2     0.1548  1.
      1.750       74.2     0.1534  2.
      1.750       94.1     0.1225  3.
      1.750       94.1     0.1335  1.
      1.750       94.1     0.1323  2.
      1.750      110.7     0.0954  3.
      1.750      110.7     0.1039  1.
      1.750      110.7     0.1030  2.
      1.750      128.5     0.0863  3.
      1.750      128.5     0.0941  1.
      1.750      128.5     0.0932  2.
      1.750      144.2     0.1041  3.
      1.750      144.2     0.1135  1.
      1.750      144.2     0.1124  3.
      1.850       23.3     0.2933  3.
      1.850       23.3     0.3175  1.
      1.850       23.3     0.3106  2.
      1.850       40.1     0.2287  3.
      1.850       40.1     0.2476  1.
      1.850       40.1     0.2422  2.
      1.850       57.0     0.1746  3.
      1.850       57.0     0.1890  1.
      1.850       57.0     0.1849  2.
      1.850       74.2     0.1266  3.
      1.850       74.2     0.1371  1.
      1.850       74.2     0.1341  2.
      1.850       94.1     0.1124  3.
      1.850       94.1     0.1217  1.
      1.850       94.1     0.1190  2.
      1.850      110.7     0.0994  3.
      1.850      110.7     0.1076  1.
      1.850      110.7     0.1053  2.
      1.850      128.5     0.0911  3.
      1.850      128.5     0.0986  1.
      1.850      128.5     0.0964  2.
      1.850      144.2     0.0998  3.
      1.850      144.2     0.1080  1.
      1.850      144.2     0.1057  2.
      1.950       23.3     0.2576  3.
      1.950       23.3     0.2792  1.
      1.950       23.3     0.2725  2.
      1.950       40.1     0.2228  3.
      1.950       40.1     0.2415  1.
      1.950       40.1     0.2357  2.
      1.950       57.0     0.1598  3.
      1.950       57.0     0.1731  1.
      1.950       57.0     0.1690  2.
      1.950       74.2     0.1223  3.
      1.950       74.2     0.1326  1.
      1.950       74.2     0.1294  2.
      1.950       94.1     0.0993  3.
      1.950       94.1     0.1077  1.
      1.950       94.1     0.1051  2.
      1.950      110.7     0.0924  3.
      1.950      110.7     0.1002  1.
      1.950      110.7     0.0978  2.
      1.950      128.5     0.0988  3.
      1.950      128.5     0.1071  1.
      1.950      128.5     0.1045  2.
      1.950      144.2     0.1099  1.
      1.950      144.2     0.1191  1.
      1.950      144.2     0.1162  2.
      2.050       23.3     0.2923  1.
      2.050       23.3     0.2866  2.
      2.050       40.1     0.2281  1.
      2.050       40.1     0.2237  2.
      2.050       57.0     0.1513  1.
      2.050       57.0     0.1484  2.
      2.050       74.2     0.1272  1.
      2.050       74.2     0.1247  2.
      2.050       94.1     0.0995  1.
      2.050       94.1     0.0976  2.
      2.050      110.7     0.0998  1.
      2.050      110.7     0.0979  2.
      2.050      128.5     0.1128  1.
      2.050      128.5     0.1107  2.
      2.050      144.2     0.1331  1.
      2.050      144.2     0.1306  2.
      2.150       23.3     0.3011  2.
      2.150       23.3     0.2994  1.
      2.150       40.1     0.2243  2.
      2.150       40.1     0.2230  1.
      2.150       57.0     0.1491  2.
      2.150       57.0     0.1482  1.
      2.150       74.2     0.1161  2.
      2.150       74.2     0.1154  1.
      2.150       94.1     0.0961  2.
      2.150       94.1     0.0956  1.
      2.150      110.7     0.1149  2.
      2.150      110.7     0.1143  1.
      2.150      128.5     0.1280  2.
      2.150      128.5     0.1274  1.
      2.150      144.2     0.1392  2.
      2.150      144.2     0.1384  1.
      2.250       23.3     0.2915  3.
      2.250       23.3     0.3287  2.
      2.250       23.3     0.3314  1.
      2.250       40.1     0.2143  3.
      2.250       40.1     0.2416  2.
      2.250       40.1     0.2436  1.
      2.250       57.0     0.1309  3.
      2.250       57.0     0.1476  2.
      2.250       57.0     0.1488  1.
      2.250       74.2     0.0959  3.
      2.250       74.2     0.1082  2.
      2.250       74.2     0.1091  1.
      2.250       94.1     0.0880  3.
      2.250       94.1     0.0992  2.
      2.250       94.1     0.1000  1.
      2.250      110.7     0.0962  3.
      2.250      110.7     0.1084  2.
      2.250      110.7     0.1093  1.
      2.250      128.5     0.1133  3.
      2.250      128.5     0.1278  2.
      2.250      128.5     0.1288  1.
      2.250      144.2     0.1436  3.
      2.250      144.2     0.1619  2.
      2.250      144.2     0.1632  1.
ENDDATA            354
ENDSUBENT          373
SUBENT        10415007   20030220   20030411
BIB                  5         10
REACTION   (6-C-12(N,EL)6-C-12,,DA)
INC-SPECT  For neutron energies of 0.05-0.60 MeV, resolution is
            40 keV.
           For neutron energies of 0.60-2.25 MeV, resolution is
            130 keV at lower end of interval, 80 keV at higher
            end.
SAMPLE     Sample thickness = 0.02575 atoms/barn
CORRECTION Corrected for multiple scattering and detector
            efficiency.
HISTORY    (19840423A) REACTION corrected.
ENDBIB              10
NOCOMMON             0          0
DATA                 3        256
EN         ANG        DATA
MEV        ADEG       B/SR
      0.050       23.3     0.4056
      0.050       40.1     0.3927
      0.050       57.0     0.3907
      0.050       74.2     0.3772
      0.050       94.1     0.3593
      0.050      110.7     0.3385
      0.050      128.5     0.3086
      0.050      144.2     0.3108
      0.070       23.3     0.4002
      0.070       40.1     0.3963
      0.070       57.0     0.3915
      0.070       74.2     0.3828
      0.070       94.1     0.3588
      0.070      110.7     0.3461
      0.070      128.5     0.3007
      0.070      144.2     0.3060
      0.085       23.3     0.4107
      0.085       40.1     0.3934
      0.085       57.0     0.3885
      0.085       74.2     0.3765
      0.085       94.1     0.3599
      0.085      110.7     0.3441
      0.085      128.5     0.3116
      0.085      144.2     0.3058
      0.100       23.3     0.4132
      0.100       40.1     0.3961
      0.100       57.0     0.3910
      0.100       74.2     0.3802
      0.100       94.1     0.3536
      0.100      110.7     0.3377
      0.100      128.5     0.3061
      0.100      144.2     0.3017
      0.120       23.3     0.4150
      0.120       40.1     0.3995
      0.120       57.0     0.3940
      0.120       74.2     0.3739
      0.120       94.1     0.3471
      0.120      110.7     0.3341
      0.120      128.5     0.3097
      0.120      144.2     0.3035
      0.157       23.3     0.4159
      0.157       40.1     0.3991
      0.157       57.0     0.3831
      0.157       74.2     0.3620
      0.157       94.1     0.3463
      0.157      110.7     0.3254
      0.157      128.5     0.3025
      0.157      144.2     0.2951
      0.207       23.3     0.4126
      0.207       40.1     0.3987
      0.207       57.0     0.3731
      0.207       74.2     0.3577
      0.207       94.1     0.3314
      0.207      110.7     0.3101
      0.207      128.5     0.2796
      0.207      144.2     0.2746
      0.257       23.3     0.4070
      0.257       40.1     0.3935
      0.257       57.0     0.3675
      0.257       74.2     0.3391
      0.257       94.1     0.3160
      0.257      110.7     0.2950
      0.257      128.5     0.2660
      0.257      144.2     0.2540
      0.307       23.3     0.3890
      0.307       40.1     0.3681
      0.307       57.0     0.3527
      0.307       74.2     0.3395
      0.307       94.1     0.3051
      0.307      110.7     0.2825
      0.307      128.5     0.2448
      0.307      144.2     0.2407
      0.330       23.3     0.3816
      0.330       40.1     0.3627
      0.330       57.0     0.3469
      0.330       74.2     0.3257
      0.330       94.1     0.2936
      0.330      110.7     0.2769
      0.330      128.5     0.2399
      0.330      144.2     0.2376
      0.357       23.3     0.3794
      0.357       40.1     0.3631
      0.357       57.0     0.3419
      0.357       74.2     0.3196
      0.357       94.1     0.2916
      0.357      110.7     0.2667
      0.357      128.5     0.2428
      0.357      144.2     0.2371
      0.407       23.3     0.3758
      0.407       40.1     0.3512
      0.407       57.0     0.3276
      0.407       74.2     0.3108
      0.407       94.1     0.2808
      0.407      110.7     0.2558
      0.407      128.5     0.2277
      0.407      144.2     0.2262
      0.430       23.3     0.3719
      0.430       40.1     0.3442
      0.430       57.0     0.3262
      0.430       74.2     0.3000
      0.430       94.1     0.2754
      0.430      110.7     0.2557
      0.430      128.5     0.2268
      0.430      144.2     0.2191
      0.432       23.3     0.3649
      0.432       40.1     0.3382
      0.432       57.0     0.3281
      0.432       74.2     0.3086
      0.432       94.1     0.2797
      0.432      110.7     0.2538
      0.432      128.5     0.2293
      0.432      144.2     0.2157
      0.457       23.3     0.3591
      0.457       40.1     0.3325
      0.457       57.0     0.3147
      0.457       74.2     0.3028
      0.457       94.1     0.2738
      0.457      110.7     0.2506
      0.457      128.5     0.2212
      0.457      144.2     0.2140
      0.507       23.3     0.3595
      0.507       40.1     0.3318
      0.507       57.0     0.3150
      0.507       74.2     0.2865
      0.507       94.1     0.2597
      0.507      110.7     0.2451
      0.507      128.5     0.2175
      0.507      144.2     0.2071
      0.530       23.3     0.3624
      0.530       40.1     0.3357
      0.530       57.0     0.3073
      0.530       74.2     0.2879
      0.530       94.1     0.2560
      0.530      110.7     0.2319
      0.530      128.5     0.2060
      0.530      144.2     0.2002
      0.630       23.3     0.3474
      0.630       40.1     0.3172
      0.630       57.0     0.2958
      0.630       74.2     0.2702
      0.630       94.1     0.2423
      0.630      110.7     0.2162
      0.630      128.5     0.1936
      0.630      144.2     0.1849
      0.730       23.3     0.3332
      0.730       40.1     0.2992
      0.730       57.0     0.2773
      0.730       74.2     0.2537
      0.730       94.1     0.2308
      0.730      110.7     0.2034
      0.730      128.5     0.1825
      0.730      144.2     0.1720
      0.830       23.3     0.3210
      0.830       40.1     0.2902
      0.830       57.0     0.2610
      0.830       74.2     0.2378
      0.830       94.1     0.2173
      0.830      110.7     0.1929
      0.830      128.5     0.1702
      0.830      144.2     0.1654
      0.930       23.3     0.3103
      0.930       40.1     0.2813
      0.930       57.0     0.2501
      0.930       74.2     0.2258
      0.930       94.1     0.2015
      0.930      110.7     0.1830
      0.930      128.5     0.1582
      0.930      144.2     0.1542
      1.040       23.3     0.2981
      1.040       40.1     0.2668
      1.040       57.0     0.2378
      1.040       74.2     0.2066
      1.040       94.1     0.1913
      1.040      110.7     0.1784
      1.040      128.5     0.1519
      1.040      144.2     0.1475
      1.140       23.3     0.2828
      1.140       40.1     0.2554
      1.140       57.0     0.2290
      1.140       74.2     0.2059
      1.140       94.1     0.1824
      1.140      110.7     0.1631
      1.140      128.5     0.1456
      1.140      144.2     0.1419
      1.240       23.3     0.2708
      1.240       40.1     0.2461
      1.240       57.0     0.2175
      1.240       74.2     0.1936
      1.240       94.1     0.1763
      1.240      110.7     0.1556
      1.240      128.5     0.1411
      1.240      144.2     0.1352
      1.340       23.3     0.2584
      1.340       40.1     0.2340
      1.340       57.0     0.2042
      1.340       74.2     0.1880
      1.340       94.1     0.1670
      1.340      110.7     0.1498
      1.340      128.5     0.1381
      1.340      144.2     0.1304
      1.440       23.3     0.2494
      1.440       40.1     0.2265
      1.440       57.0     0.1995
      1.440       74.2     0.1775
      1.440       94.1     0.1576
      1.440      110.7     0.1446
      1.440      128.5     0.1317
      1.440      144.2     0.1269
      1.540       23.3     0.2332
      1.540       40.1     0.2155
      1.540       57.0     0.1859
      1.540       74.2     0.1669
      1.540       94.1     0.1525
      1.540      110.7     0.1402
      1.540      128.5     0.1259
      1.540      144.2     0.1242
      1.650       23.3     0.2270
      1.650       40.1     0.2057
      1.650       57.0     0.1794
      1.650       74.2     0.1618
      1.650       94.1     0.1407
      1.650      110.7     0.1317
      1.650      128.5     0.1255
      1.650      144.2     0.1186
      1.750       23.3     0.2207
      1.750       40.1     0.1960
      1.750       57.0     0.1703
      1.750       74.2     0.1496
      1.750       94.1     0.1400
      1.750      110.7     0.1253
      1.750      128.5     0.1198
      1.750      144.2     0.1183
      1.850       23.3     0.2096
      1.850       40.1     0.1885
      1.850       57.0     0.1611
      1.850       74.2     0.1457
      1.850       94.1     0.1321
      1.850      110.7     0.1270
      1.850      128.5     0.1178
      1.850      144.2     0.1180
      1.950       23.3     0.1976
      1.950       40.1     0.1811
      1.950       57.0     0.1579
      1.950       74.2     0.1389
      1.950       94.1     0.1279
      1.950      110.7     0.1211
      1.950      128.5     0.1211
      1.950      144.2     0.1172
      2.250       23.3     0.1949
      2.250       40.1     0.1666
      2.250       57.0     0.1335
      2.250       74.2     0.1129
      2.250       94.1     0.1028
      2.250      110.7     0.1103
      2.250      128.5     0.1185
      2.250      144.2     0.1257
ENDDATA            258
ENDSUBENT          273
SUBENT        10415008   20030220   20030411
BIB                  5         10
REACTION   (6-C-0(N,EL)6-C-0,,DA)
INC-SPECT  Resolution = 9-10 keV
CORRECTION Corrected for multiple scattering, detector efficiency,
            and for second group of neutrons from the 7Li source.
FLAG       (1.) Sample ID 6381
           (2.) Sample ID 6121
           (3.) Sample ID 6251
           (4.) Sample ID 6251
HISTORY    (19840423A) BIB correction, flags added, DATA sorted.
           (19860501A) REACTION product added.
ENDBIB              10
NOCOMMON             0          0
DATA                 4        256
EN         ANG        DATA       FLAG
MEV        ADEG       B/SR       NO-DIM
      1.958       23.3     0.1752  1.
      1.958       40.1     0.1621  1.
      1.958       57.0     0.1519  1.
      1.958       74.2     0.1400  1.
      1.958       94.1     0.1298  1.
      1.958      110.7     0.1212  1.
      1.958      128.5     0.1254  1.
      1.958      144.2     0.1288  1.
      2.005       23.3     0.1514  1.
      2.005       40.1     0.1752  1.
      2.005       57.0     0.1521  1.
      2.005       74.2     0.1311  1.
      2.005       94.1     0.1223  1.
      2.005      110.7     0.1207  1.
      2.005      128.5     0.1149  1.
      2.005      144.2     0.1257  1.
      2.028       23.3     0.1594  1.
      2.028       40.1     0.1570  1.
      2.028       57.0     0.1405  1.
      2.028       74.2     0.1314  1.
      2.028       94.1     0.1193  1.
      2.028      110.7     0.1140  1.
      2.028      128.5     0.1163  1.
      2.028      144.2     0.1209  1.
      2.053       23.3     0.1672  1.
      2.053       40.1     0.1491  1.
      2.053       57.0     0.1483  1.
      2.053       74.2     0.1359  1.
      2.053       94.1     0.1161  1.
      2.053      110.7     0.1123  1.
      2.053      128.5     0.1133  1.
      2.053      144.2     0.1315  1.
      2.062       23.3     0.1689  1.
      2.062       23.3     0.1663  3.
      2.062       40.1     0.1529  1.
      2.062       40.1     0.1577  3.
      2.062       57.0     0.1464  1.
      2.062       57.0     0.1428  3.
      2.062       74.2     0.1455  1.
      2.062       74.2     0.1416  3.
      2.062       94.1     0.1175  1.
      2.062       94.1     0.1209  3.
      2.062      110.7     0.1145  1.
      2.062      110.7     0.1104  3.
      2.062      128.5     0.1147  1.
      2.062      128.5     0.1202  3.
      2.062      144.2     0.1455  3.
      2.062      144.2     0.1513  3.
      2.065       23.3     0.1560  3.
      2.065       40.1     0.1514  3.
      2.065       57.0     0.1404  3.
      2.065       74.2     0.1405  3.
      2.065       94.1     0.1071  3.
      2.065      110.7     0.1054  3.
      2.065      128.5     0.1057  3.
      2.065      144.2     0.1537  3.
      2.067       23.3     0.2108  3.
      2.067       23.3     0.1791  1.
      2.067       40.1     0.1574  3.
      2.067       40.1     0.1536  1.
      2.067       57.0     0.1479  3.
      2.067       57.0     0.1393  1.
      2.067       74.2     0.1413  3.
      2.067       74.2     0.1309  1.
      2.067       94.1     0.1294  3.
      2.067       94.1     0.1260  1.
      2.067      110.7     0.1106  3.
      2.067      110.7     0.0991  1.
      2.067      128.5     0.1267  3.
      2.067      128.5     0.1141  1.
      2.067      144.2     0.1631  3.
      2.067      144.2     0.1608  1.
      2.069       23.3     0.2166  3.
      2.069       40.1     0.1797  3.
      2.069       57.0     0.1539  3.
      2.069       74.2     0.1298  3.
      2.069       94.1     0.1206  3.
      2.069      110.7     0.1085  3.
      2.069      128.5     0.1241  3.
      2.069      144.2     0.1886  3.
      2.072       23.3     0.2520  3.
      2.072       23.3     0.2228  1.
      2.072       40.1     0.1878  3.
      2.072       40.1     0.1723  1.
      2.072       57.0     0.1485  3.
      2.072       57.0     0.1558  1.
      2.072       74.2     0.1366  3.
      2.072       74.2     0.1393  1.
      2.072       94.1     0.1152  3.
      2.072       94.1     0.1113  1.
      2.072      110.7     0.0954  3.
      2.072      110.7     0.0935  1.
      2.072      128.5     0.1403  3.
      2.072      128.5     0.1233  1.
      2.072      144.2     0.2164  1.
      2.072      144.2     0.1987  1.
      2.074       23.3     0.3354  1.
      2.074       40.1     0.2230  1.
      2.074       57.0     0.1577  1.
      2.074       74.2     0.1500  1.
      2.074       94.1     0.1181  1.
      2.074      110.7     0.0946  1.
      2.074      128.5     0.1568  1.
      2.074      144.2     0.2871  1.
      2.076       23.3     0.5175  3.
      2.076       23.3     0.5071  1.
      2.076       40.1     0.2812  3.
      2.076       40.1     0.3112  1.
      2.076       57.0     0.1756  3.
      2.076       57.0     0.1846  1.
      2.076       74.2     0.1423  3.
      2.076       74.2     0.1433  1.
      2.076       94.1     0.1074  3.
      2.076       94.1     0.1191  1.
      2.076      110.7     0.1007  3.
      2.076      110.7     0.1082  1.
      2.076      128.5     0.1956  3.
      2.076      128.5     0.2070  1.
      2.076      144.2     0.3698  3.
      2.076      144.2     0.4208  1.
      2.079       23.3     0.9181  3.
      2.079       40.1     0.4560  3.
      2.079       57.0     0.2216  3.
      2.079       74.2     0.1339  3.
      2.079       94.1     0.1137  3.
      2.079      110.7     0.1256  3.
      2.079      128.5     0.3028  3.
      2.079      144.2     0.5938  3.
      2.081       23.3     1.1349  3.
      2.081       23.3     1.0999  4.
      2.081       40.1     0.5837  3.
      2.081       40.1     0.5574  4.
      2.081       57.0     0.2374  3.
      2.081       57.0     0.2357  4.
      2.081       74.2     0.1140  3.
      2.081       74.2     0.1264  4.
      2.081       94.1     0.0898  3.
      2.081       94.1     0.0940  4.
      2.081      110.7     0.1476  3.
      2.081      110.7     0.1458  4.
      2.081      128.5     0.3674  3.
      2.081      128.5     0.3231  4.
      2.081      144.2     0.6585  3.
      2.081      144.2     0.6774  4.
      2.083       23.3     1.1670  3.
      2.083       23.3     1.2049  2.
      2.083       40.1     0.6106  3.
      2.083       40.1     0.5999  2.
      2.083       57.0     0.2291  3.
      2.083       57.0     0.2434  2.
      2.083       74.2     0.0984  3.
      2.083       74.2     0.0820  2.
      2.083       94.1     0.0848  3.
      2.083       94.1     0.0773  2.
      2.083      110.7     0.1625  3.
      2.083      110.7     0.1815  2.
      2.083      128.5     0.3892  3.
      2.083      128.5     0.3921  2.
      2.083      144.2     0.6665  3.
      2.083      144.2     0.6634  2.
      2.086       23.3     1.1023  3.
      2.086       23.3     0.8897  2.
      2.086       23.3     1.0455  3.
      2.086       40.1     0.5188  3.
      2.086       40.1     0.4523  2.
      2.086       40.1     0.5569  3.
      2.086       57.0     0.2266  3.
      2.086       57.0     0.1909  2.
      2.086       57.0     0.2262  3.
      2.086       74.2     0.0746  3.
      2.086       74.2     0.0968  2.
      2.086       74.2     0.0821  3.
      2.086       94.1     0.0982  3.
      2.086       94.1     0.0919  2.
      2.086       94.1     0.0921  3.
      2.086      110.7     0.1705  3.
      2.086      110.7     0.1704  2.
      2.086      110.7     0.1749  3.
      2.086      128.5     0.3740  3.
      2.086      128.5     0.2953  2.
      2.086      128.5     0.3624  3.
      2.086      144.2     0.5347  3.
      2.086      144.2     0.4358  2.
      2.086      144.2     0.5810  3.
      2.088       23.3     0.8914  3.
      2.088       40.1     0.4829  3.
      2.088       57.0     0.2116  3.
      2.088       74.2     0.0830  3.
      2.088       94.1     0.0926  3.
      2.088      110.7     0.1705  3.
      2.088      128.5     0.2890  3.
      2.088      144.2     0.4637  3.
      2.090       23.3     0.6791  3.
      2.090       40.1     0.4093  3.
      2.090       57.0     0.1851  3.
      2.090       74.2     0.0957  3.
      2.090       94.1     0.0995  3.
      2.090      110.7     0.1675  3.
      2.090      128.5     0.2262  3.
      2.090      144.2     0.3631  3.
      2.095       23.3     0.4600  3.
      2.095       40.1     0.3004  3.
      2.095       57.0     0.1650  3.
      2.095       74.2     0.1072  3.
      2.095       94.1     0.1268  3.
      2.095      110.7     0.1515  3.
      2.095      128.5     0.1946  3.
      2.095      144.2     0.2170  3.
      2.100       23.3     0.3582  3.
      2.100       40.1     0.2513  3.
      2.100       57.0     0.1595  3.
      2.100       74.2     0.1075  3.
      2.100       94.1     0.1110  3.
      2.100      110.7     0.1427  3.
      2.100      128.5     0.1665  3.
      2.100      144.2     0.1727  3.
      2.104       23.3     0.2937  3.
      2.104       40.1     0.2310  3.
      2.104       57.0     0.1536  3.
      2.104       74.2     0.1128  3.
      2.104       94.1     0.0999  3.
      2.104      110.7     0.1351  3.
      2.104      128.5     0.1442  3.
      2.104      144.2     0.1623  3.
      2.115       23.3     0.2568  3.
      2.115       40.1     0.2146  3.
      2.115       57.0     0.1447  3.
      2.115       74.2     0.1083  3.
      2.115       94.1     0.1127  3.
      2.115      110.7     0.1229  3.
      2.115      128.5     0.1419  3.
      2.115      144.2     0.1416  3.
      2.129       23.3     0.2349  3.
      2.129       40.1     0.1970  3.
      2.129       57.0     0.1359  3.
      2.129       74.2     0.1236  3.
      2.129       94.1     0.1134  3.
      2.129      110.7     0.1344  3.
      2.129      128.5     0.1324  3.
      2.129      144.2     0.1409  3.
      2.176       23.3     0.2040  1.
      2.176       40.1     0.1654  1.
      2.176       57.0     0.1357  1.
      2.176       74.2     0.1014  1.
      2.176       94.1     0.1075  1.
      2.176      110.7     0.1091  1.
      2.176      128.5     0.1187  1.
      2.176      144.2     0.1234  1.
      2.242       23.3     0.1691  1.
      2.242       40.1     0.1555  1.
      2.242       57.0     0.1280  1.
      2.242       74.2     0.1143  1.
      2.242       94.1     0.1073  1.
      2.242      110.7     0.1021  1.
      2.242      128.5     0.1244  1.
      2.242      144.2     0.1177  1.
ENDDATA            258
ENDSUBENT          273
SUBENT        10415009   20030220   20030411
BIB                  7         11
REACTION   (8-O-0(N,EL)8-O-0,,DA)
INC-SPECT  Resolution = 5-20 keV
SAMPLE     Compound sample SnO2
MONITOR    (6-C-12(N,EL)6-C-12,,DA)
CORRECTION Corrected for multiple scattering, detector efficiency,
            and for second group of neutrons from the 7Li source.
FLAG       (1.) Sample thickness = 0.00874 atoms of 16O/barn.
           (2.) Sample thickness = 0.01980 atoms of 16O/barn.
           (3.) Sample thickness = 0.04152 atoms of 16O/barn.
HISTORY    (19840423A) MONITOR added, Data sorted.
           (19860501A) REACTION product added.
ENDBIB              11
NOCOMMON             0          0
DATA                 4        712
EN         ANG        DATA       FLAG
MEV        ADEG       B/SR       NO-DIM
      0.126       23.3     0.3465         1.
      0.126       40.1     0.3354         1.
      0.126       57.0     0.3745         1.
      0.126       74.2     0.3457         1.
      0.126       94.1     0.3554         1.
      0.126      110.7     0.3483         1.
      0.126      128.5     0.3163         1.
      0.126      144.2     0.3229         1.
      0.166       23.3     0.2351         2.
      0.166       40.1     0.2084         2.
      0.166       57.0     0.2504         2.
      0.166       74.2     0.2656         2.
      0.166       94.1     0.2607         2.
      0.166      110.7     0.2783         2.
      0.166      128.5     0.2360         2.
      0.166      144.2     0.2261         2.
      0.205       23.3     0.1954         2.
      0.205       40.1     0.2039         2.
      0.205       57.0     0.1881         2.
      0.205       74.2     0.2563         2.
      0.205       94.1     0.2512         2.
      0.205      110.7     0.2665         2.
      0.205      128.5     0.2279         2.
      0.205      144.2     0.2442         2.
      0.297       23.3     0.0952         2.
      0.297       40.1     0.1606         2.
      0.297       57.0     0.1860         2.
      0.297       74.2     0.2420         2.
      0.297       94.1     0.2769         2.
      0.297      110.7     0.2684         2.
      0.297      128.5     0.2893         2.
      0.297      144.2     0.3023         2.
      0.326       23.3     0.1170         2.
      0.326       40.1     0.1333         2.
      0.326       57.0     0.1790         2.
      0.326       74.2     0.2512         2.
      0.326       94.1     0.2667         2.
      0.326      110.7     0.2994         2.
      0.326      128.5     0.3298         2.
      0.326      144.2     0.3507         2.
      0.344       23.3     0.0658         2.
      0.344       40.1     0.1773         2.
      0.344       57.0     0.1171         2.
      0.344       74.2     0.2615         2.
      0.344       94.1     0.2746         2.
      0.344      110.7     0.2899         2.
      0.344      128.5     0.3137         2.
      0.344      144.2     0.2960         2.
      0.367       23.3     0.1313         2.
      0.367       40.1     0.1578         2.
      0.367       57.0     0.1590         2.
      0.367       74.2     0.2206         2.
      0.367       94.1     0.2902         2.
      0.367      110.7     0.3793         2.
      0.367      128.5     0.3994         2.
      0.367      144.2     0.4346         2.
      0.385       23.3     0.1739         2.
      0.385       40.1     0.1769         2.
      0.385       57.0     0.2150         2.
      0.385       74.2     0.2553         2.
      0.385       94.1     0.3328         2.
      0.385      110.7     0.3791         2.
      0.385      128.5     0.4720         2.
      0.385      144.2     0.5139         2.
      0.395       23.3     0.2979         2.
      0.395       40.1     0.2503         2.
      0.395       57.0     0.2214         2.
      0.395       74.2     0.2842         2.
      0.395       94.1     0.3927         2.
      0.395      110.7     0.4438         2.
      0.395      128.5     0.5692         2.
      0.395      144.2     0.6224         2.
      0.406       23.3     0.5091         2.
      0.406       40.1     0.3981         2.
      0.406       57.0     0.3462         2.
      0.406       74.2     0.3367         2.
      0.406       94.1     0.4400         2.
      0.406      110.7     0.5211         2.
      0.406      128.5     0.6592         2.
      0.406      144.2     0.7464         2.
      0.417       23.3     0.9072         2.
      0.417       40.1     0.7298         2.
      0.417       57.0     0.5333         2.
      0.417       74.2     0.5012         2.
      0.417       94.1     0.5251         2.
      0.417      110.7     0.6931         2.
      0.417      128.5     0.7786         2.
      0.417      144.2     0.9046         2.
      0.429       23.3     1.9349         1.
      0.429       40.1     1.5784         1.
      0.429       57.0     1.1155         1.
      0.429       74.2     0.7730         1.
      0.429       94.1     0.6974         1.
      0.429      110.7     0.7586         1.
      0.429      128.5     1.0171         1.
      0.429      144.2     1.2075         1.
      0.440       23.3     2.8346         1.
      0.440       40.1     2.2469         1.
      0.440       57.0     1.5959         1.
      0.440       74.2     1.0545         1.
      0.440       94.1     0.7779         1.
      0.440      110.7     0.7541         1.
      0.440      128.5     0.8838         1.
      0.440      144.2     1.0851         1.
      0.451       23.3     2.8688         1.
      0.451       40.1     2.1833         1.
      0.451       57.0     1.5572         1.
      0.451       74.2     0.9866         1.
      0.451       94.1     0.5627         1.
      0.451      110.7     0.4891         1.
      0.451      128.5     0.5162         1.
      0.451      144.2     0.6670         1.
      0.462       23.3     2.4336         1.
      0.462       40.1     1.8595         1.
      0.462       57.0     1.3461         1.
      0.462       74.2     0.8488         1.
      0.462       94.1     0.5028         1.
      0.462      110.7     0.3177         1.
      0.462      128.5     0.3216         1.
      0.462      144.2     0.3555         1.
      0.473       23.3     1.9856         1.
      0.473       40.1     1.4888         1.
      0.473       57.0     1.0634         1.
      0.473       74.2     0.6531         1.
      0.473       94.1     0.4310         1.
      0.473      110.7     0.2493         1.
      0.473      128.5     0.2097         1.
      0.473      144.2     0.1648         1.
      0.490       23.3     1.1107         2.
      0.490       40.1     0.9543         2.
      0.490       57.0     0.6895         2.
      0.490       74.2     0.4517         2.
      0.490       94.1     0.2602         2.
      0.490      110.7     0.1646         2.
      0.490      128.5     0.0977         2.
      0.490      144.2     0.0829         2.
      0.512       23.3     0.7537         2.
      0.512       40.1     0.6706         2.
      0.512       57.0     0.5065         2.
      0.512       74.2     0.3560         2.
      0.512       94.1     0.2149         2.
      0.512      110.7     0.1548         2.
      0.512      128.5     0.0907         2.
      0.512      144.2     0.0559         2.
      0.539       23.3     0.5772         2.
      0.539       40.1     0.5154         2.
      0.539       57.0     0.4349         2.
      0.539       74.2     0.3159         2.
      0.539       94.1     0.2315         2.
      0.539      110.7     0.1469         2.
      0.539      128.5     0.1065         2.
      0.539      144.2     0.0669         2.
      0.572       23.3     0.4724         2.
      0.572       40.1     0.3958         2.
      0.572       57.0     0.3520         2.
      0.572       74.2     0.2888         2.
      0.572       94.1     0.2363         2.
      0.572      110.7     0.1650         2.
      0.572      128.5     0.1189         2.
      0.572      144.2     0.0803         2.
      0.615       23.3     0.3963         2.
      0.615       40.1     0.3752         2.
      0.615       57.0     0.3186         2.
      0.615       74.2     0.2872         2.
      0.615       94.1     0.2156         2.
      0.615      110.7     0.1800         2.
      0.615      128.5     0.1283         2.
      0.615      144.2     0.1144         2.
      0.642       23.3     0.3844         2.
      0.642       40.1     0.3605         2.
      0.642       57.0     0.3250         2.
      0.642       74.2     0.2824         2.
      0.642       94.1     0.2295         2.
      0.642      110.7     0.1785         2.
      0.642      128.5     0.1348         2.
      0.642      144.2     0.1172         2.
      0.680       23.3     0.3177         2.
      0.680       40.1     0.3155         2.
      0.680       57.0     0.2886         2.
      0.680       74.2     0.2584         2.
      0.680       94.1     0.2121         2.
      0.680      110.7     0.1689         2.
      0.680      128.5     0.1477         2.
      0.680      144.2     0.1238         2.
      0.722       23.3     0.3095         2.
      0.722       40.1     0.2947         2.
      0.722       57.0     0.2728         2.
      0.722       74.2     0.2508         2.
      0.722       94.1     0.2125         2.
      0.722      110.7     0.1612         2.
      0.722      128.5     0.1432         2.
      0.722      144.2     0.1124         2.
      0.760       23.3     0.2785         2.
      0.760       40.1     0.2853         2.
      0.760       57.0     0.2582         2.
      0.760       74.2     0.2583         2.
      0.760       94.1     0.2077         2.
      0.760      110.7     0.1749         2.
      0.760      128.5     0.1479         2.
      0.760      144.2     0.1334         2.
      0.796       23.3     0.2779         2.
      0.796       40.1     0.2299         2.
      0.796       57.0     0.2767         2.
      0.796       74.2     0.2368         2.
      0.796       94.1     0.2195         2.
      0.796      110.7     0.1796         2.
      0.796      128.5     0.1560         2.
      0.796      144.2     0.1053         2.
      0.817       23.3     0.2270         2.
      0.817       40.1     0.2569         2.
      0.817       57.0     0.2546         2.
      0.817       74.2     0.2347         2.
      0.817       94.1     0.2210         2.
      0.817      110.7     0.1867         2.
      0.817      128.5     0.1532         2.
      0.817      144.2     0.1334         2.
      0.849       23.3     0.2571         2.
      0.849       40.1     0.2431         2.
      0.849       57.0     0.2588         2.
      0.849       74.2     0.2418         2.
      0.849       94.1     0.2347         2.
      0.849      110.7     0.1850         2.
      0.849      128.5     0.1689         2.
      0.849      144.2     0.1535         2.
      0.854       23.3     0.2279         2.
      0.854       40.1     0.2456         2.
      0.854       57.0     0.2597         2.
      0.854       74.2     0.2394         2.
      0.854       94.1     0.2229         2.
      0.854      110.7     0.1952         2.
      0.854      128.5     0.1639         2.
      0.854      144.2     0.1494         2.
      0.880       23.3     0.2274         2.
      0.880       40.1     0.2680         2.
      0.880       57.0     0.2669         2.
      0.880       74.2     0.2713         2.
      0.880       94.1     0.2355         2.
      0.880      110.7     0.2077         2.
      0.880      128.5     0.1854         2.
      0.880      144.2     0.1812         2.
      0.912       23.3     0.2677         2.
      0.912       40.1     0.2583         2.
      0.912       57.0     0.2834         2.
      0.912       74.2     0.2620         2.
      0.912       94.1     0.2414         2.
      0.912      110.7     0.2227         2.
      0.912      128.5     0.2149         2.
      0.912      144.2     0.2208         2.
      0.933       23.3     0.2362         2.
      0.933       40.1     0.3197         2.
      0.933       57.0     0.2733         2.
      0.933       74.2     0.2693         2.
      0.933       94.1     0.2142         2.
      0.933      110.7     0.2090         2.
      0.933      128.5     0.2209         2.
      0.933      144.2     0.2525         2.
      0.953       23.3     0.4193         2.
      0.953       40.1     0.3811         2.
      0.953       57.0     0.3120         2.
      0.953       74.2     0.2407         2.
      0.953       94.1     0.2410         2.
      0.953      110.7     0.2627         2.
      0.953      128.5     0.3153         2.
      0.953      144.2     0.3859         2.
      0.974       23.3     0.9329         1.
      0.974       40.1     0.7240         1.
      0.974       57.0     0.4727         1.
      0.974       74.2     0.3142         1.
      0.974       94.1     0.2452         1.
      0.974      110.7     0.3290         1.
      0.974      128.5     0.4430         1.
      0.974      144.2     0.6345         1.
      0.995       23.3     1.3709         1.
      0.995       40.1     0.9620         1.
      0.995       57.0     0.5139         1.
      0.995       74.2     0.2849         1.
      0.995       94.1     0.1932         1.
      0.995      110.7     0.3389         1.
      0.995      128.5     0.6503         1.
      0.995      144.2     0.8204         1.
      1.016       23.3     1.4171         1.
      1.016       23.3     1.5238         1.
      1.016       40.1     0.9305         1.
      1.016       40.1     1.0218         1.
      1.016       57.0     0.5463         1.
      1.016       57.0     0.5289         1.
      1.016       74.2     0.1826         1.
      1.016       74.2     0.1835         1.
      1.016       94.1     0.1437         1.
      1.016       94.1     0.1457         1.
      1.016      110.7     0.3472         1.
      1.016      110.7     0.3167         1.
      1.016      128.5     0.6270         1.
      1.016      128.5     0.6748         1.
      1.016      144.2     0.9435         1.
      1.016      144.2     0.9834         1.
      1.037       23.3     1.2382         1.
      1.037       40.1     0.9036         1.
      1.037       57.0     0.4635         1.
      1.037       74.2     0.1550         1.
      1.037       94.1     0.1200         1.
      1.037      110.7     0.2624         1.
      1.037      128.5     0.5607         1.
      1.037      144.2     0.8855         1.
      1.078       23.3     0.9169         1.
      1.078       40.1     0.6730         1.
      1.078       57.0     0.3445         1.
      1.078       74.2     0.1184         1.
      1.078       94.1     0.0950         1.
      1.078      110.7     0.2183         1.
      1.078      128.5     0.4147         1.
      1.078      144.2     0.6297         1.
      1.176       23.3     0.3835         2.
      1.176       40.1     0.3080         2.
      1.176       57.0     0.1974         2.
      1.176       74.2     0.1249         2.
      1.176       94.1     0.1121         2.
      1.176      110.7     0.1493         2.
      1.176      128.5     0.2538         2.
      1.176      144.2     0.3866         2.
      1.205       23.3     0.2588         3.
      1.205       40.1     0.1731         3.
      1.205       57.0     0.1413         3.
      1.205       74.2     0.1020         3.
      1.205       94.1     0.1120         3.
      1.205      110.7     0.1196         3.
      1.205      128.5     0.1900         3.
      1.205      144.2     0.2601         3.
      1.225       23.3     0.2551         3.
      1.225       40.1     0.1719         3.
      1.225       57.0     0.1375         3.
      1.225       74.2     0.0973         3.
      1.225       94.1     0.1073         3.
      1.225      110.7     0.1275         3.
      1.225      128.5     0.1953         3.
      1.225      144.2     0.2427         3.
      1.249       23.3     0.2539         2.
      1.249       40.1     0.2365         2.
      1.249       57.0     0.1881         2.
      1.249       74.2     0.1412         2.
      1.249       94.1     0.1289         2.
      1.249      110.7     0.1449         2.
      1.249      128.5     0.2006         2.
      1.249      144.2     0.3016         2.
      1.261       23.3     0.2072         3.
      1.261       40.1     0.1794         3.
      1.261       57.0     0.1560         3.
      1.261       74.2     0.1267         3.
      1.261       94.1     0.1260         3.
      1.261      110.7     0.1323         3.
      1.261      128.5     0.2045         3.
      1.261      144.2     0.2687         3.
      1.271       23.3     0.2365         3.
      1.271       40.1     0.2092         3.
      1.271       57.0     0.1783         3.
      1.271       74.2     0.1495         3.
      1.271       94.1     0.1257         3.
      1.271      110.7     0.1393         3.
      1.271      128.5     0.1935         3.
      1.271      144.2     0.2740         3.
      1.282       23.3     0.3514         2.
      1.282       40.1     0.3085         2.
      1.282       57.0     0.2721         2.
      1.282       74.2     0.1935         2.
      1.282       94.1     0.1440         2.
      1.282      110.7     0.1466         2.
      1.282      128.5     0.2290         2.
      1.282      144.2     0.3232         2.
      1.288       23.3     0.4242         2.
      1.288       40.1     0.3191         2.
      1.288       57.0     0.2997         2.
      1.288       74.2     0.2035         2.
      1.288       94.1     0.1527         2.
      1.288      110.7     0.1401         2.
      1.288      128.5     0.2116         2.
      1.288      144.2     0.2916         2.
      1.294       23.3     0.5542         2.
      1.294       40.1     0.5107         2.
      1.294       57.0     0.3819         2.
      1.294       74.2     0.2675         2.
      1.294       94.1     0.1694         2.
      1.294      110.7     0.1646         2.
      1.294      128.5     0.2500         2.
      1.294      144.2     0.3444         2.
      1.300       23.3     0.6626         2.
      1.300       40.1     0.5761         2.
      1.300       57.0     0.4463         2.
      1.300       74.2     0.2817         2.
      1.300       94.1     0.1868         2.
      1.300      110.7     0.1667         2.
      1.300      128.5     0.2293         2.
      1.300      144.2     0.3341         2.
      1.306       23.3     0.8299         2.
      1.306       40.1     0.6971         2.
      1.306       57.0     0.5075         2.
      1.306       74.2     0.3129         2.
      1.306       94.1     0.2028         2.
      1.306      110.7     0.1612         2.
      1.306      128.5     0.2223         2.
      1.306      144.2     0.3210         2.
      1.312       23.3     1.1062         2.
      1.312       40.1     0.8971         2.
      1.312       57.0     0.5814         2.
      1.312       74.2     0.3488         2.
      1.312       94.1     0.2387         2.
      1.312      110.7     0.1950         2.
      1.312      128.5     0.2228         2.
      1.312      144.2     0.3219         2.
      1.318       23.3     1.3278         2.
      1.318       40.1     1.0111         2.
      1.318       57.0     0.6741         2.
      1.318       74.2     0.3743         2.
      1.318       94.1     0.2329         2.
      1.318      110.7     0.2029         2.
      1.318      128.5     0.2156         2.
      1.318      144.2     0.2917         2.
      1.325       23.3     1.2920         2.
      1.325       40.1     0.9947         2.
      1.325       57.0     0.6143         2.
      1.325       74.2     0.3356         2.
      1.325       94.1     0.2295         2.
      1.325      110.7     0.2008         2.
      1.325      128.5     0.1942         2.
      1.325      144.2     0.1878         2.
      1.331       23.3     1.1578         2.
      1.331       40.1     0.8533         2.
      1.331       57.0     0.4991         2.
      1.331       74.2     0.3030         2.
      1.331       94.1     0.1896         2.
      1.331      110.7     0.1664         2.
      1.331      128.5     0.1374         2.
      1.331      144.2     0.1298         2.
      1.338       23.3     1.1107         2.
      1.338       40.1     0.7897         2.
      1.338       57.0     0.4682         2.
      1.338       74.2     0.2750         2.
      1.338       94.1     0.1872         2.
      1.338      110.7     0.1710         2.
      1.338      128.5     0.1507         2.
      1.338      144.2     0.1089         2.
      1.346       23.3     0.8759         2.
      1.346       40.1     0.6394         2.
      1.346       57.0     0.3639         2.
      1.346       74.2     0.2124         2.
      1.346       94.1     0.1606         2.
      1.346      110.7     0.1523         2.
      1.346      128.5     0.1289         2.
      1.346      144.2     0.1034         2.
      1.354       23.3     0.7673         2.
      1.354       40.1     0.5308         2.
      1.354       57.0     0.2914         2.
      1.354       74.2     0.1729         2.
      1.354       94.1     0.1457         2.
      1.354      110.7     0.1438         2.
      1.354      128.5     0.1131         2.
      1.354      144.2     0.0994         2.
      1.362       23.3     0.6838         2.
      1.362       40.1     0.4540         2.
      1.362       57.0     0.2722         2.
      1.362       74.2     0.1658         2.
      1.362       94.1     0.1505         2.
      1.362      110.7     0.1549         2.
      1.362      128.5     0.1190         2.
      1.362      144.2     0.1011         2.
      1.370       23.3     0.6611         2.
      1.370       40.1     0.4350         2.
      1.370       57.0     0.2499         2.
      1.370       74.2     0.1658         2.
      1.370       94.1     0.1606         2.
      1.370      110.7     0.1438         2.
      1.370      128.5     0.1205         2.
      1.370      144.2     0.1019         2.
      1.385       23.3     0.4283         2.
      1.385       23.3     0.4092         3.
      1.385       40.1     0.3394         2.
      1.385       40.1     0.2704         3.
      1.385       57.0     0.1820         2.
      1.385       57.0     0.1917         3.
      1.385       74.2     0.1493         2.
      1.385       74.2     0.1426         3.
      1.385       94.1     0.1489         2.
      1.385       94.1     0.1311         3.
      1.385      110.7     0.1421         2.
      1.385      110.7     0.1303         3.
      1.385      128.5     0.1154         2.
      1.385      128.5     0.1108         3.
      1.385      144.2     0.1286         2.
      1.385      144.2     0.0912         3.
      1.405       23.3     0.4157         3.
      1.405       40.1     0.2595         3.
      1.405       57.0     0.1987         3.
      1.405       74.2     0.1298         3.
      1.405       94.1     0.1380         3.
      1.405      110.7     0.1329         3.
      1.405      128.5     0.1281         3.
      1.405      144.2     0.1216         3.
      1.435       23.3     0.2710         3.
      1.435       40.1     0.1871         3.
      1.435       57.0     0.1437         3.
      1.435       74.2     0.0995         3.
      1.435       94.1     0.1214         3.
      1.435      110.7     0.1233         3.
      1.435      128.5     0.1254         3.
      1.435      144.2     0.1186         3.
      1.475       23.3     0.1989         3.
      1.475       40.1     0.1142         3.
      1.475       57.0     0.1130         3.
      1.475       74.2     0.0903         3.
      1.475       94.1     0.1190         3.
      1.475      110.7     0.1071         3.
      1.475      128.5     0.1147         3.
      1.475      144.2     0.0973         3.
      1.525       23.3     0.0919         3.
      1.525       40.1     0.1058         3.
      1.525       57.0     0.0744         3.
      1.525       74.2     0.0851         3.
      1.525       94.1     0.0910         3.
      1.525      110.7     0.0911         3.
      1.525      128.5     0.0821         3.
      1.525      144.2     0.0725         3.
      1.581       23.3     0.1340         3.
      1.581       40.1     0.1465         3.
      1.581       57.0     0.1076         3.
      1.581       74.2     0.1156         3.
      1.581       94.1     0.0991         3.
      1.581      110.7     0.1172         3.
      1.581      128.5     0.0869         3.
      1.581      144.2     0.1182         3.
      1.607       23.3     0.1321         3.
      1.607       40.1     0.0729         3.
      1.607       57.0     0.0804         3.
      1.607       74.2     0.0770         3.
      1.607       94.1     0.1004         3.
      1.607      110.7     0.0979         3.
      1.607      128.5     0.1022         3.
      1.607      144.2     0.1120         3.
      1.643       23.3     0.1364         3.
      1.643       40.1     0.1250         3.
      1.643       57.0     0.1239         3.
      1.643       74.2     0.1324         3.
      1.643       94.1     0.1140         3.
      1.643      110.7     0.1220         3.
      1.643      128.5     0.1001         3.
      1.643      144.2     0.1069         3.
      1.646       23.3     0.1638         3.
      1.646       40.1     0.1121         3.
      1.646       57.0     0.1319         3.
      1.646       74.2     0.1223         3.
      1.646       94.1     0.1261         3.
      1.646      110.7     0.1190         3.
      1.646      128.5     0.1084         3.
      1.646      144.2     0.1092         3.
      1.647       23.3     0.1888         3.
      1.647       40.1     0.1592         3.
      1.647       57.0     0.1374         3.
      1.647       74.2     0.1369         3.
      1.647       94.1     0.1319         3.
      1.647      110.7     0.1345         3.
      1.647      128.5     0.1081         3.
      1.647      144.2     0.1275         3.
      1.650       23.3     0.1583         3.
      1.650       40.1     0.1945         3.
      1.650       57.0     0.1372         3.
      1.650       74.2     0.1412         3.
      1.650       94.1     0.1325         3.
      1.650      110.7     0.1633         3.
      1.650      128.5     0.1110         3.
      1.650      144.2     0.1346         3.
      1.652       23.3     0.2410         3.
      1.652       40.1     0.2033         3.
      1.652       57.0     0.1519         3.
      1.652       74.2     0.1496         3.
      1.652       94.1     0.1767         3.
      1.652      110.7     0.1849         3.
      1.652      128.5     0.1264         3.
      1.652      144.2     0.1577         3.
      1.653       23.3     0.2587         3.
      1.653       40.1     0.2148         3.
      1.653       57.0     0.1563         3.
      1.653       74.2     0.1297         3.
      1.653       94.1     0.1846         3.
      1.653      110.7     0.1958         3.
      1.653      128.5     0.1629         3.
      1.653      144.2     0.1642         3.
      1.655       23.3     0.3484         3.
      1.655       40.1     0.2457         3.
      1.655       57.0     0.1503         3.
      1.655       74.2     0.1538         3.
      1.655       94.1     0.2224         3.
      1.655      110.7     0.2798         3.
      1.655      128.5     0.1898         3.
      1.655      144.2     0.1846         3.
      1.657       23.3     0.6925         3.
      1.657       40.1     0.2735         3.
      1.657       57.0     0.1114         3.
      1.657       74.2     0.1633         3.
      1.657       94.1     0.3301         3.
      1.657      110.7     0.4282         3.
      1.657      128.5     0.3442         3.
      1.657      144.2     0.2911         3.
      1.658       23.3     0.8384         3.
      1.658       40.1     0.2622         3.
      1.658       57.0     0.0959         3.
      1.658       74.2     0.1603         3.
      1.658       94.1     0.3523         3.
      1.658      110.7     0.5014         3.
      1.658      128.5     0.3843         3.
      1.658      144.2     0.3085         3.
      1.659       23.3     0.8634         3.
      1.659       23.3     0.9155         3.
      1.659       40.1     0.2208         3.
      1.659       40.1     0.2374         3.
      1.659       57.0     0.0575         3.
      1.659       57.0     0.0717         3.
      1.659       74.2     0.1488         3.
      1.659       74.2     0.1744         3.
      1.659       94.1     0.3262         3.
      1.659       94.1     0.3715         3.
      1.659      110.7     0.4791         3.
      1.659      110.7     0.5101         3.
      1.659      128.5     0.4313         3.
      1.659      128.5     0.4363         3.
      1.659      144.2     0.3114         3.
      1.659      144.2     0.3509         3.
      1.660       23.3     0.8302         3.
      1.660       40.1     0.1847         3.
      1.660       57.0     0.0499         3.
      1.660       74.2     0.1567         3.
      1.660       94.1     0.3102         3.
      1.660      110.7     0.4570         3.
      1.660      128.5     0.3841         3.
      1.660      144.2     0.3178         3.
      1.661       23.3     0.6963         3.
      1.661       40.1     0.1510         3.
      1.661       57.0     0.0427         3.
      1.661       74.2     0.1551         3.
      1.661       94.1     0.2685         3.
      1.661      110.7     0.3918         3.
      1.661      128.5     0.3373         3.
      1.661      144.2     0.2934         3.
      1.662       23.3     0.5943         3.
      1.662       40.1     0.1374         3.
      1.662       57.0     0.0387         3.
      1.662       74.2     0.1390         3.
      1.662       94.1     0.2600         3.
      1.662      110.7     0.3481         3.
      1.662      128.5     0.3239         3.
      1.662      144.2     0.2456         3.
      1.663       23.3     0.5229         3.
      1.663       40.1     0.0812         3.
      1.663       57.0     0.0370         3.
      1.663       74.2     0.1313         3.
      1.663       94.1     0.1913         3.
      1.663      110.7     0.2749         3.
      1.663      128.5     0.2647         3.
      1.663      144.2     0.2298         3.
      1.665       23.3     0.3990         3.
      1.665       23.3     0.4186         3.
      1.665       40.1     0.1114         3.
      1.665       40.1     0.0998         3.
      1.665       57.0     0.0552         3.
      1.665       57.0     0.0425         3.
      1.665       74.2     0.1248         3.
      1.665       74.2     0.1181         3.
      1.665       94.1     0.1570         3.
      1.665       94.1     0.1739         3.
      1.665      110.7     0.2293         3.
      1.665      110.7     0.2393         3.
      1.665      128.5     0.2339         3.
      1.665      128.5     0.2465         3.
      1.665      144.2     0.2194         3.
      1.665      144.2     0.2141         3.
      1.667       23.3     0.3021         3.
      1.667       40.1     0.1104         3.
      1.667       57.0     0.0641         3.
      1.667       74.2     0.1219         3.
      1.667       94.1     0.1554         3.
      1.667      110.7     0.1752         3.
      1.667      128.5     0.2007         3.
      1.667      144.2     0.1170         3.
      1.669       23.3     0.2415         3.
      1.669       40.1     0.0911         3.
      1.669       57.0     0.0546         3.
      1.669       74.2     0.1060         3.
      1.669       94.1     0.1297         3.
      1.669      110.7     0.1576         3.
      1.669      128.5     0.1697         3.
      1.669      144.2     0.1787         3.
      1.672       23.3     0.1713         3.
      1.672       40.1     0.0941         3.
      1.672       57.0     0.0475         3.
      1.672       74.2     0.1033         3.
      1.672       94.1     0.1179         3.
      1.672      110.7     0.1425         3.
      1.672      128.5     0.1568         3.
      1.672      144.2     0.1508         3.
      1.677       23.3     0.1809         3.
      1.677       40.1     0.1401         3.
      1.677       57.0     0.0740         3.
      1.677       74.2     0.1062         3.
      1.677       94.1     0.1060         3.
      1.677      110.7     0.1158         3.
      1.677      128.5     0.1375         3.
      1.677      144.2     0.1434         3.
      1.687       23.3     0.1524         3.
      1.687       40.1     0.0767         3.
      1.687       57.0     0.0834         3.
      1.687       74.2     0.1226         3.
      1.687       94.1     0.1192         3.
      1.687      110.7     0.1121         3.
      1.687      128.5     0.1381         3.
      1.687      144.2     0.1301         3.
ENDDATA            714
ENDSUBENT          730
SUBENT        10415010   20030220   20030411
BIB                  6          9
REACTION   (14-SI-0(N,EL)14-SI-0,,DA)
INC-SPECT  Resolution = 100 keV at lower end of energy interval
            and 60 keV at higher end
SAMPLE     Sample thickness = 0.01602 atoms/barn
MONITOR    (6-C-12(N,EL)6-C-12,,DA)
CORRECTION Corrected for multiple scattering and detector
            efficiency.
HISTORY    (19840423A) MONITOR added.
           (19860501A) REACTION product added.
ENDBIB               9
NOCOMMON             0          0
DATA                 3        192
EN         ANG        DATA
MEV        ADEG       B/SR
      0.030       23.3     0.1613
      0.030       40.1     0.1567
      0.030       57.0     0.1534
      0.030       74.2     0.1664
      0.030       94.1     0.1752
      0.030      110.7     0.1729
      0.030      128.5     0.1614
      0.030      144.2     0.1380
      0.050       23.3     0.1471
      0.050       40.1     0.1480
      0.050       57.0     0.1676
      0.050       74.2     0.1532
      0.050       94.1     0.1633
      0.050      110.7     0.1492
      0.050      128.5     0.1488
      0.050      144.2     0.1343
      0.130       23.3     0.1183
      0.130       40.1     0.1289
      0.130       57.0     0.1207
      0.130       74.2     0.1346
      0.130       94.1     0.1286
      0.130      110.7     0.1228
      0.130      128.5     0.1179
      0.130      144.2     0.1120
      0.210       23.3     0.3354
      0.210       40.1     0.3159
      0.210       57.0     0.3183
      0.210       74.2     0.3153
      0.210       94.1     0.3055
      0.210      110.7     0.2904
      0.210      128.5     0.2717
      0.210      144.2     0.2632
      0.290       23.3     0.4627
      0.290       40.1     0.4722
      0.290       57.0     0.4434
      0.290       74.2     0.4239
      0.290       94.1     0.3666
      0.290      110.7     0.3748
      0.290      128.5     0.3293
      0.290      144.2     0.3295
      0.370       23.3     0.3549
      0.370       40.1     0.3292
      0.370       57.0     0.3205
      0.370       74.2     0.2918
      0.370       94.1     0.2654
      0.370      110.7     0.2286
      0.370      128.5     0.2067
      0.370      144.2     0.1948
      0.450       23.3     0.2851
      0.450       40.1     0.2757
      0.450       57.0     0.2565
      0.450       74.2     0.2372
      0.450       94.1     0.2189
      0.450      110.7     0.1966
      0.450      128.5     0.1723
      0.450      144.2     0.1636
      0.530       23.3     0.2817
      0.530       40.1     0.2691
      0.530       57.0     0.2595
      0.530       74.2     0.2466
      0.530       94.1     0.2207
      0.530      110.7     0.1955
      0.530      128.5     0.1741
      0.530      144.2     0.1605
      0.610       23.3     0.5338
      0.610       40.1     0.4369
      0.610       57.0     0.3634
      0.610       74.2     0.2783
      0.610       94.1     0.2208
      0.610      110.7     0.1738
      0.610      128.5     0.1691
      0.610      144.2     0.1658
      0.690       23.3     0.3105
      0.690       40.1     0.3012
      0.690       57.0     0.2441
      0.690       74.2     0.2175
      0.690       94.1     0.1758
      0.690      110.7     0.1522
      0.690      128.5     0.1367
      0.690      144.2     0.1184
      0.770       23.3     0.3309
      0.770       40.1     0.2854
      0.770       57.0     0.2478
      0.770       74.2     0.2175
      0.770       94.1     0.1988
      0.770      110.7     0.1558
      0.770      128.5     0.1917
      0.770      144.2     0.1182
      0.850       23.3     0.6868
      0.850       40.1     0.5605
      0.850       57.0     0.4438
      0.850       74.2     0.3173
      0.850       94.1     0.2365
      0.850      110.7     0.1830
      0.850      128.5     0.1601
      0.850      144.2     0.1474
      0.930       23.3     0.6060
      0.930       40.1     0.5100
      0.930       57.0     0.4353
      0.930       74.2     0.3435
      0.930       94.1     0.2652
      0.930      110.7     0.1994
      0.930      128.5     0.1568
      0.930      144.2     0.1273
      1.010       23.3     0.7976
      1.010       40.1     0.6659
      1.010       57.0     0.4868
      1.010       74.2     0.3320
      1.010       94.1     0.2001
      1.010      110.7     0.1258
      1.010      128.5     0.1066
      1.010      144.2     0.1149
      1.090       23.3     0.5603
      1.090       40.1     0.4472
      1.090       57.0     0.3325
      1.090       74.2     0.2161
      1.090       94.1     0.1366
      1.090      110.7     0.0884
      1.090      128.5     0.0703
      1.090      144.2     0.0742
      1.170       23.3     0.4274
      1.170       40.1     0.3608
      1.170       57.0     0.2936
      1.170       74.2     0.2131
      1.170       94.1     0.1433
      1.170      110.7     0.1024
      1.170      128.5     0.0775
      1.170      144.2     0.0821
      1.250       23.3     0.4297
      1.250       40.1     0.3480
      1.250       57.0     0.2761
      1.250       74.2     0.1963
      1.250       94.1     0.1454
      1.250      110.7     0.1188
      1.250      128.5     0.1201
      1.250      144.2     0.1442
      1.330       23.3     0.4438
      1.330       40.1     0.3798
      1.330       57.0     0.2976
      1.330       74.2     0.2294
      1.330       94.1     0.1577
      1.330      110.7     0.1080
      1.330      128.5     0.0982
      1.330      144.2     0.1117
      1.410       23.3     0.4521
      1.410       40.1     0.3933
      1.410       57.0     0.3318
      1.410       74.2     0.2432
      1.410       94.1     0.1623
      1.410      110.7     0.1091
      1.410      128.5     0.0933
      1.410      144.2     0.1071
      1.490       23.3     0.4805
      1.490       40.1     0.4042
      1.490       57.0     0.3027
      1.490       74.2     0.2600
      1.490       94.1     0.1380
      1.490      110.7     0.0980
      1.490      128.5     0.1116
      1.490      144.2     0.1596
      1.570       23.3     0.4951
      1.570       40.1     0.4013
      1.570       57.0     0.3168
      1.570       74.2     0.2190
      1.570       94.1     0.1343
      1.570      110.7     0.0979
      1.570      128.5     0.1168
      1.570      144.2     0.1685
      1.650       23.3     1.0451
      1.650       40.1     0.6148
      1.650       57.0     0.3038
      1.650       74.2     0.1390
      1.650       94.1     0.0999
      1.650      110.7     0.1163
      1.650      128.5     0.2073
      1.650      144.2     0.3549
      1.730       23.3     0.3786
      1.730       40.1     0.2704
      1.730       57.0     0.1826
      1.730       74.2     0.1335
      1.730       94.1     0.1081
      1.730      110.7     0.0996
      1.730      128.5     0.0990
      1.730      144.2     0.0987
      1.810       23.3     0.6156
      1.810       40.1     0.4390
      1.810       57.0     0.2864
      1.810       74.2     0.1999
      1.810       94.1     0.1526
      1.810      110.7     0.1173
      1.810      128.5     0.1013
      1.810      144.2     0.1157
ENDDATA            194
ENDSUBENT          208
SUBENT        10415011   20030220   20030411
BIB                  7         13
REACTION   (14-SI-0(N,EL)14-SI-0,,DA)
INC-SPECT  Resolution = 100 keV at lower end of energy interval
            and 60 keV at higher end
SAMPLE     Sample thickness = 0.03482 atoms/barn
MONITOR    (6-C-12(N,EL)6-C-12,,DA)
CORRECTION Corrected for multiple scattering and detector
            efficiency.
FLAG       (1.) Sample thickness 0.03482 atoms/b.
           (2.) Sample thickness 0.03482 atoms/b.
           (3.) Sample thickness 0.03482 atoms/b.
           (4.) Sample thickness 0.01602 atoms/b.
HISTORY    (19840423A) MONITOR, FLAG added, data sorted.
           (19860501A) REACTION product added.
ENDBIB              13
NOCOMMON             0          0
DATA                 4        376
EN         ANG        DATA       FLAG
MEV        ADEG       B/SR       NO-DIM
      0.489       23.3     0.2689  1.
      0.489       23.3     0.2297  2.
      0.489       40.1     0.2668  1.
      0.489       40.1     0.2282  2.
      0.489       57.0     0.2667  1.
      0.489       57.0     0.2308  2.
      0.489       74.2     0.2552  1.
      0.489       74.2     0.2198  2.
      0.489       94.1     0.2267  1.
      0.489       94.1     0.1966  2.
      0.489      110.7     0.2098  1.
      0.489      110.7     0.1838  2.
      0.489      128.5     0.1677  1.
      0.489      128.5     0.1488  2.
      0.489      144.2     0.1662  1.
      0.489      144.2     0.1491  2.
      0.499       23.3     0.2862  1.
      0.499       23.3     0.2289  2.
      0.499       40.1     0.2762  1.
      0.499       40.1     0.2210  2.
      0.499       57.0     0.2568  1.
      0.499       57.0     0.2072  2.
      0.499       74.2     0.2545  1.
      0.499       74.2     0.2037  2.
      0.499       94.1     0.2296  1.
      0.499       94.1     0.1849  2.
      0.499      110.7     0.2145  1.
      0.499      110.7     0.1735  2.
      0.499      128.5     0.1883  1.
      0.499      128.5     0.1545  2.
      0.499      144.2     0.1676  1.
      0.499      144.2     0.1387  2.
      0.509       23.3     0.2546  1.
      0.509       40.1     0.2404  1.
      0.509       57.0     0.2522  1.
      0.509       74.2     0.2306  1.
      0.509       94.1     0.2395  1.
      0.509      110.7     0.2031  1.
      0.509      128.5     0.1784  1.
      0.509      144.2     0.1688  1.
      0.519       23.3     0.2528  1.
      0.519       40.1     0.2369  1.
      0.519       57.0     0.2455  1.
      0.519       74.2     0.2443  1.
      0.519       94.1     0.2294  1.
      0.519      110.7     0.2065  1.
      0.519      128.5     0.1811  1.
      0.519      144.2     0.1771  1.
      0.524       23.3     0.2218  1.
      0.524       40.1     0.2299  1.
      0.524       57.0     0.2220  1.
      0.524       74.2     0.2283  1.
      0.524       94.1     0.2382  1.
      0.524      110.7     0.2112  1.
      0.524      128.5     0.1791  1.
      0.524      144.2     0.1734  1.
      0.527       23.3     0.2261  1.
      0.527       40.1     0.2133  1.
      0.527       57.0     0.2278  1.
      0.527       74.2     0.2267  1.
      0.527       94.1     0.2253  1.
      0.527      110.7     0.2124  1.
      0.527      128.5     0.1897  1.
      0.527      144.2     0.1751  1.
      0.529       23.3     0.2083  1.
      0.529       40.1     0.2234  1.
      0.529       57.0     0.2291  1.
      0.529       74.2     0.2298  1.
      0.529       94.1     0.2257  1.
      0.529      110.7     0.2162  1.
      0.529      128.5     0.1867  1.
      0.529      144.2     0.1709  1.
      0.532       23.3     0.2095  1.
      0.532       40.1     0.2224  1.
      0.532       57.0     0.2371  1.
      0.532       74.2     0.2445  1.
      0.532       94.1     0.2494  1.
      0.532      110.7     0.2256  1.
      0.532      128.5     0.1954  1.
      0.532      144.2     0.1695  1.
      0.533       23.3     0.2441  1.
      0.533       40.1     0.2498  1.
      0.533       57.0     0.2677  1.
      0.533       74.2     0.2732  1.
      0.533       94.1     0.2679  1.
      0.533      110.7     0.2387  1.
      0.533      128.5     0.2073  1.
      0.533      144.2     0.2034  1.
      0.534       23.3     0.4267  1.
      0.534       40.1     0.3399  1.
      0.534       57.0     0.2855  1.
      0.534       74.2     0.2879  1.
      0.534       94.1     0.2826  1.
      0.534      110.7     0.2615  1.
      0.534      128.5     0.2588  1.
      0.534      144.2     0.3074  1.
      0.535       23.3     0.5186  1.
      0.535       40.1     0.3875  1.
      0.535       57.0     0.2950  1.
      0.535       74.2     0.2687  1.
      0.535       94.1     0.2797  1.
      0.535      110.7     0.2649  1.
      0.535      128.5     0.2926  1.
      0.535      144.2     0.3877  1.
      0.537       23.3     0.5728  1.
      0.537       40.1     0.3879  1.
      0.537       57.0     0.2846  1.
      0.537       74.2     0.2458  1.
      0.537       94.1     0.2608  1.
      0.537      110.7     0.2665  1.
      0.537      128.5     0.3086  1.
      0.537      144.2     0.4412  1.
      0.538       23.3     0.5136  1.
      0.538       40.1     0.3545  1.
      0.538       57.0     0.2635  1.
      0.538       74.2     0.2381  1.
      0.538       94.1     0.2386  1.
      0.538      110.7     0.2456  1.
      0.538      128.5     0.2987  1.
      0.538      144.2     0.4032  1.
      0.540       23.3     0.4535  1.
      0.540       40.1     0.3201  1.
      0.540       57.0     0.2346  1.
      0.540       74.2     0.2247  1.
      0.540       94.1     0.2144  1.
      0.540      110.7     0.2357  1.
      0.540      128.5     0.2808  1.
      0.540      144.2     0.3765  1.
      0.541       23.3     0.3831  1.
      0.541       40.1     0.2673  1.
      0.541       57.0     0.2239  1.
      0.541       74.2     0.1908  1.
      0.541       94.1     0.2060  1.
      0.541      110.7     0.2174  1.
      0.541      128.5     0.2506  1.
      0.541      144.2     0.3291  1.
      0.542       23.3     0.3074  1.
      0.542       40.1     0.2402  1.
      0.542       57.0     0.2105  1.
      0.542       74.2     0.1956  1.
      0.542       94.1     0.2084  1.
      0.542      110.7     0.2177  1.
      0.542      128.5     0.2532  1.
      0.542      144.2     0.3031  1.
      0.543       23.3     0.2740  1.
      0.543       40.1     0.2290  1.
      0.543       57.0     0.2151  1.
      0.543       74.2     0.2072  1.
      0.543       94.1     0.1980  1.
      0.543      110.7     0.2121  1.
      0.543      128.5     0.2439  1.
      0.543      144.2     0.2852  1.
      0.545       23.3     0.2325  1.
      0.545       40.1     0.2084  1.
      0.545       57.0     0.2063  1.
      0.545       74.2     0.1992  1.
      0.545       94.1     0.1986  1.
      0.545      110.7     0.2171  1.
      0.545      128.5     0.2356  1.
      0.545      144.2     0.2697  1.
      0.546       23.3     0.2233  1.
      0.546       40.1     0.2079  1.
      0.546       57.0     0.1977  1.
      0.546       74.2     0.1968  1.
      0.546       94.1     0.2111  1.
      0.546      110.7     0.2036  1.
      0.546      128.5     0.2259  1.
      0.546      144.2     0.2678  1.
      0.547       23.3     0.2125  1.
      0.547       40.1     0.1949  1.
      0.547       57.0     0.2049  1.
      0.547       74.2     0.2026  1.
      0.547       94.1     0.2120  1.
      0.547      110.7     0.2282  1.
      0.547      128.5     0.2489  1.
      0.547      144.2     0.2642  1.
      0.548       23.3     0.2164  1.
      0.548       40.1     0.1889  1.
      0.548       57.0     0.1927  1.
      0.548       74.2     0.2043  1.
      0.548       94.1     0.2150  1.
      0.548      110.7     0.2289  1.
      0.548      128.5     0.2526  1.
      0.548      144.2     0.2856  1.
      0.550       23.3     0.2064  1.
      0.550       40.1     0.2019  1.
      0.550       57.0     0.1927  1.
      0.550       74.2     0.2081  1.
      0.550       94.1     0.2271  1.
      0.550      110.7     0.2380  1.
      0.550      128.5     0.2423  1.
      0.550      144.2     0.2659  1.
      0.555       23.3     0.2171  1.
      0.555       40.1     0.2145  1.
      0.555       57.0     0.2217  1.
      0.555       74.2     0.2276  1.
      0.555       94.1     0.2600  1.
      0.555      110.7     0.2718  1.
      0.555      128.5     0.2896  1.
      0.555      144.2     0.3099  1.
      0.560       23.3     0.3552  1.
      0.560       40.1     0.3108  1.
      0.560       57.0     0.2995  1.
      0.560       74.2     0.2858  1.
      0.560       94.1     0.3212  1.
      0.560      110.7     0.3457  1.
      0.560      128.5     0.3777  1.
      0.560      144.2     0.4248  1.
      0.562       23.3     0.4753  1.
      0.562       40.1     0.4295  1.
      0.562       57.0     0.3592  1.
      0.562       74.2     0.3271  1.
      0.562       94.1     0.3507  1.
      0.562      110.7     0.3916  1.
      0.562      128.5     0.4345  1.
      0.562      144.2     0.4868  1.
      0.565       23.3     0.7437  1.
      0.565       40.1     0.5892  1.
      0.565       57.0     0.5181  1.
      0.565       74.2     0.4126  1.
      0.565       94.1     0.3988  1.
      0.565      110.7     0.4226  1.
      0.565      128.5     0.4755  1.
      0.565      144.2     0.5502  1.
      0.567       23.3     1.1140  1.
      0.567       40.1     0.9207  1.
      0.567       57.0     0.7019  1.
      0.567       74.2     0.5209  1.
      0.567       94.1     0.4381  1.
      0.567      110.7     0.4291  1.
      0.567      128.5     0.4820  1.
      0.567      144.2     0.5911  1.
      0.570       23.3     1.5283  1.
      0.570       40.1     1.2753  1.
      0.570       57.0     0.9026  1.
      0.570       74.2     0.6523  1.
      0.570       94.1     0.4726  1.
      0.570      110.7     0.4024  1.
      0.570      128.5     0.4504  1.
      0.570      144.2     0.5636  1.
      0.573       23.3     1.7792  1.
      0.573       23.3     1.8630  4.
      0.573       40.1     1.4290  1.
      0.573       40.1     1.4346  4.
      0.573       57.0     1.0480  1.
      0.573       57.0     1.0596  4.
      0.573       74.2     0.6557  1.
      0.573       74.2     0.6875  4.
      0.573       94.1     0.4350  1.
      0.573       94.1     0.4013  4.
      0.573      110.7     0.3326  1.
      0.573      110.7     0.3323  4.
      0.573      128.5     0.3662  1.
      0.573      128.5     0.3337  4.
      0.573      144.2     0.4299  1.
      0.573      144.2     0.4426  4.
      0.575       23.3     1.8245  4.
      0.575       40.1     1.4283  4.
      0.575       57.0     1.0369  4.
      0.575       74.2     0.6535  4.
      0.575       94.1     0.3886  4.
      0.575      110.7     0.2794  4.
      0.575      128.5     0.2476  4.
      0.575      144.2     0.3207  4.
      0.578       23.3     1.6022  4.
      0.578       23.3     1.6331  4.
      0.578       40.1     1.2709  4.
      0.578       40.1     1.2689  4.
      0.578       57.0     0.9494  4.
      0.578       57.0     0.9464  4.
      0.578       74.2     0.5757  4.
      0.578       74.2     0.5659  4.
      0.578       94.1     0.3404  4.
      0.578       94.1     0.3323  4.
      0.578      110.7     0.2067  4.
      0.578      110.7     0.2038  4.
      0.578      128.5     0.1797  4.
      0.578      128.5     0.1687  4.
      0.578      144.2     0.2000  4.
      0.578      144.2     0.1820  4.
      0.580       23.3     1.3503  1.
      0.580       40.1     1.0400  1.
      0.580       57.0     0.7980  1.
      0.580       74.2     0.5075  1.
      0.580       94.1     0.2887  1.
      0.580      110.7     0.1718  1.
      0.580      128.5     0.1317  1.
      0.580      144.2     0.1264  1.
      0.585       23.3     0.9369  1.
      0.585       40.1     0.7632  1.
      0.585       57.0     0.5873  1.
      0.585       74.2     0.3797  1.
      0.585       94.1     0.2280  1.
      0.585      110.7     0.1385  1.
      0.585      128.5     0.1013  1.
      0.585      144.2     0.0768  1.
      0.591       23.3     0.8671  1.
      0.591       40.1     0.6796  1.
      0.591       57.0     0.4959  1.
      0.591       74.2     0.3334  1.
      0.591       94.1     0.2288  1.
      0.591      110.7     0.1381  1.
      0.591      128.5     0.1095  1.
      0.591      144.2     0.1045  1.
      0.601       23.3     0.5704  1.
      0.601       40.1     0.4716  1.
      0.601       57.0     0.3792  1.
      0.601       74.2     0.2762  1.
      0.601       94.1     0.2008  1.
      0.601      110.7     0.1490  1.
      0.601      128.5     0.1139  1.
      0.601      144.2     0.0946  1.
      0.611       23.3     0.5227  1.
      0.611       40.1     0.4224  1.
      0.611       57.0     0.3536  1.
      0.611       74.2     0.2601  1.
      0.611       94.1     0.1895  1.
      0.611      110.7     0.1516  1.
      0.611      128.5     0.1117  1.
      0.611      144.2     0.0988  1.
      0.631       23.3     0.4006  1.
      0.631       40.1     0.3389  1.
      0.631       57.0     0.2954  1.
      0.631       74.2     0.2344  1.
      0.631       94.1     0.1923  1.
      0.631      110.7     0.1430  1.
      0.631      128.5     0.1114  1.
      0.631      144.2     0.1051  1.
      0.652       23.3     0.3940  1.
      0.652       23.3     0.4719  2.
      0.652       23.3     0.4665  3.
      0.652       40.1     0.3230  1.
      0.652       40.1     0.3868  2.
      0.652       40.1     0.3824  3.
      0.652       57.0     0.2849  1.
      0.652       57.0     0.3412  2.
      0.652       57.0     0.3372  3.
      0.652       74.2     0.2397  1.
      0.652       74.2     0.2870  2.
      0.652       74.2     0.2838  3.
      0.652       94.1     0.2011  1.
      0.652       94.1     0.2408  2.
      0.652       94.1     0.2380  3.
      0.652      110.7     0.1598  1.
      0.652      110.7     0.1914  2.
      0.652      110.7     0.1892  3.
      0.652      128.5     0.1247  1.
      0.652      128.5     0.1493  2.
      0.652      128.5     0.1476  3.
      0.652      144.2     0.1166  1.
      0.652      144.2     0.1397  2.
      0.652      144.2     0.1381  3.
      0.687       23.3     0.2933  1.
      0.687       40.1     0.2683  1.
      0.687       57.0     0.2348  1.
      0.687       74.2     0.2080  1.
      0.687       94.1     0.1787  1.
      0.687      110.7     0.1506  1.
      0.687      128.5     0.1277  1.
      0.687      144.2     0.1137  1.
      0.713       23.3     0.2761  1.
      0.713       40.1     0.2642  1.
      0.713       57.0     0.2407  1.
      0.713       74.2     0.2223  1.
      0.713       94.1     0.1899  1.
      0.713      110.7     0.1793  1.
      0.713      128.5     0.1556  1.
      0.713      144.2     0.1504  1.
      0.764       23.3     0.2247  1.
      0.764       40.1     0.2174  1.
      0.764       57.0     0.2292  1.
      0.764       74.2     0.2084  1.
      0.764       94.1     0.2039  1.
      0.764      110.7     0.1885  1.
      0.764      128.5     0.1903  1.
      0.764      144.2     0.1856  1.
ENDDATA            378
ENDSUBENT          396
SUBENT        10415012   20030220   20030411
BIB                  7         10
REACTION   (16-S-0(N,EL)16-S-0,,DA)
INC-SPECT  Resolution = 40 keV
SAMPLE     Sample thickness = 0.02936 atoms/barn
METHOD     Calculated from Legendre polynomial fit to measured
            data.
MONITOR    (6-C-12(N,EL)6-C-12,,DA)
CORRECTION Corrected for multiple scattering and detector
            efficiency.
HISTORY    (19840423A) MONITOR, METHOD added, data corrected.
           (19860501A) REACTION product added.
ENDBIB              10
NOCOMMON             0          0
DATA                 3        184
EN         ANG        DATA
MEV        ADEG       B/SR
      0.578       23.3     0.2777
      0.578       40.1     0.2726
      0.578       57.0     0.2435
      0.578       74.2     0.2237
      0.578       94.1     0.1643
      0.578      110.7     0.0758
      0.578      128.5     0.0274
      0.578      144.2     0.0315
      0.583       23.3     0.3232
      0.583       40.1     0.2709
      0.583       57.0     0.2404
      0.583       74.2     0.2235
      0.583       94.1     0.1512
      0.583      110.7     0.0790
      0.583      128.5     0.0614
      0.583      144.2     0.0440
 0.58425          23.3     0.2821
 0.58425          40.1     0.2798
 0.58425          57.0     0.2555
 0.58425          74.2     0.2204
 0.58425          94.1     0.1418
 0.58425         110.7     0.0670
 0.58425         128.5     0.0395
 0.58425         144.2     0.0338
 0.5855           23.3     0.2993
 0.5855           40.1     0.2834
 0.5855           57.0     0.2819
 0.5855           74.2     0.2603
 0.5855           94.1     0.1661
 0.5855          110.7     0.0772
 0.5855          128.5     0.0406
 0.5855          144.2     0.0403
 0.58675          23.3     0.2317
 0.58675          40.1     0.2691
 0.58675          57.0     0.3045
 0.58675          74.2     0.2778
 0.58675          94.1     0.1772
 0.58675         110.7     0.0918
 0.58675         128.5     0.0399
 0.58675         144.2     0.0601
 0.588            23.3     0.3775
 0.588            40.1     0.2846
 0.588            57.0     0.3326
 0.588            74.2     0.3904
 0.588            94.1     0.3166
 0.588           110.7     0.1673
 0.588           128.5     0.0628
 0.588           144.2     0.1823
 0.5886           23.3     0.7709
 0.5886           40.1     0.4773
 0.5886           57.0     0.3917
 0.5886           74.2     0.4446
 0.5886           94.1     0.3623
 0.5886          110.7     0.1928
 0.5886          128.5     0.1762
 0.5886          144.2     0.3579
 0.58925          23.3     1.1822
 0.58925          40.1     0.7093
 0.58925          57.0     0.4472
 0.58925          74.2     0.4620
 0.58925          94.1     0.3895
 0.58925         110.7     0.2211
 0.58925         128.5     0.2941
 0.58925         144.2     0.5048
 0.58975          23.3     1.3870
 0.58975          40.1     0.7784
 0.58975          57.0     0.4259
 0.58975          74.2     0.3715
 0.58975          94.1     0.3290
 0.58975         110.7     0.2282
 0.58975         128.5     0.2877
 0.58975         144.2     0.5492
 0.59025          23.3     1.5983
 0.59025          40.1     0.8626
 0.59025          57.0     0.4283
 0.59025          74.2     0.3326
 0.59025          94.1     0.2850
 0.59025         110.7     0.2114
 0.59025         128.5     0.3038
 0.59025         144.2     0.5950
 0.59075          23.3     1.6274
 0.59075          40.1     0.8810
 0.59075          57.0     0.4326
 0.59075          74.2     0.3177
 0.59075          94.1     0.2762
 0.59075         110.7     0.2158
 0.59075         128.5     0.2891
 0.59075         144.2     0.5717
 0.59125          23.3     1.5558
 0.59125          40.1     0.8085
 0.59125          57.0     0.3811
 0.59125          74.2     0.2717
 0.59125          94.1     0.2483
 0.59125         110.7     0.2092
 0.59125         128.5     0.2567
 0.59125         144.2     0.5213
 0.59175          23.3     1.5161
 0.59175          40.1     0.8039
 0.59175          57.0     0.3596
 0.59175          74.2     0.2335
 0.59175          94.1     0.1939
 0.59175         110.7     0.1594
 0.59175         128.5     0.2533
 0.59175         144.2     0.4937
 0.59225          23.3     1.4231
 0.59225          40.1     0.8134
 0.59225          57.0     0.3448
 0.59225          74.2     0.1802
 0.59225          94.1     0.1739
 0.59225         110.7     0.1539
 0.59225         128.5     0.2217
 0.59225         144.2     0.4312
 0.59275          23.3     1.3072
 0.59275          40.1     0.7043
 0.59275          57.0     0.3165
 0.59275          74.2     0.1836
 0.59275          94.1     0.1506
 0.59275         110.7     0.1330
 0.59275         128.5     0.1782
 0.59275         144.2     0.3405
 0.593            23.3     1.2256
 0.593            40.1     0.6902
 0.593            57.0     0.3224
 0.593            74.2     0.1608
 0.593            94.1     0.1291
 0.593           110.7     0.1266
 0.593           128.5     0.1444
 0.593           144.2     0.3253
 0.594            23.3     1.0851
 0.594            40.1     0.6013
 0.594            57.0     0.2879
 0.594            74.2     0.1465
 0.594            94.1     0.0878
 0.594           110.7     0.0821
 0.594           128.5     0.1154
 0.594           144.2     0.2252
 0.5955           23.3     0.7836
 0.5955           40.1     0.5247
 0.5955           57.0     0.2638
 0.5955           74.2     0.1248
 0.5955           94.1     0.0897
 0.5955          110.7     0.0608
 0.5955          128.5     0.0536
 0.5955          144.2     0.1405
 0.59675          23.3     0.6943
 0.59675          40.1     0.4798
 0.59675          57.0     0.2685
 0.59675          74.2     0.1366
 0.59675          94.1     0.0829
 0.59675         110.7     0.0658
 0.59675         128.5     0.0596
 0.59675         144.2     0.0815
 0.598            23.3     0.6211
 0.598            40.1     0.4574
 0.598            57.0     0.2691
 0.598            74.2     0.1553
 0.598            94.1     0.0940
 0.598           110.7     0.0581
 0.598           128.5     0.0613
 0.598           144.2     0.0605
 0.600            23.3     0.5834
 0.600            40.1     0.3741
 0.600            57.0     0.2201
 0.600            74.2     0.1378
 0.600            94.1     0.0701
 0.600           110.7     0.0362
 0.600           128.5     0.0429
 0.600           144.2     0.0405
 0.603            23.3     0.5440
 0.603            40.1     0.4153
 0.603            57.0     0.2552
 0.603            74.2     0.1644
 0.603            94.1     0.1191
 0.603           110.7     0.0733
 0.603           128.5     0.0532
 0.603           144.2     0.0551
 0.608            23.3     0.5196
 0.608            40.1     0.4162
 0.608            57.0     0.2776
 0.608            74.2     0.1824
 0.608            94.1     0.1069
 0.608           110.7     0.0576
 0.608           128.5     0.0557
 0.608           144.2     0.0339
ENDDATA            186
ENDSUBENT          201
SUBENT        10415013   20030220   20030411
BIB                  6          9
REACTION   (20-CA-0(N,EL)20-CA-0,,DA)
INC-SPECT  Resolution = 100 keV at lower end of energy interval
            and 60 keV at higher end
SAMPLE     Sample thickness = 0.01204 atoms/barn
MONITOR    (6-C-12(N,EL)6-C-12,,DA)
CORRECTION Corrected for multiple scattering; detector efficiency
            correction was negligible.
HISTORY    (19840423A) MONITOR added.
           (19860501A) REACTION product added.
ENDBIB               9
NOCOMMON             0          0
DATA                 3        192
EN         ANG        DATA
MEV        ADEG       B/SR
      0.030       23.3     0.0856
      0.030       40.1     0.0797
      0.030       57.0     0.0662
      0.030       74.2     0.0739
      0.030       94.1     0.0975
      0.030      110.7     0.0927
      0.030      128.5     0.0803
      0.030      144.2     0.0846
      0.050       23.3     0.0882
      0.050       40.1     0.0845
      0.050       57.0     0.0795
      0.050       74.2     0.0781
      0.050       94.1     0.0725
      0.050      110.7     0.0798
      0.050      128.5     0.0766
      0.050      144.2     0.0692
      0.130       23.3     0.1044
      0.130       40.1     0.1084
      0.130       57.0     0.1086
      0.130       74.2     0.0902
      0.130       94.1     0.0878
      0.130      110.7     0.0979
      0.130      128.5     0.0864
      0.130      144.2     0.0931
      0.210       23.3     0.1697
      0.210       40.1     0.1601
      0.210       57.0     0.1640
      0.210       74.2     0.1555
      0.210       94.1     0.1473
      0.210      110.7     0.1488
      0.210      128.5     0.1480
      0.210      144.2     0.1441
      0.290       23.3     0.2736
      0.290       40.1     0.2560
      0.290       57.0     0.2322
      0.290       74.2     0.2287
      0.290       94.1     0.1973
      0.290      110.7     0.1961
      0.290      128.5     0.1867
      0.290      144.2     0.2047
      0.370       23.3     0.2900
      0.370       40.1     0.2468
      0.370       57.0     0.2078
      0.370       74.2     0.1635
      0.370       94.1     0.1328
      0.370      110.7     0.1036
      0.370      128.5     0.1035
      0.370      144.2     0.0950
      0.450       23.3     0.2276
      0.450       40.1     0.1882
      0.450       57.0     0.1405
      0.450       74.2     0.0938
      0.450       94.1     0.0787
      0.450      110.7     0.0625
      0.450      128.5     0.0587
      0.450      144.2     0.0701
      0.530       23.3     0.2305
      0.530       40.1     0.1826
      0.530       57.0     0.1382
      0.530       74.2     0.1003
      0.530       94.1     0.0747
      0.530      110.7     0.0619
      0.530      128.5     0.0665
      0.530      144.2     0.0681
      0.610       23.3     0.3177
      0.610       40.1     0.2551
      0.610       57.0     0.2123
      0.610       74.2     0.1681
      0.610       94.1     0.1445
      0.610      110.7     0.1338
      0.610      128.5     0.1435
      0.610      144.2     0.1598
      0.690       23.3     0.3454
      0.690       40.1     0.2986
      0.690       57.0     0.2041
      0.690       74.2     0.1608
      0.690       94.1     0.0981
      0.690      110.7     0.0830
      0.690      128.5     0.0699
      0.690      144.2     0.0908
      0.770       23.3     0.2939
      0.770       40.1     0.2785
      0.770       57.0     0.1709
      0.770       74.2     0.1558
      0.770       94.1     0.0842
      0.770      110.7     0.0862
      0.770      128.5     0.0863
      0.770      144.2     0.0833
      0.850       23.3     0.2959
      0.850       40.1     0.2369
      0.850       57.0     0.1749
      0.850       74.2     0.1331
      0.850       94.1     0.1077
      0.850      110.7     0.1142
      0.850      128.5     0.1352
      0.850      144.2     0.1730
      0.930       23.3     0.3951
      0.930       40.1     0.3210
      0.930       57.0     0.2484
      0.930       74.2     0.1751
      0.930       94.1     0.1287
      0.930      110.7     0.1065
      0.930      128.5     0.1153
      0.930      144.2     0.1423
      1.010       23.3     0.4158
      1.010       40.1     0.3697
      1.010       57.0     0.2542
      1.010       74.2     0.1746
      1.010       94.1     0.1119
      1.010      110.7     0.0910
      1.010      128.5     0.0944
      1.010      144.2     0.1252
      1.090       23.3     0.3959
      1.090       40.1     0.3109
      1.090       57.0     0.2334
      1.090       74.2     0.1611
      1.090       94.1     0.0995
      1.090      110.7     0.0840
      1.090      128.5     0.1076
      1.090      144.2     0.1645
      1.170       23.3     0.4453
      1.170       40.1     0.3368
      1.170       57.0     0.2331
      1.170       74.2     0.1527
      1.170       94.1     0.0964
      1.170      110.7     0.0829
      1.170      128.5     0.1044
      1.170      144.2     0.1638
      1.250       23.3     0.5731
      1.250       40.1     0.4113
      1.250       57.0     0.2727
      1.250       74.2     0.1715
      1.250       94.1     0.1001
      1.250      110.7     0.0792
      1.250      128.5     0.0968
      1.250      144.2     0.1506
      1.330       23.3     0.4735
      1.330       40.1     0.3473
      1.330       57.0     0.2394
      1.330       74.2     0.1422
      1.330       94.1     0.0716
      1.330      110.7     0.0550
      1.330      128.5     0.0757
      1.330      144.2     0.1215
      1.410       23.3     0.3523
      1.410       40.1     0.2866
      1.410       57.0     0.1910
      1.410       74.2     0.1296
      1.410       94.1     0.0732
      1.410      110.7     0.0494
      1.410      128.5     0.0774
      1.410      144.2     0.1439
      1.490       23.3     0.4437
      1.490       40.1     0.2982
      1.490       57.0     0.1814
      1.490       74.2     0.0962
      1.490       94.1     0.0604
      1.490      110.7     0.0641
      1.490      128.5     0.1447
      1.490      144.2     0.2559
      1.570       23.3     0.4867
      1.570       40.1     0.3604
      1.570       57.0     0.2445
      1.570       74.2     0.1579
      1.570       94.1     0.1032
      1.570      110.7     0.0850
      1.570      128.5     0.1256
      1.570      144.2     0.2255
      1.650       23.3     0.5860
      1.650       40.1     0.4469
      1.650       57.0     0.3260
      1.650       74.2     0.1984
      1.650       94.1     0.1068
      1.650      110.7     0.0614
      1.650      128.5     0.0983
      1.650      144.2     0.1715
      1.730       23.3     0.6716
      1.730       40.1     0.4421
      1.730       57.0     0.2747
      1.730       74.2     0.1535
      1.730       94.1     0.0951
      1.730      110.7     0.0767
      1.730      128.5     0.1417
      1.730      144.2     0.2468
      1.810       23.3     0.5738
      1.810       40.1     0.4338
      1.810       57.0     0.2850
      1.810       74.2     0.1755
      1.810       94.1     0.1073
      1.810      110.7     0.0779
      1.810      128.5     0.1073
      1.810      144.2     0.1803
ENDDATA            194
ENDSUBENT          208
SUBENT        10415014   20030220   20030411
BIB                  6         10
REACTION   (29-CU-0(N,SCT)29-CU-0,,DA)
INC-SPECT  For neutron energies 0.05-0.60 MeV, resolution 40 kev.
           For neutron energies 0.60-2.25 MeV, resolution 130 keV
            at lower end of interval and 80 keV at higher end.
SAMPLE     Sample thickness = 0.01332 atoms/barn
MONITOR    (6-C-12(N,EL)6-C-12,,DA)
CORRECTION Corrected for multiple scattering; detector efficiency
            correction was negligible.
HISTORY    (19840423A) MONITOR added.
           (19860501A) REACTION product added.
ENDBIB              10
NOCOMMON             0          0
DATA                 3        248
EN         ANG        DATA
MEV        ADEG       B/SR
      0.050       23.3     0.6438
      0.050       40.1     0.6575
      0.050       57.0     0.6372
      0.050       74.2     0.6703
      0.050       94.1     0.6507
      0.050      110.7     0.6607
      0.050      128.5     0.6033
      0.050      144.2     0.5938
      0.070       23.3     0.6489
      0.070       40.1     0.6318
      0.070       57.0     0.6446
      0.070       74.2     0.6259
      0.070       94.1     0.6493
      0.070      110.7     0.5983
      0.070      128.5     0.5867
      0.070      144.2     0.5866
      0.085       23.3     0.6259
      0.085       40.1     0.6111
      0.085       57.0     0.5952
      0.085       74.2     0.5971
      0.085       94.1     0.5836
      0.085      110.7     0.5930
      0.085      128.5     0.5348
      0.085      144.2     0.5451
      0.100       23.3     0.6114
      0.100       40.1     0.5888
      0.100       57.0     0.6069
      0.100       74.2     0.5808
      0.100       94.1     0.5772
      0.100      110.7     0.5718
      0.100      128.5     0.5174
      0.100      144.2     0.5317
      0.120       23.3     0.5808
      0.120       40.1     0.5865
      0.120       57.0     0.5920
      0.120       74.2     0.5794
      0.120       94.1     0.5471
      0.120      110.7     0.5632
      0.120      128.5     0.5179
      0.120      144.2     0.5141
      0.157       23.3     0.5691
      0.157       40.1     0.5446
      0.157       57.0     0.5252
      0.157       74.2     0.5045
      0.157       94.1     0.4930
      0.157      110.7     0.4989
      0.157      128.5     0.4278
      0.157      144.2     0.4261
      0.207       23.3     0.5366
      0.207       40.1     0.4967
      0.207       57.0     0.4798
      0.207       74.2     0.4753
      0.207       94.1     0.4449
      0.207      110.7     0.4163
      0.207      128.5     0.3821
      0.207      144.2     0.3845
      0.257       23.3     0.5448
      0.257       40.1     0.4947
      0.257       57.0     0.4734
      0.257       74.2     0.4515
      0.257       94.1     0.4136
      0.257      110.7     0.3831
      0.257      128.5     0.3506
      0.257      144.2     0.3501
      0.307       23.3     0.5392
      0.307       40.1     0.5020
      0.307       57.0     0.4469
      0.307       74.2     0.4198
      0.307       94.1     0.3998
      0.307      110.7     0.3692
      0.307      128.5     0.3313
      0.307      144.2     0.3447
      0.330       23.3     0.5145
      0.330       40.1     0.4766
      0.330       57.0     0.4283
      0.330       74.2     0.4066
      0.330       94.1     0.3778
      0.330      110.7     0.3648
      0.330      128.5     0.3440
      0.330      144.2     0.3321
      0.357       23.3     0.5169
      0.357       40.1     0.4753
      0.357       57.0     0.4199
      0.357       74.2     0.3814
      0.357       94.1     0.3496
      0.357      110.7     0.3197
      0.357      128.5     0.3072
      0.357      144.2     0.3161
      0.407       23.3     0.4987
      0.407       40.1     0.4436
      0.407       57.0     0.3862
      0.407       74.2     0.3426
      0.407       94.1     0.3102
      0.407      110.7     0.2884
      0.407      128.5     0.2734
      0.407      144.2     0.2778
      0.430       23.3     0.5121
      0.430       40.1     0.4577
      0.430       57.0     0.3988
      0.430       74.2     0.3560
      0.430       94.1     0.3199
      0.430      110.7     0.2978
      0.430      128.5     0.2912
      0.430      144.2     0.2947
      0.457       23.3     0.5024
      0.457       40.1     0.4431
      0.457       57.0     0.3826
      0.457       74.2     0.3469
      0.457       94.1     0.3110
      0.457      110.7     0.2915
      0.457      128.5     0.2815
      0.457      144.2     0.2912
      0.507       23.3     0.5608
      0.507       40.1     0.4743
      0.507       57.0     0.4026
      0.507       74.2     0.3542
      0.507       94.1     0.3100
      0.507      110.7     0.2842
      0.507      128.5     0.3348
      0.507      144.2     0.2868
      0.530       23.3     0.5437
      0.530       40.1     0.4569
      0.530       57.0     0.3832
      0.530       74.2     0.3337
      0.530       94.1     0.2991
      0.530      110.7     0.2704
      0.530      128.5     0.2603
      0.530      144.2     0.2785
      0.630       23.3     0.5310
      0.630       40.1     0.4364
      0.630       57.0     0.3609
      0.630       74.2     0.2997
      0.630       94.1     0.2678
      0.630      110.7     0.2473
      0.630      128.5     0.2455
      0.630      144.2     0.2559
      0.730       23.3     0.5373
      0.730       40.1     0.4167
      0.730       57.0     0.3385
      0.730       74.2     0.2787
      0.730       94.1     0.2431
      0.730      110.7     0.2254
      0.730      128.5     0.2285
      0.730      144.2     0.2354
      0.830       23.3     0.5373
      0.830       40.1     0.4187
      0.830       57.0     0.3177
      0.830       74.2     0.2492
      0.830       94.1     0.2204
      0.830      110.7     0.2123
      0.830      128.5     0.2147
      0.830      144.2     0.2320
      0.930       23.3     0.5464
      0.930       40.1     0.4130
      0.930       57.0     0.3017
      0.930       74.2     0.2322
      0.930       94.1     0.2088
      0.930      110.7     0.2040
      0.930      128.5     0.2083
      0.930      144.2     0.2282
      1.040       23.3     0.5589
      1.040       40.1     0.4064
      1.040       57.0     0.2903
      1.040       74.2     0.2194
      1.040       94.1     0.1984
      1.040      110.7     0.1884
      1.040      128.5     0.2016
      1.040      144.2     0.2125
      1.140       23.3     0.5671
      1.140       40.1     0.4063
      1.140       57.0     0.2820
      1.140       74.2     0.2028
      1.140       94.1     0.1841
      1.140      110.7     0.1921
      1.140      128.5     0.1864
      1.140      144.2     0.2078
      1.240       23.3     0.5784
      1.240       40.1     0.3969
      1.240       57.0     0.2646
      1.240       74.2     0.1929
      1.240       94.1     0.1789
      1.240      110.7     0.1837
      1.240      128.5     0.1881
      1.240      144.2     0.2028
      1.340       23.3     0.6030
      1.340       40.1     0.3977
      1.340       57.0     0.2554
      1.340       74.2     0.1865
      1.340       94.1     0.1754
      1.340      110.7     0.1806
      1.340      128.5     0.1882
      1.340      144.2     0.1988
      1.440       23.3     0.6026
      1.440       40.1     0.3901
      1.440       57.0     0.2489
      1.440       74.2     0.1734
      1.440       94.1     0.1755
      1.440      110.7     0.1732
      1.440      128.5     0.1791
      1.440      144.2     0.1944
      1.540       23.3     0.5947
      1.540       40.1     0.3834
      1.540       57.0     0.2285
      1.540       74.2     0.1705
      1.540       94.1     0.1575
      1.540      110.7     0.1711
      1.540      128.5     0.1691
      1.540      144.2     0.1742
      1.650       23.3     0.6093
      1.650       40.1     0.3789
      1.650       57.0     0.2281
      1.650       74.2     0.1593
      1.650       94.1     0.1547
      1.650      110.7     0.1675
      1.650      128.5     0.1692
      1.650      144.2     0.1716
      1.750       23.3     0.6099
      1.750       40.1     0.3658
      1.750       57.0     0.2203
      1.750       74.2     0.1531
      1.750       94.1     0.1621
      1.750      110.7     0.1731
      1.750      128.5     0.1640
      1.750      144.2     0.1630
      1.850       23.3     0.6193
      1.850       40.1     0.3768
      1.850       57.0     0.2025
      1.850       74.2     0.1579
      1.850       94.1     0.1595
      1.850      110.7     0.1807
      1.850      128.5     0.1563
      1.850      144.2     0.1717
      1.950       23.3     0.6663
      1.950       40.1     0.3955
      1.950       57.0     0.2066
      1.950       74.2     0.1492
      1.950       94.1     0.1779
      1.950      110.7     0.1886
      1.950      128.5     0.1742
      1.950      144.2     0.1660
      2.250       23.3     0.6444
      2.250       40.1     0.3600
      2.250       57.0     0.1793
      2.250       74.2     0.1327
      2.250       94.1     0.1659
      2.250      110.7     0.1728
      2.250      128.5     0.1535
      2.250      144.2     0.1384
ENDDATA            250
ENDSUBENT          265
SUBENT        10415015   20030220   20030411
BIB                  6         11
REACTION   (50-SN-0(N,SCT)50-SN-0,,DA)
INC-SPECT  For neutron energies 0.05-0.60 MeV, resolution 40 kev.
           For neutron energies 0.60-2.25 MeV, resolution 130 keV
            at lower end of interval and 80 keV at higher end.
SAMPLE     Sample thickness = 0.00599 atoms/barn
           Compound sample SnO2
MONITOR    (6-C-12(N,EL)6-C-12,,DA)
CORRECTION Corrected for multiple scattering; detector efficiency
            correction was negligible.
HISTORY    (19840423A) MONITOR added.
           (19860501A) REACTION product added.
ENDBIB              11
NOCOMMON             0          0
DATA                 3        248
EN         ANG        DATA
MEV        ADEG       B/SR
      0.050       23.3     0.6018
      0.050       40.1     0.5408
      0.050       57.0     0.4790
      0.050       74.2     0.4551
      0.050       94.1     0.4254
      0.050      110.7     0.3848
      0.050      128.5     0.3747
      0.050      144.2     0.3659
      0.070       23.3     0.6251
      0.070       40.1     0.5753
      0.070       57.0     0.5028
      0.070       74.2     0.4911
      0.070       94.1     0.4276
      0.070      110.7     0.3770
      0.070      128.5     0.3849
      0.070      144.2     0.3499
      0.085       23.3     0.6514
      0.085       40.1     0.5981
      0.085       57.0     0.5163
      0.085       74.2     0.4840
      0.085       94.1     0.4178
      0.085      110.7     0.3956
      0.085      128.5     0.3589
      0.085      144.2     0.3421
      0.100       23.3     0.6983
      0.100       40.1     0.6211
      0.100       57.0     0.5682
      0.100       74.2     0.5129
      0.100       94.1     0.4195
      0.100      110.7     0.3693
      0.100      128.5     0.3437
      0.100      144.2     0.3670
      0.120       23.3     0.7434
      0.120       40.1     0.6381
      0.120       57.0     0.5740
      0.120       74.2     0.5015
      0.120       94.1     0.4181
      0.120      110.7     0.3649
      0.120      128.5     0.3437
      0.120      144.2     0.3315
      0.157       23.3     0.9060
      0.157       40.1     0.7489
      0.157       57.0     0.5926
      0.157       74.2     0.5482
      0.157       94.1     0.3945
      0.157      110.7     0.3388
      0.157      128.5     0.3090
      0.157      144.2     0.2955
      0.207       23.3     1.0594
      0.207       40.1     0.8773
      0.207       57.0     0.7465
      0.207       74.2     0.5768
      0.207       94.1     0.4071
      0.207      110.7     0.3261
      0.207      128.5     0.2550
      0.207      144.2     0.2639
      0.257       23.3     1.1317
      0.257       40.1     0.9597
      0.257       57.0     0.7770
      0.257       74.2     0.5514
      0.257       94.1     0.3961
      0.257      110.7     0.2781
      0.257      128.5     0.2361
      0.257      144.2     0.2442
      0.307       23.3     1.1788
      0.307       40.1     0.9746
      0.307       57.0     0.7744
      0.307       74.2     0.5521
      0.307       94.1     0.3496
      0.307      110.7     0.2499
      0.307      128.5     0.1859
      0.307      144.2     0.2068
      0.330       23.3     1.1370
      0.330       40.1     0.9144
      0.330       57.0     0.7084
      0.330       74.2     0.5220
      0.330       94.1     0.3562
      0.330      110.7     0.2525
      0.330      128.5     0.2106
      0.330      144.2     0.2188
      0.357       23.3     1.2730
      0.357       40.1     1.0514
      0.357       57.0     0.7811
      0.357       74.2     0.5417
      0.357       94.1     0.3227
      0.357      110.7     0.2269
      0.357      128.5     0.2063
      0.357      144.2     0.1913
      0.407       23.3     1.3265
      0.407       40.1     1.0436
      0.407       57.0     0.8030
      0.407       74.2     0.5275
      0.407       94.1     0.3123
      0.407      110.7     0.2084
      0.407      128.5     0.1737
      0.407      144.2     0.1988
      0.430       23.3     1.3417
      0.430       40.1     1.0621
      0.430       57.0     0.7850
      0.430       74.2     0.5329
      0.430       94.1     0.3143
      0.430      110.7     0.1997
      0.430      128.5     0.1705
      0.430      144.2     0.1988
      0.457       23.3     1.3627
      0.457       40.1     1.0897
      0.457       57.0     0.7843
      0.457       74.2     0.5292
      0.457       94.1     0.3159
      0.457      110.7     0.1929
      0.457      128.5     0.1734
      0.457      144.2     0.1857
      0.507       23.3     1.4421
      0.507       40.1     1.1171
      0.507       57.0     0.8341
      0.507       74.2     0.5312
      0.507       94.1     0.2980
      0.507      110.7     0.1923
      0.507      128.5     0.1736
      0.507      144.2     0.1877
      0.530       23.3     1.4282
      0.530       40.1     1.1299
      0.530       57.0     0.8048
      0.530       74.2     0.5200
      0.530       94.1     0.2978
      0.530      110.7     0.1878
      0.530      128.5     0.1668
      0.530      144.2     0.1920
      0.630       23.3     1.4464
      0.630       40.1     1.1163
      0.630       57.0     0.7705
      0.630       74.2     0.4860
      0.630       94.1     0.2624
      0.630      110.7     0.1693
      0.630      128.5     0.1490
      0.630      144.2     0.1855
      0.730       23.3     1.4817
      0.730       40.1     1.1134
      0.730       57.0     0.7773
      0.730       74.2     0.4674
      0.730       94.1     0.2481
      0.730      110.7     0.1638
      0.730      128.5     0.1551
      0.730      144.2     0.2003
      0.830       23.3     1.5053
      0.830       40.1     1.1406
      0.830       57.0     0.7725
      0.830       74.2     0.4342
      0.830       94.1     0.2311
      0.830      110.7     0.1526
      0.830      128.5     0.1528
      0.830      144.2     0.2157
      0.930       23.3     1.5545
      0.930       40.1     1.1434
      0.930       57.0     0.7336
      0.930       74.2     0.4336
      0.930       94.1     0.2272
      0.930      110.7     0.1371
      0.930      128.5     0.1530
      0.930      144.2     0.2196
      1.040       23.3     1.5721
      1.040       40.1     1.1145
      1.040       57.0     0.7170
      1.040       74.2     0.4182
      1.040       94.1     0.2043
      1.040      110.7     0.1392
      1.040      128.5     0.1520
      1.040      144.2     0.2329
      1.140       23.3     1.5380
      1.140       40.1     0.1252
      1.140       57.0     0.7080
      1.140       74.2     0.3820
      1.140       94.1     0.1887
      1.140      110.7     0.1266
      1.140      128.5     0.1524
      1.140      144.2     0.2463
      1.240       23.3     1.5687
      1.240       40.1     1.0686
      1.240       57.0     0.6602
      1.240       74.2     0.3656
      1.240       94.1     0.2018
      1.240      110.7     0.1279
      1.240      128.5     0.1558
      1.240      144.2     0.2412
      1.340       23.3     1.5752
      1.340       40.1     1.0808
      1.340       57.0     0.6491
      1.340       74.2     0.3533
      1.340       94.1     0.1842
      1.340      110.7     0.1207
      1.340      128.5     0.1559
      1.340      144.2     0.2337
      1.440       23.3     1.6279
      1.440       40.1     1.0673
      1.440       57.0     0.6367
      1.440       74.2     0.3439
      1.440       94.1     0.1780
      1.440      110.7     0.1193
      1.440      128.5     0.1511
      1.440      144.2     0.2409
      1.540       23.3     1.5375
      1.540       40.1     1.0301
      1.540       57.0     0.5975
      1.540       74.2     0.3208
      1.540       94.1     0.1595
      1.540      110.7     0.1222
      1.540      128.5     0.1472
      1.540      144.2     0.2354
      1.650       23.3     1.5143
      1.650       40.1     1.0003
      1.650       57.0     0.5741
      1.650       74.2     0.3097
      1.650       94.1     0.1366
      1.650      110.7     0.1173
      1.650      128.5     0.1360
      1.650      144.2     0.2386
      1.750       23.3     1.5030
      1.750       40.1     0.9468
      1.750       57.0     0.5360
      1.750       74.2     0.2862
      1.750       94.1     0.1524
      1.750      110.7     0.1157
      1.750      128.5     0.1482
      1.750      144.2     0.2295
      1.850       23.3     1.5288
      1.850       40.1     0.9434
      1.850       57.0     0.5228
      1.850       74.2     0.2794
      1.850       94.1     0.1521
      1.850      110.7     0.1260
      1.850      128.5     0.1423
      1.850      144.2     0.2321
      1.950       23.3     1.4890
      1.950       40.1     0.9250
      1.950       57.0     0.5118
      1.950       74.2     0.2670
      1.950       94.1     0.1482
      1.950      110.7     0.1216
      1.950      128.5     0.1507
      1.950      144.2     0.2420
      2.250       23.3     1.3683
      2.250       40.1     0.8198
      2.250       57.0     0.4175
      2.250       74.2     0.2211
      2.250       94.1     0.1319
      2.250      110.7     0.1155
      2.250      128.5     0.1405
      2.250      144.2     0.2155
ENDDATA            250
ENDSUBENT          266
SUBENT        10415016   20030220   20030411
BIB                  6         10
REACTION   (82-PB-0(N,SCT)82-PB-0,,DA)
INC-SPECT  For neutron energies 0.05-0.60 MeV, resolution 40 keV.
           For neutron energies 0.60-2.25 MeV, resolution 130 keV
            at lower end of interval and 80 keV at higher end.
SAMPLE     Sample thickness = 0.00558 atoms/barn
MONITOR    (6-C-12(N,EL)6-C-12,,DA)
CORRECTION Corrected for multiple scattering; detector efficiency
            correction was negligible.
HISTORY    (19840423A) MONITOR added.
           (19860501A) REACTION product added.
ENDBIB              10
NOCOMMON             0          0
DATA                 3        248
EN         ANG        DATA
MEV        ADEG       B/SR
      0.050       23.3     0.9394
      0.050       40.1     0.8950
      0.050       57.0     0.8474
      0.050       74.2     0.8528
      0.050       94.1     0.8485
      0.050      110.7     0.8518
      0.050      128.5     0.7527
      0.050      144.2     0.7789
      0.070       23.3     0.9928
      0.070       40.1     0.9476
      0.070       57.0     0.9298
      0.070       74.2     0.9052
      0.070       94.1     0.8588
      0.070      110.7     0.8280
      0.070      128.5     0.8191
      0.070      144.2     0.8148
      0.085       23.3     1.0224
      0.085       40.1     0.9615
      0.085       57.0     0.9263
      0.085       74.2     0.8920
      0.085       94.1     0.8025
      0.085      110.7     0.8116
      0.085      128.5     0.7463
      0.085      144.2     0.7584
      0.100       23.3     1.0717
      0.100       41.1     1.0069
      0.100       57.0     0.9296
      0.100       74.2     0.8799
      0.100       94.1     0.8273
      0.100      110.7     0.7864
      0.100      128.5     0.7495
      0.100      144.2     0.7327
      0.120       23.3     1.1013
      0.120       40.1     1.0097
      0.120       57.0     0.9384
      0.120       74.2     0.8802
      0.120       94.1     0.8413
      0.120      110.7     0.7741
      0.120      128.5     0.7067
      0.120      144.2     0.7127
      0.157       23.3     1.0880
      0.157       40.1     0.9868
      0.157       57.0     0.8860
      0.157       74.2     0.8284
      0.157       94.1     0.7070
      0.157      110.7     0.6519
      0.157      128.5     0.6175
      0.157      144.2     0.6028
      0.207       23.3     1.0433
      0.207       40.1     0.8701
      0.207       57.0     0.8129
      0.207       74.2     0.7173
      0.207       94.1     0.6075
      0.207      110.7     0.5497
      0.207      128.5     0.5117
      0.207      144.2     0.4739
      0.257       23.3     1.0339
      0.257       40.1     0.8678
      0.257       57.0     0.7254
      0.257       74.2     0.7113
      0.257       94.1     0.5919
      0.257      110.7     0.5097
      0.257      128.5     0.4710
      0.257      144.2     0.4581
      0.307       23.3     1.0125
      0.307       40.1     0.8072
      0.307       57.0     0.6826
      0.307       74.2     0.6156
      0.307       94.1     0.5176
      0.307      110.7     0.4046
      0.307      128.5     0.4073
      0.307      144.2     0.4335
      0.330       23.3     1.0165
      0.330       40.1     0.8487
      0.330       57.0     0.7019
      0.330       74.2     0.5877
      0.330       94.1     0.5188
      0.330      110.7     0.4453
      0.330      128.5     0.4314
      0.330      144.2     0.4581
      0.357       23.3     1.1195
      0.357       40.1     0.8834
      0.357       57.0     0.6764
      0.357       74.2     0.5135
      0.357       94.1     0.4331
      0.357      110.7     0.4062
      0.357      128.5     0.4570
      0.357      144.2     0.5117
      0.407       23.3     1.0486
      0.407       40.1     0.7939
      0.407       57.0     0.5713
      0.407       74.2     0.4298
      0.407       94.1     0.3841
      0.407      110.7     0.3544
      0.407      128.5     0.3506
      0.407      144.2     0.3817
      0.430       23.3     0.8672
      0.430       40.1     0.6702
      0.430       57.0     0.4990
      0.430       74.2     0.3760
      0.430       94.1     0.3222
      0.430      110.7     0.3207
      0.430      128.5     0.2997
      0.430      144.2     0.3173
      0.457       23.3     0.8399
      0.457       40.1     0.6760
      0.457       57.0     0.4954
      0.457       74.2     0.3496
      0.457       94.1     0.3044
      0.457      110.7     0.2873
      0.457      128.5     0.2784
      0.457      144.2     0.3079
      0.507       23.3     0.6610
      0.507       40.1     0.5009
      0.507       57.0     0.3540
      0.507       74.2     0.2690
      0.507       94.1     0.2429
      0.507      110.7     0.2599
      0.507      128.5     0.2980
      0.507      144.2     0.3110
      0.530       23.3     0.8180
      0.530       40.1     0.5604
      0.530       57.0     0.4060
      0.530       74.2     0.3298
      0.530       94.1     0.3585
      0.530      110.7     0.3602
      0.530      128.5     0.3583
      0.530      144.2     0.3709
      0.630       23.3     0.8212
      0.630       40.1     0.5551
      0.630       57.0     0.3795
      0.630       74.2     0.3324
      0.630       94.1     0.3693
      0.630      110.7     0.3836
      0.630      128.5     0.3722
      0.630      144.2     0.3681
      0.730       23.3     0.9218
      0.730       40.1     0.6037
      0.730       57.0     0.3870
      0.730       74.2     0.3141
      0.730       94.1     0.3507
      0.730      110.7     0.3584
      0.730      128.5     0.3664
      0.730      144.2     0.3499
      0.830       23.3     1.1258
      0.830       40.1     0.6705
      0.830       57.0     0.3719
      0.830       74.2     0.2810
      0.830       94.1     0.3259
      0.830      110.7     0.3580
      0.830      128.5     0.3485
      0.830      144.2     0.3651
      0.930       23.3     1.1151
      0.930       40.1     0.6319
      0.930       57.0     0.3135
      0.930       74.2     0.2650
      0.930       94.1     0.3424
      0.930      110.7     0.3676
      0.930      128.5     0.3176
      0.930      144.2     0.2955
      1.040       23.3     1.0619
      1.040       40.1     0.5842
      1.040       57.0     0.2966
      1.040       74.2     0.2394
      1.040       94.1     0.3262
      1.040      110.7     0.3689
      1.040      128.5     0.2879
      1.040      144.2     0.2288
      1.140       23.3     1.1504
      1.140       40.1     0.6308
      1.140       57.0     0.2855
      1.140       74.2     0.2252
      1.140       94.1     0.3311
      1.140      110.7     0.3699
      1.140      128.5     0.3051
      1.140      144.2     0.2347
      1.240       23.3     1.2497
      1.240       40.1     0.6437
      1.240       57.0     0.2753
      1.240       74.2     0.2188
      1.240       94.1     0.3457
      1.240      110.7     0.3869
      1.240      128.5     0.2991
      1.240      144.2     0.2261
      1.340       23.3     1.3044
      1.340       40.1     0.6484
      1.340       57.0     0.2457
      1.340       74.2     0.1930
      1.340       94.1     0.3540
      1.340      110.7     0.4036
      1.340      128.5     0.3049
      1.340      144.2     0.2081
      1.440       23.3     1.3838
      1.440       40.1     0.6333
      1.440       57.0     0.2218
      1.440       74.2     0.1801
      1.440       94.1     0.3577
      1.440      110.7     0.4379
      1.440      128.5     0.3065
      1.440      144.2     0.1937
      1.540       23.3     1.3654
      1.540       40.1     0.6225
      1.540       57.0     0.2024
      1.540       74.2     0.1649
      1.540       94.1     0.3349
      1.540      110.7     0.3982
      1.540      128.5     0.2806
      1.540      144.2     0.1791
      1.650       23.3     1.4468
      1.650       40.1     0.6744
      1.650       57.0     0.2190
      1.650       74.2     0.1538
      1.650       94.1     0.3201
      1.650      110.7     0.4191
      1.650      128.5     0.2873
      1.650      144.2     0.2001
      1.750       23.3     1.7713
      1.750       40.1     0.7217
      1.750       57.0     0.2116
      1.750       74.2     0.1618
      1.750       94.1     0.3432
      1.750      110.7     0.4179
      1.750      128.5     0.2854
      1.750      144.2     0.2081
      1.850       23.3     1.6986
      1.850       40.1     0.7276
      1.850       57.0     0.2162
      1.850       74.2     0.1528
      1.850       94.1     0.3087
      1.850      110.7     0.3693
      1.850      128.5     0.2466
      1.850      144.2     0.1718
      1.950       23.3     1.7193
      1.950       40.1     0.7416
      1.950       57.0     0.2203
      1.950       74.2     0.1473
      1.950       94.1     0.3234
      1.950      110.7     0.3911
      1.950      128.5     0.2821
      1.950      144.2     0.1806
      2.250       23.3     1.9032
      2.250       40.1     0.7135
      2.250       57.0     0.2110
      2.250       74.2     0.1815
      2.250       94.1     0.3324
      2.250      110.7     0.3962
      2.250      128.5     0.2560
      2.250      144.2     0.1777
ENDDATA            250
ENDSUBENT          265
SUBENT        10415017   20030220   20030411
BIB                  6         10
REACTION   (92-U-0(N,SCT)92-U-0,,DA)
INC-SPECT  For neutron energies 0.05-0.60 MeV, resolution 40 keV.
           For neutron energies 0.60-2.25 MeV, resolution 130 keV
            at lower end of interval and 80 keV at higher end.
SAMPLE     Sample thickness = 0.00777 atoms/barn
MONITOR    (6-C-12(N,EL)6-C-12,,DA)
CORRECTION Corrected for multiple scattering; detector efficiency
            correction was negligible.
HISTORY    (19840423A) MONITOR added.
           (19860501A) REACTION product added.
ENDBIB              10
NOCOMMON             0          0
DATA                 3        248
EN         ANG        DATA
MEV        ADEG       B/SR
      0.050       23.3     1.0879
      0.050       40.1     1.0771
      0.050       57.0     0.9939
      0.050       74.2     0.9704
      0.050       94.1     0.9207
      0.050      110.7     0.8802
      0.050      128.5     0.8584
      0.050      144.2     0.8877
      0.070       23.3     1.1328
      0.070       40.1     1.0982
      0.070       57.0     1.0422
      0.070       74.2     0.9948
      0.070       94.1     0.9138
      0.070      110.7     0.8446
      0.070      128.5     0.8461
      0.070      144.2     0.8165
      0.085       23.3     1.1236
      0.085       40.1     1.0438
      0.085       57.0     1.0062
      0.085       74.2     0.9702
      0.085       94.1     0.8890
      0.085      110.7     0.8344
      0.085      128.5     0.7556
      0.085      144.2     0.7770
      0.100       23.3     1.1689
      0.100       40.1     1.1529
      0.100       57.0     1.0121
      0.100       74.2     0.9435
      0.100       94.1     0.8591
      0.100      110.7     0.8116
      0.100      128.5     0.7934
      0.100      144.2     0.7801
      0.120       23.3     1.1683
      0.120       40.1     1.0788
      0.120       57.0     0.9901
      0.120       74.2     0.9684
      0.120       94.1     0.8431
      0.120      110.7     0.7876
      0.120      128.5     0.7550
      0.120      144.2     0.7489
      0.157       23.3     1.1761
      0.157       40.1     1.0992
      0.157       57.0     1.0039
      0.157       74.2     0.8557
      0.157       94.1     0.8087
      0.157      110.7     0.7029
      0.157      128.5     0.6548
      0.157      144.2     0.6330
      0.207       23.3     1.3040
      0.207       40.1     1.1803
      0.207       57.0     1.0220
      0.207       74.2     0.8605
      0.207       94.1     0.7169
      0.207      110.7     0.6415
      0.207      128.5     0.5409
      0.207      144.2     0.5465
      0.257       23.3     1.3900
      0.257       40.1     1.1859
      0.257       57.0     0.9663
      0.257       74.2     0.7894
      0.257       94.1     0.6583
      0.257      110.7     0.5653
      0.257      128.5     0.4986
      0.257      144.2     0.4939
      0.307       23.3     1.4140
      0.307       40.1     1.1806
      0.307       57.0     0.9525
      0.307       74.2     0.7206
      0.307       94.1     0.6018
      0.307      110.7     0.5091
      0.307      128.5     0.4439
      0.307      144.2     0.4584
      0.330       23.3     1.3689
      0.330       40.1     1.0746
      0.330       57.0     0.9216
      0.330       74.2     0.7291
      0.330       94.1     0.6077
      0.330      110.7     0.5193
      0.330      128.5     0.4553
      0.330      144.2     0.4668
      0.357       23.3     1.3863
      0.357       40.1     1.1119
      0.357       57.0     0.8977
      0.357       74.2     0.6870
      0.357       94.1     0.5550
      0.357      110.7     0.4381
      0.357      128.5     0.4094
      0.357      144.2     0.4017
      0.407       23.3     1.4192
      0.407       40.1     1.1237
      0.407       57.0     0.8628
      0.407       74.2     0.6473
      0.407       94.1     0.5139
      0.407      110.7     0.4473
      0.407      128.5     0.3941
      0.407      144.2     0.3949
      0.430       23.3     1.4332
      0.430       40.1     1.0989
      0.430       57.0     0.8138
      0.430       74.2     0.6192
      0.430       94.1     0.4792
      0.430      110.7     0.4385
      0.430      128.5     0.3866
      0.430      144.2     0.3977
      0.457       23.3     1.4217
      0.457       40.1     1.1144
      0.457       57.0     0.8094
      0.457       74.2     0.5955
      0.457       94.1     0.4715
      0.457      110.7     0.4148
      0.457      128.5     0.3719
      0.457      144.2     0.3759
      0.507       23.3     1.4975
      0.507       40.1     1.0912
      0.507       57.0     0.8034
      0.507       74.2     0.5885
      0.507       94.1     0.4554
      0.507      110.7     0.4028
      0.507      128.5     0.3705
      0.507      144.2     0.3578
      0.530       23.3     1.4944
      0.530       40.1     1.0894
      0.530       57.0     0.7860
      0.530       74.2     0.5553
      0.530       94.1     0.4390
      0.530      110.7     0.3841
      0.530      128.5     0.3682
      0.530      144.2     0.3496
      0.630       23.3     1.4638
      0.630       40.1     1.0568
      0.630       57.0     0.6964
      0.630       74.2     0.4947
      0.630       94.1     0.3927
      0.630      110.7     0.3620
      0.630      128.5     0.3335
      0.630      144.2     0.3284
      0.730       23.3     1.4858
      0.730       40.1     0.9974
      0.730       57.0     0.6573
      0.730       74.2     0.4633
      0.730       94.1     0.3842
      0.730      110.7     0.3490
      0.730      128.5     0.3147
      0.730      144.2     0.3094
      0.830       23.3     1.5146
      0.830       40.1     0.9583
      0.830       57.0     0.5923
      0.830       74.2     0.4197
      0.830       94.1     0.3780
      0.830      110.7     0.3573
      0.830      128.5     0.2951
      0.830      144.2     0.2964
      0.930       23.3     1.5395
      0.930       40.1     0.9659
      0.930       57.0     0.5342
      0.930       74.2     0.3895
      0.930       94.1     0.3698
      0.930      110.7     0.3592
      0.930      128.5     0.2987
      0.930      144.2     0.2862
      1.040       23.3     1.5527
      1.040       40.1     0.9064
      1.040       57.0     0.5082
      1.040       74.2     0.3619
      1.040       94.1     0.3532
      1.040      110.7     0.3457
      1.040      128.5     0.3003
      1.040      144.2     0.2640
      1.140       23.3     1.6174
      1.140       40.1     0.8756
      1.140       57.0     0.4519
      1.140       74.2     0.3434
      1.140       94.1     0.3605
      1.140      110.7     0.3433
      1.140      128.5     0.2869
      1.140      144.2     0.2520
      1.240       23.3     1.6282
      1.240       40.1     0.8591
      1.240       57.0     0.4250
      1.240       74.2     0.3226
      1.240       94.1     0.3777
      1.240      110.7     0.3524
      1.240      128.5     0.2735
      1.240      144.2     0.2541
      1.340       23.3     1.6747
      1.340       40.1     0.8472
      1.340       57.0     0.3851
      1.340       74.2     0.3449
      1.340       94.1     0.3895
      1.340      110.7     0.3575
      1.340      128.5     0.2794
      1.340      144.2     0.2475
      1.440       23.3     1.7508
      1.440       40.1     0.8247
      1.440       57.0     0.3929
      1.440       74.2     0.3351
      1.440       94.1     0.3954
      1.440      110.7     0.3683
      1.440      128.5     0.2923
      1.440      144.2     0.2615
      1.540       23.3     1.7719
      1.540       40.1     0.8178
      1.540       57.0     0.3688
      1.540       74.2     0.3569
      1.540       94.1     0.4134
      1.540      110.7     0.3725
      1.540      128.5     0.2954
      1.540      144.2     0.2670
      1.650       23.3     1.8954
      1.650       40.1     0.8252
      1.650       57.0     0.3753
      1.650       74.2     0.3650
      1.650       94.1     0.4057
      1.650      110.7     0.3727
      1.650      128.5     0.2899
      1.650      144.2     0.2758
      1.750       23.3     1.9059
      1.750       40.1     0.7809
      1.750       57.0     0.3587
      1.750       74.2     0.3659
      1.750       94.1     0.4144
      1.750      110.7     0.3713
      1.750      128.5     0.3041
      1.750      144.2     0.2737
      1.850       23.3     1.9839
      1.850       40.1     0.8118
      1.850       57.0     0.3432
      1.850       74.2     0.3787
      1.850       94.1     0.4324
      1.850      110.7     0.3746
      1.850      128.5     0.2977
      1.850      144.2     0.2868
      1.950       23.3     2.0552
      1.950       40.1     0.8021
      1.950       57.0     0.3444
      1.950       74.2     0.4008
      1.950       94.1     0.4425
      1.950      110.7     0.3608
      1.950      128.5     0.2964
      1.950      144.2     0.2975
      2.250       23.3     2.1855
      2.250       40.1     0.7217
      2.250       57.0     0.3290
      2.250       74.2     0.4002
      2.250       94.1     0.4176
      2.250      110.7     0.3355
      2.250      128.5     0.2892
      2.250      144.2     0.2932
ENDDATA            250
ENDSUBENT          265
SUBENT        10415018   20030220   20030411
BIB                  2          3
REACTION  1(6-C-12(N,0),,L)
          2(6-C-12(N,0),,J)
HISTORY    (19780914C)
ENDBIB               3
NOCOMMON             0          0
DATA                 3          1
EN-RES     DATA      1DATA      2
MEV        NO-DIM     NO-DIM
 2.08       2.         2.5
ENDDATA              3
ENDSUBENT           11
SUBENT        10415019   20030220   20030411
BIB                  2          4
REACTION  1(8-O-16(N,0),,L)
          2(8-O-16(N,0),,J)
HISTORY    (19780914C)
           (19790425A) Data heading correction
ENDBIB               4
NOCOMMON             0          0
DATA                 3          1
EN-RES     DATA      1DATA      2
MEV        NO-DIM     NO-DIM
 1.66       3.         1.5
ENDDATA              3
ENDSUBENT           12
SUBENT        10415020   20030220   20030411
BIB                  2          3
REACTION  1(14-SI-28(N,0),,L)
          2(14-SI-28(N,0),,J)
HISTORY    (19780915C)
ENDBIB               3
NOCOMMON             0          0
DATA                 3          2
EN-RES     DATA      1DATA      2
MEV        NO-DIM     NO-DIM
 0.537      2.         2.5
 0.570      1.         1.5
ENDDATA              4
ENDSUBENT           12
ENDENTRY            20
