ENTRY            10488   20040114   20040406
SUBENT        10488001   20040114   20040406
BIB                  7         14
INSTITUTE  (1USAMTR,1USAUID)
REFERENCE  (P,WASH-1074,51,196704)
           (T,WILSON,196612) Masters thesis
AUTHOR     (W.L.Wilson)
TITLE      Neutron cross section measurements and gamma ray
            studies of 45Sc
FACILITY   (REAC,1USAMTR)
STATUS     No reply to author proof.
           Data taken from thesis.
HISTORY    (19750403C)
           (19760302U) REFERENCE and INSTITUTE updated
           (19830615A) Converted to REACTION formalism
           (19840107A) Lab correction.
           (20040114A) Converted to new date formats, lower case.
ENDBIB              14
NOCOMMON             0          0
ENDSUBENT           17
SUBENT        10488002   20040114   20040406
BIB                  8          9
REACTION   (21-SC-45(N,G)21-SC-46,,SIG)
METHOD     (ACTIV)
DETECTOR   (NAICR) NaI(Tl) crystal
ANALYSIS   Average for metal foils and Sc2O3 powder samples,
            assuming 1/v dependence
MONITOR    (27-CO-59(N,G)27-CO-60,,SIG)
DECAY-DATA (21-SC-46-G,83.9D,DG,887.,1.0,DG,1119.,1.0)
DECAY-MON  (27-CO-60-G,5.27YR,DG,1173.,1.0,DG,1332.,1.0)
ERR-ANALYS (DATA-ERR) See thesis for contributions to data error.
ENDBIB               9
NOCOMMON             0          0
DATA                 4          1
EN         DATA       DATA-ERR   MONIT
EV         B          B          B
 0.0253     26.6       0.5        37.4
ENDDATA              3
ENDSUBENT           17
SUBENT        10488003   20040114   20040406
BIB                  6          7
REACTION   (21-SC-45(N,TOT),,SIG)
FACILITY   (CHOPF,1USAMTR) Fast chopper
METHOD     (TOF) Time-of-flight. 20-m flight path.
DETECTOR   (PROPC) 80 10BF3 proportional counters
MISC-COL   (MISC1) Sample thickness in inches
           (MISC2) Channel width
ERR-ANALYS No data uncertainties given.
ENDBIB               7
NOCOMMON             0          0
DATA                 4        120
EN         DATA       MISC1      MISC2
EV         B          SEE TEXT   MICROSEC
    0.02030  53.561    1.0311     32.
    0.02250  51.601    1.0311     32.
    0.02500  50.567    1.0311     32.
    0.02770  48.786    1.0311     32.
    0.03080  47.055    1.0311     32.
    0.03420  46.607    1.0311     32.
    0.03780  45.339    1.0311     32.
    0.04200  44.120    1.0311     32.
    0.04680  42.639    1.0311     32.
    0.05190  41.751    1.0311     32.
    0.05760  41.038    1.0311     32.
    0.06380  39.810    1.0311     32.
    0.07080  38.898    1.0311     32.
    0.07890  38.075    1.0311     32.
    0.08800  37.258    1.0311     32.
    0.09730  36.457    1.0311     32.
    0.10750  35.854    1.0311     32.
    0.11930  35.075    1.0311     32.
    0.13320  34.408    1.0311     32.
    0.14840  33.821    1.0311     32.
    0.16480  33.334    1.0311     32.
    0.18240  32.830    1.0311     32.
    0.20090  32.400    1.0311     32.
    0.22250  31.789    1.0311     32.
    0.24770  31.321    1.0311     32.
    0.27420  30.720    1.0311     32.
    0.30520  30.267    1.0311     32.
    0.34180  29.854    1.0311     32.
    0.38010  29.562    1.0311     32.
    0.41920  29.549    1.0311     32.
    0.46470  28.968    1.0311     32.
    0.51800  28.623    1.0311     32.
    0.57130  28.234    1.0311     32.
    0.63330  27.982    1.0311     32.
    0.70600  27.737    1.0311     32.
    0.79190  27.396    1.0311     32.
    0.87610  27.327    1.0311     32.
    0.95350  26.972    1.0311     32.
    1.06560  26.639    1.0311     32.
    1.19870  26.495    1.0311     32.
    1.32400  26.213    1.0311     32.
    1.47000  26.038    1.0311     32.
    1.64150  25.825    1.0311     32.
    1.84490  25.749    1.0311     32.
    2.02330  25.378    1.0311     32.
    2.22900  25.320    1.0311     32.
    2.46760  25.480    1.0311     32.
    2.74680  24.865    1.0311     32.
    3.07610  24.625    1.0311     32.
    3.32970  24.598    1.0311     32.
    3.77320  24.472    1.0311     32.
    4.31160  24.361    1.0311     32.
    4.73720  24.102    1.0311     32.
    5.22910  23.910    1.0311     32.
    5.80170  23.901    1.0311     32.
    6.47380  23.880    1.0311     32.
    7.26990  23.271    1.0311     32.
    8.22240  23.256    1.0311     32.
    9.37510  23.006    1.0311     32.
   10.78830  22.954    1.0311     32.
   12.54690  22.681    1.0311     32.
   14.77350  22.476    1.0311     32.
   17.64990  22.095    1.0311     32.
   21.45600  21.621    1.0311     32.
   26.64050  20.904    1.0311     32.
   33.85630  19.928    1.0311      0.5
   36.22140  19.619    1.0311      0.5
   39.86770  19.235    1.0311      0.5
   43.89190  18.942    1.0311      0.5
   48.32430  18.526    1.0311      0.5
   53.06050  18.151    1.0311      0.5
   58.37420  17.745    1.0311      0.5
   64.34900  17.344    1.0311      0.5
   70.67010  16.890    1.0311      0.5
   77.73290  16.273    1.0311      0.5
   85.63520  15.821    1.0311      0.5
   94.17160  15.300    1.0311      0.5
  103.32000  14.720    1.0311      0.5
  113.45000  14.195    1.0311      0.5
  125.15000  13.607    1.0311      0.5
  137.63000  13.043    1.0311      0.5
  151.43000  12.362    1.0311      0.5
  166.67000  11.742    1.0311      0.5
  182.61000  11.109    1.0311      0.5
  200.95000  10.408    1.0311      0.5
  221.06000   9.758    1.0311      0.5
  243.03000   9.147    1.0311      0.5
  268.45000   8.536    1.0311      0.5
  296.30000   7.858    1.0311      0.5
  324.64000   7.249    1.0311      0.5
  357.25000   6.600    1.0311      0.5
  395.03000   5.897    1.0311      0.5
  432.84000   5.371    1.0311      0.5
  472.77000   5.244    1.0311      0.5
  522.60000   4.334    1.0311      0.5
  575.94000   3.801    1.0311      0.5
  632.35000   3.332    1.0311      0.5
  730.44000   2.717    1.0311      0.5
  870.76000   1.804    1.0311      0.5
 1044.00999   1.353    1.0311      0.5
 1259.03000   0.541    1.0311      0.5
 1506.75000   0.242    1.0311      0.5
 1991.20000   0.052    1.0311      0.5
 2619.72000   1.366    1.0311      0.5
 2921.76001   4.792    1.0311      0.5
 3034.12799   8.906    1.0311      0.5
 3034.13000  19.763    0.1055      0.5
 3215.23001  42.428    0.1055      0.5
 3413.04999  51.184    0.1055      0.5
 3555.23999  40.804    0.1055      0.5
 3706.51001  34.975    0.1055      0.5
 3867.64999  47.908    0.1055      0.5
 4039.51999  81.746    0.1055      0.5
 4319.64001 115.075    0.1055      0.5
 4629.92999  82.679    0.1055      0.5
 4855.75000  52.432    0.1055      0.5
 5098.50000  21.166    0.1055      0.5
 5359.91998  13.900    0.1055      0.5
 5641.96997  11.202    0.1055      0.5
 5946.89001   8.369    0.1055      0.5
ENDDATA            122
ENDSUBENT          134
ENDENTRY             3
