ENTRY            11502     821124              20050926       0000
SUBENT        11502001     821124              20050926       0000
BIB                  5          7
INSTITUTE  (1USAANL)
REFERENCE  (W,COX,6511)
           (P,ANL-6977,43,64)
AUTHOR     (A.B.SMITH,S.A.COX)
STATUS     (SCSRS)
HISTORY    (760715T) TRANSLATED FROM SCISRS
           (821124A) CONVERTED TO REACTION FORMALISM
ENDBIB               7
NOCOMMON             0          0
ENDSUBENT           10
SUBENT        11502002     821124              20050926       0000
BIB                  3          3
REACTION   (12-MG-0(N,TOT),,SIG)
METHOD     (TOF)      TIME-OF-FLIGHT
ERR-ANALYS (ERR-S) STATISTICAL ERROR
ENDBIB               3
NOCOMMON             0          0
DATA                 3        522
EN         DATA       ERR-S
MEV        B          B
 5.140  -01 4.183  +00 7.2    -02
 5.163  -01 4.332  +00 1.24   -01
 5.176  -01 4.392  +00 1.01   -01
 5.201  -01 4.417  +00 7.0    -02
 5.227  -01 4.462  +00 9.7    -02
 5.244  -01 4.445  +00 9.6    -02
 5.258  -01 4.647  +00 1.17   -01
 5.282  -01 4.721  +00 6.1    -02
 5.307  -01 4.768  +00 9.3    -02
 5.324  -01 4.663  +00 9.2    -02
 5.339  -01 4.708  +00 1.13   -01
 5.362  -01 4.799  +00 6.4    -02
 5.386  -01 4.762  +00 1.10   -01
 5.401  -01 4.673  +00 9.0    -02
 5.419  -01 4.633  +00 8.9    -02
 5.441  -01 4.748  +00 7.0    -02
 5.467  -01 4.762  +00 8.8    -02
 5.482  -01 4.732  +00 1.08   -01
 5.497  -01 4.663  +00 8.8    -02
 5.523  -01 4.786  +00 6.9    -02
 5.546  -01 4.725  +00 8.8    -02
 5.562  -01 4.765  +00 1.07   -01
 5.577  -01 4.669  +00 8.7    -02
 5.601  -01 4.692  +00 6.8    -02
 5.627  -01 4.643  +00 8.6    -02
 5.643  -01 4.665  +00 1.04   -01
 5.659  -01 4.603  +00 8.6    -02
 5.681  -01 4.647  +00 5.1    -02
 5.707  -01 4.740  +00 8.3    -02
 5.723  -01 4.709  +00 6.7    -02
 5.739  -01 4.661  +00 8.1    -02
 5.762  -01 4.617  +00 5.1    -02
 5.786  -01 4.557  +00 7.1    -02
 5.802  -01 4.392  +00 7.3    -02
 5.819  -01 4.747  +00 9.6    -02
 5.843  -01 4.657  +00 7.6    -02
 5.868  -01 4.608  +00 1.17   -01
 5.884  -01 4.460  +00 9.4    -02
 5.901  -01 4.386  +00 1.14   -01
 5.917  -01 4.467  +00 9.4    -02
 5.940  -01 4.242  +00 8.0    -02
 5.964  -01 4.263  +00 9.2    -02
 5.981  -01 4.162  +00 1.12   -01
 5.995  -01 4.062  +00 1.12   -01
 6.020  -01 4.031  +00 7.2    -02
 6.037  -01 4.079  +00 7.5    -02
 6.061  -01 4.103  +00 8.5    -02
 6.082  -01 3.890  +00 6.3    -02
 6.105  -01 3.976  +00 6.6    -02
 6.125  -01 3.763  +00 8.1    -02
 6.141  -01 3.787  +00 7.2    -02
 6.157  -01 3.751  +00 7.7    -02
 6.172  -01 3.685  +00 8.8    -02
 6.176  -01 3.699  +00 1.07   -01
 6.189  -01 3.745  +00 1.08   -01
 6.190  -01 3.641  +00 1.06   -01
 6.203  -01 3.668  +00 1.07   -01
 6.208  -01 3.685  +00 8.5    -02
 6.218  -01 3.575  +00 1.08   -01
 6.227  -01 3.672  +00 1.04   -01
 6.236  -01 3.444  +00 8.8    -02
 6.241  -01 3.496  +00 1.03   -01
 6.254  -01 3.568  +00 1.08   -01
 6.256  -01 3.514  +00 1.02   -01
 6.268  -01 3.454  +00 1.08   -01
 6.271  -01 3.431  +00 1.01   -01
 6.283  -01 3.599  +00 1.08   -01
 6.286  -01 3.513  +00 1.01   -01
 6.297  -01 3.369  +00 1.09   -01
 6.304  -01 3.149  +00 8.3    -02
 6.316  -01 3.421  +00 8.9    -02
 6.323  -01 3.289  +00 1.01   -01
 6.334  -01 3.032  +00 1.09   -01
 6.338  -01 3.006  +00 1.01   -01
 6.349  -01 2.950  +00 1.09   -01
 6.353  -01 2.900  +00 1.01   -01
 6.364  -01 2.755  +00 1.09   -01
 6.368  -01 2.637  +00 9.9    -02
 6.379  -01 2.560  +00 1.08   -01
 6.383  -01 2.425  +00 9.9    -02
 6.394  -01 2.542  +00 1.06   -01
 6.399  -01 2.749  +00 1.00   -01
 6.412  -01 3.078  +00 9.0    -02
 6.414  -01 3.650  +00 1.04   -01
 6.429  -01 3.875  +00 1.06   -01
 6.431  -01 3.810  +00 1.18   -01
 6.446  -01 3.300  +00 1.20   -01
 6.448  -01 3.405  +00 8.4    -02
 6.461  -01 2.836  +00 1.26   -01
 6.468  -01 2.997  +00 1.03   -01
 6.483  -01 2.711  +00 1.01   -01
 6.499  -01 2.563  +00 1.00   -01
 6.515  -01 2.417  +00 1.00   -01
 6.530  -01 2.471  +00 1.01   -01
 6.546  -01 2.529  +00 1.01   -01
 6.562  -01 2.650  +00 1.02   -01
 6.578  -01 3.127  +00 1.04   -01
 6.594  -01 3.457  +00 1.06   -01
 6.610  -01 4.230  +00 1.08   -01
 6.626  -01 4.606  +00 1.11   -01
 6.642  -01 4.744  +00 1.12   -01
 6.658  -01 5.127  +00 1.15   -01
 6.674  -01 5.309  +00 1.16   -01
 6.690  -01 5.506  +00 1.16   -01
 6.705  -01 5.213  +00 1.73   -01
 6.707  -01 5.394  +00 1.16   -01
 6.723  -01 5.411  +00 1.16   -01
 6.727  -01 5.083  +00 2.12   -01
 6.739  -01 5.335  +00 1.15   -01
 6.744  -01 5.240  +00 2.12   -01
 6.756  -01 5.340  +00 1.15   -01
 6.766  -01 5.054  +00 1.73   -01
 6.769  -01 5.235  +00 1.63   -01
 6.781  -01 5.232  +00 1.14   -01
 6.788  -01 5.004  +00 2.12   -01
 6.798  -01 5.024  +00 1.14   -01
 6.814  -01 4.933  +00 1.14   -01
 6.831  -01 4.913  +00 1.12   -01
 6.848  -01 4.637  +00 1.08   -01
 6.865  -01 4.469  +00 1.11   -01
 6.868  -01 4.788  +00 2.12   -01
 6.891  -01 4.922  +00 3.00   -01
 6.904  -01 4.643  +00 2.12   -01
 6.927  -01 4.450  +00 1.73   -01
 6.949  -01 4.404  +00 2.12   -01
 6.967  -01 4.417  +00 2.12   -01
 6.986  -01 4.428  +00 2.12   -01
 7.004  -01 4.499  +00 2.12   -01
 7.023  -01 4.475  +00 2.12   -01
 7.046  -01 4.499  +00 1.73   -01
 7.069  -01 4.090  +00 2.12   -01
 7.088  -01 4.051  +00 2.12   -01
 7.107  -01 4.083  +00 2.12   -01
 7.126  -01 4.277  +00 2.12   -01
 7.145  -01 4.003  +00 2.12   -01
 7.164  -01 4.617  +00 2.12   -01
 7.183  -01 4.356  +00 2.12   -01
 7.202  -01 4.491  +00 2.12   -01
 7.226  -01 4.117  +00 1.73   -01
 7.251  -01 4.116  +00 2.12   -01
 7.270  -01 4.222  +00 2.12   -01
 7.290  -01 3.997  +00 2.12   -01
 7.309  -01 4.056  +00 2.12   -01
 7.329  -01 4.031  +00 2.12   -01
 7.349  -01 3.918  +00 2.12   -01
 7.369  -01 3.840  +00 2.12   -01
 7.390  -01 3.961  +00 1.20   -01
 7.415  -01 3.750  +00 2.00   -01
 7.435  -01 3.960  +00 2.00   -01
 7.455  -01 3.820  +00 2.00   -01
 7.475  -01 3.830  +00 2.00   -01
 7.495  -01 3.720  +00 2.00   -01
 7.515  -01 3.705  +00 2.00   -01
 7.537  -01 3.836  +00 1.56   -01
 7.557  -01 3.896  +00 1.56   -01
 7.579  -01 3.774  +00 2.12   -01
 7.599  -01 3.838  +00 2.12   -01
 7.620  -01 3.663  +00 2.12   -01
 7.640  -01 3.590  +00 2.12   -01
 7.654  -01 3.618  +00 3.00   -01
 7.668  -01 3.400  +00 2.12   -01
 7.687  -01 3.393  +00 2.12   -01
 7.715  -01 3.436  +00 1.49   -01
 7.744  -01 3.125  +00 2.12   -01
 7.763  -01 3.157  +00 2.12   -01
 7.782  -01 3.494  +00 2.12   -01
 7.806  -01 3.465  +00 1.73   -01
 7.830  -01 3.368  +00 2.12   -01
 7.850  -01 3.316  +00 2.12   -01
 7.869  -01 3.305  +00 2.12   -01
 7.889  -01 3.186  +00 2.12   -01
 7.909  -01 3.500  +00 2.12   -01
 7.928  -01 3.344  +00 2.12   -01
 7.948  -01 3.392  +00 2.12   -01
 7.968  -01 3.439  +00 2.12   -01
 7.988  -01 3.430  +00 2.12   -01
 8.008  -01 3.416  +00 2.12   -01
 8.028  -01 3.548  +00 2.12   -01
 8.048  -01 3.429  +00 2.12   -01
 8.065  -01 3.752  +00 1.73   -01
 8.089  -01 3.875  +00 2.12   -01
 8.106  -01 3.580  +00 3.00   -01
 8.124  -01 3.725  +00 2.12   -01
 8.148  -01 3.660  +00 2.12   -01
 8.165  -01 3.700  +00 3.00   -01
 8.183  -01 3.735  +00 2.12   -01
 8.207  -01 3.905  +00 2.12   -01
 8.224  -01 3.710  +00 3.00   -01
 8.242  -01 3.760  +00 2.12   -01
 8.267  -01 3.765  +00 2.12   -01
 8.285  -01 3.930  +00 3.00   -01
 8.303  -01 3.965  +00 2.12   -01
 8.327  -01 4.020  +00 2.12   -01
 8.345  -01 4.090  +00 3.00   -01
 8.363  -01 4.320  +00 2.12   -01
 8.388  -01 4.585  +00 2.12   -01
 8.411  -01 5.360  +00 2.12   -01
 8.432  -01 5.870  +00 3.00   -01
 8.449  -01 6.545  +00 2.12   -01
 8.469  -01 7.190  +00 3.00   -01
 8.487  -01 7.724  +00 2.12   -01
 8.506  -01 7.690  +00 3.00   -01
 8.525  -01 7.209  +00 2.12   -01
 8.544  -01 5.950  +00 3.00   -01
 8.563  -01 5.760  +00 2.12   -01
 8.589  -01 4.900  +00 2.12   -01
 8.610  -01 4.630  +00 3.00   -01
 8.627  -01 4.370  +00 2.12   -01
 8.647  -01 4.110  +00 3.00   -01
 8.666  -01 3.920  +00 2.12   -01
 8.685  -01 3.960  +00 3.00   -01
 8.704  -01 3.725  +00 2.12   -01
 8.720  -01 3.730  +00 3.00   -01
 8.744  -01 3.600  +00 2.12   -01
 8.764  -01 3.690  +00 3.00   -01
 8.783  -01 3.465  +00 2.12   -01
 8.805  -01 3.475  +00 2.12   -01
 8.830  -01 3.570  +00 3.00   -01
 8.843  -01 3.340  +00 3.00   -01
 8.863  -01 3.325  +00 2.12   -01
 8.884  -01 3.450  +00 3.00   -01
 8.903  -01 3.250  +00 2.12   -01
 8.920  -01 3.270  +00 3.00   -01
 8.944  -01 3.270  +00 2.12   -01
 8.970  -01 3.390  +00 2.12   -01
 8.992  -01 3.294  +00 3.00   -01
 9.005  -01 3.272  +00 3.00   -01
 9.023  -01 3.349  +00 2.12   -01
 9.049  -01 3.258  +00 2.12   -01
 9.069  -01 3.348  +00 3.00   -01
 9.088  -01 3.137  +00 2.12   -01
 9.108  -01 3.348  +00 3.00   -01
 9.127  -01 3.016  +00 2.12   -01
 9.147  -01 3.261  +00 3.00   -01
 9.166  -01 3.141  +00 2.12   -01
 9.186  -01 3.110  +00 3.00   -01
 9.205  -01 2.953  +00 2.12   -01
 9.226  -01 3.358  +00 3.00   -01
 9.245  -01 3.097  +00 2.12   -01
 9.266  -01 3.439  +00 3.00   -01
 9.285  -01 2.942  +00 2.12   -01
 9.306  -01 3.187  +00 3.00   -01
 9.326  -01 2.978  +00 2.12   -01
 9.346  -01 2.901  +00 3.00   -01
 9.366  -01 2.898  +00 2.12   -01
 9.387  -01 2.888  +00 3.00   -01
 9.407  -01 2.934  +00 2.12   -01
 9.428  -01 2.737  +00 3.00   -01
 9.448  -01 2.717  +00 2.12   -01
 9.469  -01 2.929  +00 3.00   -01
 9.483  -01 2.808  +00 3.00   -01
 9.503  -01 2.873  +00 2.12   -01
 9.524  -01 2.965  +00 3.00   -01
 9.545  -01 3.012  +00 2.12   -01
 9.566  -01 3.156  +00 3.00   -01
 9.587  -01 2.946  +00 2.12   -01
 9.608  -01 2.879  +00 3.00   -01
 9.622  -01 2.958  +00 3.00   -01
 9.644  -01 2.846  +00 2.12   -01
 9.665  -01 3.098  +00 3.00   -01
 9.686  -01 3.198  +00 2.12   -01
 9.708  -01 3.324  +00 3.00   -01
 9.726  -01 3.334  +00 2.12   -01
 9.751  -01 3.285  +00 3.00   -01
 9.765  -01 3.090  +00 3.00   -01
 9.787  -01 2.933  +00 2.12   -01
 9.809  -01 2.838  +00 3.00   -01
 9.823  -01 2.849  +00 3.00   -01
 9.845  -01 3.105  +00 2.12   -01
 9.867  -01 2.774  +00 3.00   -01
 9.882  -01 2.805  +00 3.00   -01
 9.904  -01 2.833  +00 2.12   -01
 9.926  -01 2.780  +00 3.00   -01
 9.948  -01 2.763  +00 2.12   -01
 9.971  -01 2.907  +00 3.00   -01
 9.986  -01 2.918  +00 3.00   -01
 1.001  +00 2.673  +00 2.12   -01
 1.003  +00 2.866  +00 3.00   -01
 1.005  +00 2.848  +00 3.00   -01
 1.007  +00 2.623  +00 2.12   -01
 1.009  +00 2.676  +00 3.00   -01
 1.011  +00 2.260  +00 3.00   -01
 1.012  +00 2.716  +00 3.00   -01
 1.014  +00 2.590  +00 2.12   -01
 1.017  +00 2.475  +00 3.00   -01
 1.018  +00 3.018  +00 3.00   -01
 1.021  +00 3.353  +00 2.12   -01
 1.023  +00 3.551  +00 3.00   -01
 1.024  +00 3.233  +00 3.00   -01
 1.027  +00 2.626  +00 2.12   -01
 1.029  +00 2.052  +00 3.00   -01
 1.031  +00 1.871  +00 3.00   -01
 1.032  +00 2.186  +00 3.00   -01
 1.034  +00 2.035  +00 3.00   -01
 1.036  +00 2.866  +00 3.00   -01
 1.039  +00 2.930  +00 2.12   -01
 1.041  +00 3.202  +00 3.00   -01
 1.043  +00 3.327  +00 3.00   -01
 1.045  +00 3.364  +00 3.00   -01
 1.047  +00 3.352  +00 3.00   -01
 1.048  +00 3.186  +00 3.00   -01
 1.050  +00 3.119  +00 3.00   -01
 1.052  +00 2.832  +00 3.00   -01
 1.055  +00 2.640  +00 2.12   -01
 1.057  +00 2.423  +00 3.00   -01
 1.059  +00 2.486  +00 3.00   -01
 1.061  +00 2.375  +00 3.00   -01
 1.063  +00 2.395  +00 3.00   -01
 1.065  +00 1.967  +00 3.00   -01
 1.066  +00 1.764  +00 3.00   -01
 1.068  +00 1.557  +00 3.00   -01
 1.070  +00 1.479  +00 3.00   -01
 1.072  +00 1.751  +00 3.00   -01
 1.074  +00 1.794  +00 3.00   -01
 1.077  +00 2.317  +00 2.12   -01
 1.079  +00 2.527  +00 3.00   -01
 1.081  +00 2.961  +00 3.00   -01
 1.083  +00 3.113  +00 3.00   -01
 1.085  +00 3.352  +00 3.00   -01
 1.087  +00 3.416  +00 3.00   -01
 1.089  +00 3.321  +00 3.00   -01
 1.091  +00 3.384  +00 3.00   -01
 1.093  +00 3.625  +00 3.00   -01
 1.094  +00 3.561  +00 3.00   -01
 1.096  +00 3.418  +00 3.00   -01
 1.098  +00 3.625  +00 3.00   -01
 1.105  +00 3.322  +00 2.12   -01
 1.108  +00 3.489  +00 3.00   -01
 1.110  +00 3.206  +00 3.00   -01
 1.112  +00 3.383  +00 3.00   -01
 1.114  +00 3.462  +00 3.00   -01
 1.116  +00 3.328  +00 3.00   -01
 1.118  +00 3.290  +00 3.00   -01
 1.120  +00 3.201  +00 3.00   -01
 1.122  +00 3.283  +00 3.00   -01
 1.124  +00 3.158  +00 2.12   -01
 1.125  +00 3.260  +00 2.12   -01
 1.127  +00 3.025  +00 2.12   -01
 1.129  +00 2.975  +00 2.12   -01
 1.131  +00 3.100  +00 2.12   -01
 1.133  +00 3.125  +00 2.12   -01
 1.135  +00 3.100  +00 2.12   -01
 1.137  +00 3.100  +00 2.12   -01
 1.139  +00 3.125  +00 2.12   -01
 1.141  +00 3.075  +00 2.12   -01
 1.143  +00 3.075  +00 2.12   -01
 1.145  +00 3.150  +00 2.12   -01
 1.147  +00 3.150  +00 2.12   -01
 1.149  +00 2.900  +00 2.12   -01
 1.151  +00 3.050  +00 2.12   -01
 1.154  +00 2.900  +00 3.00   -01
 1.155  +00 3.100  +00 2.12   -01
 1.157  +00 3.000  +00 2.12   -01
 1.159  +00 3.050  +00 2.12   -01
 1.161  +00 2.925  +00 2.12   -01
 1.163  +00 2.950  +00 2.12   -01
 1.165  +00 2.975  +00 2.12   -01
 1.167  +00 2.800  +00 2.12   -01
 1.169  +00 2.700  +00 2.12   -01
 1.171  +00 2.650  +00 2.12   -01
 1.173  +00 2.800  +00 2.12   -01
 1.175  +00 2.700  +00 2.12   -01
 1.178  +00 2.800  +00 3.00   -01
 1.179  +00 2.650  +00 2.12   -01
 1.181  +00 2.600  +00 2.12   -01
 1.183  +00 2.650  +00 2.12   -01
 1.185  +00 2.600  +00 2.12   -01
 1.187  +00 2.500  +00 2.12   -01
 1.189  +00 2.650  +00 2.12   -01
 1.191  +00 2.700  +00 2.12   -01
 1.193  +00 2.850  +00 2.12   -01
 1.195  +00 2.600  +00 3.00   -01
 1.196  +00 2.600  +00 3.00   -01
 1.199  +00 2.750  +00 2.12   -01
 1.201  +00 2.800  +00 2.12   -01
 1.203  +00 3.000  +00 3.00   -01
 1.205  +00 2.750  +00 2.12   -01
 1.207  +00 2.825  +00 2.12   -01
 1.209  +00 3.000  +00 3.00   -01
 1.211  +00 2.775  +00 2.12   -01
 1.213  +00 2.900  +00 2.12   -01
 1.215  +00 2.800  +00 3.00   -01
 1.217  +00 2.850  +00 2.12   -01
 1.220  +00 2.900  +00 3.00   -01
 1.221  +00 2.800  +00 3.00   -01
 1.223  +00 2.715  +00 2.12   -01
 1.225  +00 2.795  +00 2.12   -01
 1.227  +00 2.900  +00 3.00   -01
 1.229  +00 2.655  +00 2.12   -01
 1.231  +00 2.855  +00 2.12   -01
 1.234  +00 2.900  +00 3.00   -01
 1.235  +00 2.600  +00 3.00   -01
 1.237  +00 2.600  +00 3.00   -01
 1.239  +00 2.700  +00 2.12   -01
 1.241  +00 2.650  +00 2.12   -01
 1.243  +00 2.800  +00 3.00   -01
 1.245  +00 2.750  +00 2.12   -01
 1.247  +00 2.650  +00 2.12   -01
 1.249  +00 2.800  +00 3.00   -01
 1.251  +00 2.750  +00 2.12   -01
 1.253  +00 2.650  +00 2.12   -01
 1.255  +00 2.700  +00 3.00   -01
 1.257  +00 2.800  +00 2.12   -01
 1.259  +00 2.625  +00 2.12   -01
 1.261  +00 2.900  +00 3.00   -01
 1.263  +00 2.700  +00 2.12   -01
 1.265  +00 2.635  +00 2.12   -01
 1.267  +00 2.775  +00 2.12   -01
 1.269  +00 2.800  +00 2.12   -01
 1.271  +00 3.265  +00 2.12   -01
 1.273  +00 3.500  +00 3.00   -01
 1.275  +00 3.400  +00 3.00   -01
 1.277  +00 3.790  +00 2.12   -01
 1.279  +00 3.700  +00 3.00   -01
 1.281  +00 3.835  +00 2.12   -01
 1.283  +00 3.690  +00 3.00   -01
 1.285  +00 3.300  +00 3.00   -01
 1.287  +00 3.800  +00 3.00   -01
 1.289  +00 3.900  +00 3.00   -01
 1.290  +00 4.100  +00 3.00   -01
 1.293  +00 4.450  +00 2.12   -01
 1.295  +00 4.850  +00 3.00   -01
 1.297  +00 5.150  +00 3.00   -01
 1.299  +00 5.345  +00 2.12   -01
 1.301  +00 5.440  +00 2.12   -01
 1.303  +00 5.280  +00 3.00   -01
 1.305  +00 5.025  +00 2.12   -01
 1.307  +00 4.770  +00 3.00   -01
 1.309  +00 4.325  +00 2.12   -01
 1.311  +00 3.850  +00 3.00   -01
 1.313  +00 3.770  +00 3.00   -01
 1.315  +00 3.600  +00 3.00   -01
 1.317  +00 3.350  +00 3.00   -01
 1.319  +00 3.550  +00 2.12   -01
 1.321  +00 3.350  +00 3.00   -01
 1.323  +00 3.260  +00 3.00   -01
 1.325  +00 3.425  +00 2.12   -01
 1.327  +00 3.350  +00 3.00   -01
 1.329  +00 3.570  +00 3.00   -01
 1.330  +00 3.350  +00 3.00   -01
 1.333  +00 3.270  +00 3.00   -01
 1.335  +00 3.350  +00 3.00   -01
 1.337  +00 3.000  +00 2.12   -01
 1.339  +00 2.950  +00 3.00   -01
 1.341  +00 3.265  +00 2.12   -01
 1.343  +00 3.250  +00 3.00   -01
 1.345  +00 3.070  +00 3.00   -01
 1.347  +00 2.920  +00 2.12   -01
 1.349  +00 3.080  +00 3.00   -01
 1.351  +00 3.095  +00 2.12   -01
 1.354  +00 3.210  +00 3.00   -01
 1.355  +00 3.150  +00 3.00   -01
 1.357  +00 2.950  +00 3.00   -01
 1.359  +00 3.050  +00 3.00   -01
 1.361  +00 3.050  +00 2.12   -01
 1.364  +00 2.900  +00 3.00   -01
 1.365  +00 3.000  +00 3.00   -01
 1.367  +00 3.000  +00 3.00   -01
 1.369  +00 3.100  +00 3.00   -01
 1.371  +00 3.200  +00 2.12   -01
 1.375  +00 2.900  +00 3.00   -01
 1.377  +00 2.700  +00 3.00   -01
 1.379  +00 2.700  +00 3.00   -01
 1.380  +00 2.700  +00 3.00   -01
 1.382  +00 2.800  +00 3.00   -01
 1.384  +00 2.800  +00 3.00   -01
 1.385  +00 2.700  +00 3.00   -01
 1.387  +00 2.700  +00 3.00   -01
 1.389  +00 2.800  +00 2.12   -01
 1.392  +00 2.800  +00 3.00   -01
 1.394  +00 2.700  +00 3.00   -01
 1.395  +00 2.700  +00 3.00   -01
 1.397  +00 2.800  +00 3.00   -01
 1.398  +00 2.700  +00 3.00   -01
 1.401  +00 2.500  +00 2.12   -01
 1.404  +00 2.600  +00 3.00   -01
 1.405  +00 2.700  +00 3.00   -01
 1.407  +00 2.600  +00 3.00   -01
 1.409  +00 2.600  +00 3.00   -01
 1.411  +00 2.455  +00 2.12   -01
 1.414  +00 2.600  +00 3.00   -01
 1.415  +00 2.600  +00 3.00   -01
 1.417  +00 2.500  +00 3.00   -01
 1.419  +00 2.710  +00 3.00   -01
 1.421  +00 2.450  +00 2.12   -01
 1.424  +00 2.600  +00 3.00   -01
 1.425  +00 2.400  +00 3.00   -01
 1.427  +00 2.610  +00 3.00   -01
 1.429  +00 2.500  +00 3.00   -01
 1.431  +00 2.490  +00 2.12   -01
 1.434  +00 2.700  +00 3.00   -01
 1.435  +00 2.400  +00 3.00   -01
 1.437  +00 2.300  +00 3.00   -01
 1.439  +00 2.600  +00 3.00   -01
 1.441  +00 2.600  +00 2.12   -01
 1.444  +00 2.510  +00 3.00   -01
 1.445  +00 2.710  +00 3.00   -01
 1.447  +00 2.665  +00 2.12   -01
 1.450  +00 2.620  +00 3.00   -01
 1.452  +00 2.720  +00 3.00   -01
 1.454  +00 2.810  +00 3.00   -01
 1.456  +00 2.610  +00 3.00   -01
 1.458  +00 2.710  +00 3.00   -01
 1.460  +00 2.610  +00 3.00   -01
 1.462  +00 2.700  +00 3.00   -01
 1.464  +00 2.800  +00 3.00   -01
 1.466  +00 2.510  +00 3.00   -01
 1.468  +00 2.800  +00 3.00   -01
 1.470  +00 2.610  +00 3.00   -01
 1.472  +00 2.620  +00 3.00   -01
 1.474  +00 2.510  +00 3.00   -01
 1.476  +00 2.600  +00 3.00   -01
 1.478  +00 2.720  +00 3.00   -01
 1.480  +00 2.610  +00 3.00   -01
 1.482  +00 2.420  +00 3.00   -01
 1.484  +00 2.600  +00 3.00   -01
 1.486  +00 2.900  +00 3.00   -01
 1.488  +00 2.720  +00 3.00   -01
 1.490  +00 2.800  +00 3.00   -01
 1.492  +00 2.700  +00 3.00   -01
 1.494  +00 2.650  +00 3.00   -01
 1.496  +00 2.610  +00 3.00   -01
ENDDATA            524
ENDSUBENT          532
ENDENTRY             2
