ENTRY            11523     830412
SUBENT        11523001     830412              20050926       0000
BIB                  6          8
INSTITUTE  (1USALAS)
REFERENCE  (W,THOMSON,5906)
AUTHOR     (L.CRANBERG,J.S.LEVIN,D.B.THOMSON)
METHOD     (TOF)
STATUS     (SCSRS)
HISTORY    (760715T) TRANSLATED FROM SCISRS
           (820602A) SUBENTRIES 4,5 DELETED. NOT THIS REFERENCE.
           (830412A) CONVERTED TO REACTION FORMALISM
ENDBIB               8
NOCOMMON             0          0
ENDSUBENT           11
SUBENT        11523002     830412              20050926       0000
BIB                  2          2
REACTION   (12-MG-0(N,TOT),,SIG)
SAMPLE     MG ABUNDANCE 0.48 ATOM PERCENT.
ENDBIB               2
COMMON               2          3
EN-RSL     DATA-ERR
KEV        B
 3.         0.2
ENDCOMMON            3
DATA                 2       1078
EN         DATA
MEV        B
 4.04   -01 5.05   +00
 4.05   -01 5.32   +00
 4.06   -01 6.01   +00
 4.07   -01 5.36   +00
 4.08   -01 5.65   +00
 4.09   -01 6.06   +00
 4.10   -01 6.15   +00
 4.11   -01 6.61   +00
 4.12   -01 6.28   +00
 4.13   -01 6.38   +00
 4.14   -01 6.99   +00
 4.14   -01 7.69   +00
 4.15   -01 7.76   +00
 4.16   -01 8.14   +00
 4.17   -01 8.32   +00
 4.18   -01 8.98   +00
 4.19   -01 8.82   +00
 4.20   -01 9.75   +00
 4.21   -01 1.083  +01
 4.22   -01 1.118  +01
 4.23   -01 1.134  +01
 4.24   -01 1.262  +01
 4.25   -01 1.189  +01
 4.26   -01 1.281  +01
 4.27   -01 1.285  +01
 4.28   -01 1.290  +01
 4.29   -01 1.316  +01
 4.30   -01 1.413  +01
 4.31   -01 1.257  +01
 4.32   -01 1.362  +01
 4.33   -01 1.332  +01
 4.34   -01 1.441  +01
 4.35   -01 1.322  +01
 4.36   -01 1.284  +01
 4.37   -01 1.207  +01
 4.38   -01 1.257  +01
 4.38   -01 1.232  +01
 4.39   -01 1.175  +01
 4.40   -01 1.157  +01
 4.41   -01 1.035  +01
 4.42   -01 1.027  +01
 4.43   -01 1.023  +01
 4.44   -01 1.023  +01
 4.44   -01 1.113  +01
 4.45   -01 9.77   +00
 4.45   -01 1.091  +01
 4.46   -01 9.42   +00
 4.46   -01 1.067  +01
 4.465  -01 9.94   +00
 4.47   -01 9.28   +00
 4.475  -01 9.86   +00
 4.48   -01 9.31   +00
 4.48   -01 9.96   +00
 4.49   -01 9.28   +00
 4.50   -01 9.41   +00
 4.51   -01 9.17   +00
 4.52   -01 9.19   +00
 4.53   -01 8.86   +00
 4.54   -01 8.75   +00
 4.55   -01 7.81   +00
 4.56   -01 7.64   +00
 4.57   -01 7.67   +00
 4.58   -01 7.76   +00
 4.59   -01 7.18   +00
 4.60   -01 7.39   +00
 4.61   -01 7.22   +00
 4.62   -01 7.14   +00
 4.63   -01 6.90   +00
 4.64   -01 6.62   +00
 4.65   -01 6.27   +00
 4.655  -01 6.76   +00
 4.665  -01 6.24   +00
 4.675  -01 6.20   +00
 4.68   -01 6.31   +00
 4.69   -01 6.19   +00
 4.70   -01 5.86   +00
 4.71   -01 5.88   +00
 4.72   -01 5.83   +00
 4.73   -01 5.72   +00
 4.74   -01 5.51   +00
 4.75   -01 5.75   +00
 4.76   -01 5.71   +00
 4.77   -01 5.58   +00
 4.78   -01 5.52   +00
 4.79   -01 5.44   +00
 4.80   -01 5.44   +00
 4.81   -01 5.33   +00
 4.82   -01 4.97   +00
 4.83   -01 5.38   +00
 4.84   -01 5.12   +00
 4.85   -01 4.87   +00
 4.86   -01 5.02   +00
 4.87   -01 5.19   +00
 4.87   -01 5.33   +00
 4.88   -01 5.12   +00
 4.88   -01 4.91   +00
 4.89   -01 5.00   +00
 4.90   -01 4.86   +00
 4.91   -01 4.84   +00
 4.92   -01 5.08   +00
 4.93   -01 4.46   +00
 4.94   -01 4.39   +00
 4.95   -01 4.59   +00
 4.96   -01 4.76   +00
 4.97   -01 4.47   +00
 4.98   -01 4.39   +00
 4.99   -01 4.55   +00
 4.995  -01 4.56   +00
 5.005  -01 4.99   +00
 5.01   -01 5.49   +00
 5.02   -01 5.31   +00
 5.03   -01 5.55   +00
 5.04   -01 5.22   +00
 5.05   -01 5.34   +00
 5.06   -01 5.28   +00
 5.07   -01 5.02   +00
 5.08   -01 5.09   +00
 5.09   -01 5.05   +00
 5.09   -01 4.81   +00
 5.10   -01 4.80   +00
 5.11   -01 4.85   +00
 5.12   -01 4.71   +00
 5.13   -01 4.82   +00
 5.14   -01 4.59   +00
 5.15   -01 4.52   +00
 5.16   -01 4.58   +00
 5.17   -01 4.74   +00
 5.18   -01 4.71   +00
 5.18   -01 4.40   +00
 5.19   -01 4.69   +00
 5.20   -01 4.65   +00
 5.21   -01 4.43   +00
 5.22   -01 4.37   +00
 5.23   -01 4.52   +00
 5.24   -01 4.42   +00
 5.25   -01 4.48   +00
 5.26   -01 4.56   +00
 5.27   -01 4.45   +00
 5.28   -01 4.56   +00
 5.29   -01 4.48   +00
 5.30   -01 4.50   +00
 5.30   -01 4.66   +00
 5.31   -01 4.45   +00
 5.32   -01 4.43   +00
 5.33   -01 4.53   +00
 5.34   -01 4.32   +00
 5.35   -01 4.48   +00
 5.36   -01 4.81   +00
 5.37   -01 4.58   +00
 5.38   -01 4.79   +00
 5.39   -01 4.88   +00
 5.40   -01 4.91   +00
 5.40   -01 4.92   +00
 5.41   -01 4.94   +00
 5.42   -01 5.15   +00
 5.43   -01 5.03   +00
 5.44   -01 4.85   +00
 5.45   -01 4.82   +00
 5.46   -01 5.08   +00
 5.47   -01 4.65   +00
 5.48   -01 4.79   +00
 5.49   -01 4.75   +00
 5.50   -01 4.94   +00
 5.51   -01 4.78   +00
 5.52   -01 4.68   +00
 5.53   -01 4.71   +00
 5.54   -01 4.92   +00
 5.55   -01 4.66   +00
 5.56   -01 4.77   +00
 5.57   -01 4.98   +00
 5.58   -01 4.73   +00
 5.59   -01 4.83   +00
 5.59   -01 4.64   +00
 5.60   -01 4.82   +00
 5.61   -01 4.77   +00
 5.62   -01 4.86   +00
 5.63   -01 4.90   +00
 5.64   -01 4.90   +00
 5.65   -01 4.61   +00
 5.66   -01 4.92   +00
 5.67   -01 4.54   +00
 5.68   -01 4.81   +00
 5.69   -01 4.65   +00
 5.70   -01 4.83   +00
 5.71   -01 4.75   +00
 5.72   -01 4.87   +00
 5.73   -01 4.70   +00
 5.73   -01 4.55   +00
 5.74   -01 5.12   +00
 5.74   -01 4.91   +00
 5.75   -01 4.74   +00
 5.76   -01 4.61   +00
 5.77   -01 4.65   +00
 5.78   -01 5.02   +00
 5.79   -01 4.73   +00
 5.80   -01 5.02   +00
 5.81   -01 4.75   +00
 5.82   -01 4.78   +00
 5.83   -01 4.38   +00
 5.83   -01 4.58   +00
 5.84   -01 4.69   +00
 5.85   -01 4.49   +00
 5.86   -01 4.39   +00
 5.87   -01 4.83   +00
 5.88   -01 4.71   +00
 5.89   -01 4.74   +00
 5.90   -01 4.77   +00
 5.91   -01 4.86   +00
 5.92   -01 4.45   +00
 5.93   -01 4.54   +00
 5.94   -01 4.45   +00
 5.95   -01 4.42   +00
 5.96   -01 5.95   +00
 5.96   -01 4.40   +00
 5.97   -01 4.64   +00
 5.98   -01 4.51   +00
 5.98   -01 4.41   +00
 5.99   -01 4.41   +00
 6.00   -01 4.41   +00
 6.01   -01 4.22   +00
 6.02   -01 4.37   +00
 6.03   -01 4.42   +00
 6.04   -01 4.33   +00
 6.05   -01 4.12   +00
 6.06   -01 4.24   +00
 6.07   -01 4.24   +00
 6.08   -01 4.39   +00
 6.09   -01 4.35   +00
 6.10   -01 4.18   +00
 6.11   -01 4.22   +00
 6.11   -01 3.99   +00
 6.12   -01 3.98   +00
 6.13   -01 3.93   +00
 6.14   -01 3.81   +00
 6.15   -01 3.91   +00
 6.15   -01 3.86   +00
 6.16   -01 3.98   +00
 6.16   -01 4.00   +00
 6.17   -01 4.07   +00
 6.18   -01 3.91   +00
 6.19   -01 4.03   +00
 6.20   -01 3.63   +00
 6.21   -01 3.58   +00
 6.22   -01 3.55   +00
 6.23   -01 3.91   +00
 6.24   -01 3.89   +00
 6.25   -01 3.79   +00
 6.26   -01 3.79   +00
 6.27   -01 3.88   +00
 6.28   -01 3.74   +00
 6.28   -01 3.65   +00
 6.29   -01 3.63   +00
 6.30   -01 3.57   +00
 6.31   -01 3.47   +00
 6.32   -01 3.38   +00
 6.33   -01 3.35   +00
 6.34   -01 3.34   +00
 6.35   -01 3.40   +00
 6.36   -01 3.28   +00
 6.37   -01 3.06   +00
 6.38   -01 3.29   +00
 6.39   -01 3.02   +00
 6.39   -01 3.14   +00
 6.40   -01 2.88   +00
 6.41   -01 2.97   +00
 6.42   -01 3.23   +00
 6.43   -01 3.35   +00
 6.44   -01 3.37   +00
 6.45   -01 3.52   +00
 6.46   -01 3.55   +00
 6.47   -01 3.53   +00
 6.48   -01 3.52   +00
 6.49   -01 3.31   +00
 6.50   -01 3.27   +00
 6.51   -01 3.06   +00
 6.52   -01 2.98   +00
 6.53   -01 2.87   +00
 6.53   -01 2.72   +00
 6.54   -01 2.72   +00
 6.55   -01 3.06   +00
 6.56   -01 2.84   +00
 6.57   -01 3.01   +00
 6.57   -01 2.79   +00
 6.58   -01 3.12   +00
 6.58   -01 2.83   +00
 6.59   -01 2.93   +00
 6.60   -01 3.01   +00
 6.61   -01 3.59   +00
 6.62   -01 3.94   +00
 6.63   -01 4.24   +00
 6.64   -01 4.11   +00
 6.65   -01 4.44   +00
 6.66   -01 4.27   +00
 6.67   -01 4.70   +00
 6.67   -01 4.72   +00
 6.68   -01 4.82   +00
 6.69   -01 4.98   +00
 6.70   -01 4.76   +00
 6.71   -01 4.98   +00
 6.72   -01 4.91   +00
 6.73   -01 5.05   +00
 6.74   -01 5.41   +00
 6.75   -01 5.15   +00
 6.76   -01 5.68   +00
 6.76   -01 5.57   +00
 6.77   -01 5.40   +00
 6.78   -01 5.19   +00
 6.79   -01 4.63   +00
 6.80   -01 5.05   +00
 6.81   -01 5.07   +00
 6.82   -01 4.89   +00
 6.83   -01 5.09   +00
 6.84   -01 4.73   +00
 6.85   -01 4.95   +00
 6.86   -01 5.31   +00
 6.87   -01 5.07   +00
 6.88   -01 4.95   +00
 6.89   -01 4.55   +00
 6.90   -01 4.66   +00
 6.90   -01 4.77   +00
 6.91   -01 4.78   +00
 6.92   -01 4.36   +00
 6.93   -01 4.84   +00
 6.94   -01 4.65   +00
 6.95   -01 4.76   +00
 6.96   -01 4.37   +00
 6.97   -01 4.45   +00
 6.97   -01 4.47   +00
 6.98   -01 4.49   +00
 6.98   -01 4.93   +00
 6.99   -01 4.16   +00
 6.99   -01 4.30   +00
 7.00   -01 4.53   +00
 7.00   -01 4.30   +00
 7.01   -01 4.27   +00
 7.02   -01 4.52   +00
 7.03   -01 4.32   +00
 7.04   -01 4.16   +00
 7.05   -01 4.29   +00
 7.06   -01 4.40   +00
 7.07   -01 4.20   +00
 7.08   -01 4.17   +00
 7.09   -01 4.14   +00
 7.10   -01 4.08   +00
 7.11   -01 4.19   +00
 7.12   -01 4.14   +00
 7.13   -01 3.99   +00
 7.14   -01 4.28   +00
 7.15   -01 4.15   +00
 7.16   -01 3.99   +00
 7.17   -01 4.05   +00
 7.18   -01 4.03   +00
 7.19   -01 4.19   +00
 7.20   -01 4.26   +00
 7.21   -01 4.19   +00
 7.21   -01 4.12   +00
 7.22   -01 4.24   +00
 7.23   -01 3.75   +00
 7.24   -01 4.22   +00
 7.25   -01 4.14   +00
 7.26   -01 4.21   +00
 7.27   -01 4.10   +00
 7.28   -01 4.46   +00
 7.29   -01 4.37   +00
 7.30   -01 4.37   +00
 7.31   -01 4.22   +00
 7.32   -01 3.94   +00
 7.33   -01 3.98   +00
 7.34   -01 3.95   +00
 7.35   -01 3.90   +00
 7.36   -01 4.03   +00
 7.37   -01 3.75   +00
 7.38   -01 3.91   +00
 7.39   -01 3.69   +00
 7.39   -01 3.65   +00
 7.40   -01 4.04   +00
 7.40   -01 3.82   +00
 7.41   -01 3.92   +00
 7.41   -01 3.94   +00
 7.42   -01 3.86   +00
 7.43   -01 3.70   +00
 7.44   -01 3.54   +00
 7.45   -01 3.64   +00
 7.46   -01 3.47   +00
 7.47   -01 3.58   +00
 7.48   -01 3.79   +00
 7.49   -01 3.91   +00
 7.50   -01 3.80   +00
 7.50   -01 3.43   +00
 7.51   -01 4.07   +00
 7.52   -01 3.59   +00
 7.52   -01 3.56   +00
 7.53   -01 3.92   +00
 7.54   -01 3.32   +00
 7.55   -01 3.79   +00
 7.56   -01 3.51   +00
 7.57   -01 3.56   +00
 7.58   -01 4.11   +00
 7.59   -01 3.69   +00
 7.61   -01 3.65   +00
 7.62   -01 3.75   +00
 7.63   -01 4.18   +00
 7.64   -01 3.63   +00
 7.65   -01 3.46   +00
 7.66   -01 3.38   +00
 7.67   -01 3.02   +00
 7.68   -01 3.39   +00
 7.69   -01 3.39   +00
 7.70   -01 3.65   +00
 7.71   -01 3.81   +00
 7.72   -01 4.03   +00
 7.73   -01 3.58   +00
 7.74   -01 3.66   +00
 7.75   -01 3.56   +00
 7.76   -01 3.36   +00
 7.77   -01 3.34   +00
 7.78   -01 3.17   +00
 7.79   -01 3.78   +00
 7.80   -01 3.78   +00
 7.81   -01 3.77   +00
 7.81   -01 3.98   +00
 7.82   -01 3.80   +00
 7.82   -01 3.53   +00
 7.83   -01 3.67   +00
 7.83   -01 4.42   +00
 7.84   -01 3.78   +00
 7.85   -01 3.71   +00
 7.86   -01 3.98   +00
 7.87   -01 4.13   +00
 7.87   -01 3.60   +00
 7.88   -01 3.61   +00
 7.89   -01 3.46   +00
 7.90   -01 4.04   +00
 7.91   -01 3.75   +00
 7.92   -01 3.31   +00
 7.93   -01 3.81   +00
 7.94   -01 3.37   +00
 7.95   -01 3.21   +00
 7.96   -01 3.13   +00
 7.97   -01 3.60   +00
 7.98   -01 3.69   +00
 7.99   -01 3.26   +00
 7.99   -01 3.18   +00
 8.00   -01 3.39   +00
 8.01   -01 3.54   +00
 8.02   -01 3.73   +00
 8.03   -01 3.25   +00
 8.04   -01 3.46   +00
 8.05   -01 3.55   +00
 8.06   -01 3.37   +00
 8.07   -01 3.55   +00
 8.08   -01 3.47   +00
 8.08   -01 3.38   +00
 8.09   -01 3.31   +00
 8.10   -01 3.40   +00
 8.11   -01 3.80   +00
 8.12   -01 3.50   +00
 8.13   -01 3.14   +00
 8.14   -01 3.68   +00
 8.15   -01 3.62   +00
 8.16   -01 3.59   +00
 8.17   -01 3.60   +00
 8.18   -01 3.84   +00
 8.19   -01 4.28   +00
 8.19   -01 3.54   +00
 8.20   -01 3.89   +00
 8.21   -01 3.54   +00
 8.22   -01 3.75   +00
 8.23   -01 3.75   +00
 8.24   -01 3.86   +00
 8.25   -01 3.73   +00
 8.26   -01 3.99   +00
 8.27   -01 3.82   +00
 8.28   -01 3.93   +00
 8.29   -01 4.08   +00
 8.30   -01 4.13   +00
 8.31   -01 4.21   +00
 8.32   -01 4.58   +00
 8.33   -01 4.77   +00
 8.34   -01 4.52   +00
 8.34   -01 4.60   +00
 8.35   -01 4.90   +00
 8.36   -01 5.08   +00
 8.37   -01 5.60   +00
 8.38   -01 5.70   +00
 8.39   -01 6.05   +00
 8.40   -01 6.41   +00
 8.41   -01 6.58   +00
 8.42   -01 7.64   +00
 8.43   -01 7.18   +00
 8.43   -01 7.12   +00
 8.44   -01 7.42   +00
 8.45   -01 7.04   +00
 8.46   -01 6.99   +00
 8.47   -01 7.15   +00
 8.48   -01 6.54   +00
 8.49   -01 6.51   +00
 8.50   -01 5.84   +00
 8.50   -01 5.55   +00
 8.51   -01 5.38   +00
 8.52   -01 5.06   +00
 8.53   -01 4.77   +00
 8.54   -01 4.47   +00
 8.55   -01 4.41   +00
 8.56   -01 4.04   +00
 8.56   -01 4.45   +00
 8.57   -01 4.19   +00
 8.58   -01 4.01   +00
 8.59   -01 3.91   +00
 8.60   -01 3.76   +00
 8.61   -01 3.52   +00
 8.62   -01 3.80   +00
 8.63   -01 3.62   +00
 8.64   -01 3.62   +00
 8.65   -01 3.38   +00
 8.66   -01 3.66   +00
 8.66   -01 3.81   +00
 8.67   -01 3.78   +00
 8.68   -01 3.84   +00
 8.69   -01 3.60   +00
 8.70   -01 3.55   +00
 8.71   -01 3.68   +00
 8.72   -01 3.54   +00
 8.73   -01 3.37   +00
 8.74   -01 3.53   +00
 8.75   -01 3.34   +00
 8.76   -01 3.37   +00
 8.76   -01 3.51   +00
 8.77   -01 3.48   +00
 8.78   -01 3.36   +00
 8.79   -01 3.12   +00
 8.80   -01 3.36   +00
 8.81   -01 3.22   +00
 8.82   -01 2.94   +00
 8.83   -01 3.24   +00
 8.84   -01 3.34   +00
 8.85   -01 3.23   +00
 8.85   -01 3.27   +00
 8.86   -01 3.29   +00
 8.87   -01 3.29   +00
 8.88   -01 3.10   +00
 8.89   -01 3.03   +00
 8.90   -01 3.33   +00
 8.91   -01 3.27   +00
 8.92   -01 3.08   +00
 8.92   -01 3.04   +00
 8.93   -01 3.35   +00
 8.94   -01 3.24   +00
 8.95   -01 3.34   +00
 8.96   -01 3.45   +00
 8.97   -01 3.25   +00
 8.98   -01 3.13   +00
 8.98   -01 3.01   +00
 8.99   -01 3.13   +00
 9.00   -01 3.11   +00
 9.01   -01 3.29   +00
 9.02   -01 3.00   +00
 9.03   -01 3.03   +00
 9.04   -01 3.12   +00
 9.05   -01 2.89   +00
 9.06   -01 3.71   +00
 9.07   -01 2.97   +00
 9.08   -01 3.03   +00
 9.08   -01 2.89   +00
 9.09   -01 3.10   +00
 9.10   -01 3.12   +00
 9.11   -01 2.89   +00
 9.12   -01 3.03   +00
 9.13   -01 3.06   +00
 9.13   -01 3.07   +00
 9.14   -01 2.88   +00
 9.15   -01 3.02   +00
 9.16   -01 2.92   +00
 9.17   -01 3.08   +00
 9.18   -01 2.90   +00
 9.19   -01 2.78   +00
 9.20   -01 2.83   +00
 9.21   -01 2.91   +00
 9.22   -01 2.97   +00
 9.22   -01 3.03   +00
 9.23   -01 2.92   +00
 9.24   -01 3.05   +00
 9.25   -01 3.09   +00
 9.26   -01 3.13   +00
 9.27   -01 2.89   +00
 9.28   -01 3.08   +00
 9.29   -01 3.11   +00
 9.30   -01 3.02   +00
 9.31   -01 2.72   +00
 9.31   -01 2.60   +00
 9.32   -01 2.77   +00
 9.33   -01 3.13   +00
 9.34   -01 3.03   +00
 9.35   -01 3.14   +00
 9.36   -01 3.08   +00
 9.37   -01 3.05   +00
 9.38   -01 2.89   +00
 9.39   -01 2.99   +00
 9.40   -01 2.65   +00
 9.40   -01 3.10   +00
 9.41   -01 2.90   +00
 9.42   -01 3.18   +00
 9.43   -01 2.72   +00
 9.44   -01 2.98   +00
 9.44   -01 2.76   +00
 9.45   -01 2.92   +00
 9.46   -01 2.90   +00
 9.47   -01 3.04   +00
 9.48   -01 3.12   +00
 9.49   -01 3.15   +00
 9.50   -01 3.22   +00
 9.51   -01 3.15   +00
 9.52   -01 3.13   +00
 9.53   -01 2.83   +00
 9.54   -01 2.81   +00
 9.55   -01 2.91   +00
 9.55   -01 3.04   +00
 9.56   -01 2.81   +00
 9.57   -01 2.65   +00
 9.58   -01 2.79   +00
 9.59   -01 2.89   +00
 9.60   -01 2.84   +00
 9.61   -01 2.87   +00
 9.62   -01 2.73   +00
 9.63   -01 3.03   +00
 9.64   -01 2.80   +00
 9.64   -01 2.94   +00
 9.65   -01 2.87   +00
 9.66   -01 2.68   +00
 9.67   -01 2.81   +00
 9.68   -01 2.96   +00
 9.69   -01 3.08   +00
 9.70   -01 2.90   +00
 9.71   -01 3.01   +00
 9.72   -01 3.15   +00
 9.73   -01 3.19   +00
 9.73   -01 2.88   +00
 9.74   -01 3.04   +00
 9.75   -01 2.92   +00
 9.76   -01 2.90   +00
 9.77   -01 3.01   +00
 9.77   -01 2.97   +00
 9.78   -01 3.16   +00
 9.79   -01 2.76   +00
 9.80   -01 2.82   +00
 9.81   -01 2.79   +00
 9.82   -01 2.83   +00
 9.83   -01 3.00   +00
 9.84   -01 2.71   +00
 9.85   -01 2.61   +00
 9.86   -01 2.59   +00
 9.86   -01 2.84   +00
 9.87   -01 2.57   +00
 9.88   -01 2.51   +00
 9.89   -01 2.68   +00
 9.90   -01 2.64   +00
 9.91   -01 2.75   +00
 9.92   -01 2.58   +00
 9.93   -01 2.70   +00
 9.94   -01 2.65   +00
 9.95   -01 2.70   +00
 9.96   -01 2.53   +00
 9.97   -01 2.60   +00
 9.97   -01 2.58   +00
 9.98   -01 2.76   +00
 9.99   -01 2.72   +00
 1.000  +00 2.65   +00
 1.001  +00 2.49   +00
 1.002  +00 2.22   +00
 1.003  +00 2.69   +00
 1.004  +00 2.43   +00
 1.005  +00 2.46   +00
 1.006  +00 2.67   +00
 1.007  +00 2.39   +00
 1.008  +00 2.39   +00
 1.009  +00 2.76   +00
 1.010  +00 2.35   +00
 1.010  +00 2.37   +00
 1.011  +00 2.24   +00
 1.012  +00 2.51   +00
 1.013  +00 2.40   +00
 1.014  +00 2.58   +00
 1.015  +00 2.65   +00
 1.016  +00 2.35   +00
 1.017  +00 2.73   +00
 1.018  +00 2.98   +00
 1.019  +00 3.69   +00
 1.019  +00 2.90   +00
 1.020  +00 4.10   +00
 1.021  +00 3.69   +00
 1.022  +00 3.22   +00
 1.023  +00 2.98   +00
 1.024  +00 3.04   +00
 1.025  +00 2.79   +00
 1.026  +00 2.37   +00
 1.026  +00 2.53   +00
 1.027  +00 2.02   +00
 1.028  +00 1.89   +00
 1.029  +00 1.89   +00
 1.030  +00 1.84   +00
 1.031  +00 1.68   +00
 1.031  +00 1.63   +00
 1.032  +00 1.70   +00
 1.032  +00 1.42   +00
 1.033  +00 1.32   +00
 1.033  +00 1.49   +00
 1.034  +00 1.70   +00
 1.035  +00 1.59   +00
 1.036  +00 1.81   +00
 1.037  +00 2.28   +00
 1.038  +00 2.58   +00
 1.039  +00 2.60   +00
 1.040  +00 2.94   +00
 1.041  +00 3.10   +00
 1.041  +00 3.23   +00
 1.042  +00 3.10   +00
 1.043  +00 2.92   +00
 1.044  +00 3.05   +00
 1.045  +00 3.04   +00
 1.045  +00 3.18   +00
 1.046  +00 2.98   +00
 1.047  +00 3.10   +00
 1.048  +00 2.86   +00
 1.049  +00 2.96   +00
 1.050  +00 3.01   +00
 1.051  +00 2.95   +00
 1.052  +00 2.59   +00
 1.053  +00 2.72   +00
 1.054  +00 2.63   +00
 1.054  +00 2.91   +00
 1.055  +00 2.78   +00
 1.056  +00 2.43   +00
 1.057  +00 2.52   +00
 1.058  +00 2.24   +00
 1.059  +00 2.35   +00
 1.060  +00 2.30   +00
 1.061  +00 2.34   +00
 1.061  +00 2.61   +00
 1.062  +00 2.28   +00
 1.063  +00 2.13   +00
 1.064  +00 2.13   +00
 1.065  +00 1.81   +00
 1.066  +00 1.75   +00
 1.067  +00 1.44   +00
 1.067  +00 1.88   +00
 1.068  +00 1.64   +00
 1.069  +00 1.41   +00
 1.070  +00 1.40   +00
 1.071  +00 1.60   +00
 1.071  +00 1.65   +00
 1.072  +00 1.72   +00
 1.072  +00 1.59   +00
 1.073  +00 1.62   +00
 1.074  +00 1.61   +00
 1.075  +00 1.75   +00
 1.076  +00 2.10   +00
 1.076  +00 1.78   +00
 1.077  +00 2.56   +00
 1.078  +00 2.52   +00
 1.079  +00 2.77   +00
 1.080  +00 2.97   +00
 1.080  +00 2.77   +00
 1.081  +00 2.75   +00
 1.082  +00 2.90   +00
 1.083  +00 3.16   +00
 1.084  +00 2.99   +00
 1.085  +00 2.73   +00
 1.086  +00 3.28   +00
 1.087  +00 3.28   +00
 1.088  +00 3.39   +00
 1.089  +00 3.49   +00
 1.089  +00 3.40   +00
 1.090  +00 3.10   +00
 1.091  +00 4.17   +00
 1.092  +00 3.16   +00
 1.093  +00 3.24   +00
 1.094  +00 3.07   +00
 1.095  +00 3.03   +00
 1.096  +00 2.89   +00
 1.097  +00 3.29   +00
 1.098  +00 3.55   +00
 1.098  +00 3.40   +00
 1.099  +00 3.23   +00
 1.100  +00 3.50   +00
 1.101  +00 3.01   +00
 1.102  +00 2.63   +00
 1.102  +00 3.54   +00
 1.103  +00 2.21   +00
 1.104  +00 3.73   +00
 1.105  +00 2.99   +00
 1.106  +00 2.80   +00
 1.107  +00 3.10   +00
 1.108  +00 2.80   +00
 1.109  +00 3.18   +00
 1.110  +00 3.33   +00
 1.110  +00 3.19   +00
 1.111  +00 3.15   +00
 1.111  +00 3.11   +00
 1.112  +00 3.27   +00
 1.112  +00 3.31   +00
 1.113  +00 3.08   +00
 1.114  +00 3.23   +00
 1.115  +00 3.10   +00
 1.116  +00 3.18   +00
 1.117  +00 3.54   +00
 1.118  +00 3.20   +00
 1.119  +00 3.32   +00
 1.120  +00 2.98   +00
 1.120  +00 2.88   +00
 1.121  +00 2.79   +00
 1.122  +00 3.35   +00
 1.123  +00 3.27   +00
 1.124  +00 3.11   +00
 1.124  +00 2.77   +00
 1.125  +00 3.05   +00
 1.126  +00 3.16   +00
 1.127  +00 3.35   +00
 1.128  +00 3.03   +00
 1.128  +00 3.00   +00
 1.129  +00 3.52   +00
 1.130  +00 3.22   +00
 1.131  +00 3.04   +00
 1.132  +00 2.89   +00
 1.133  +00 3.15   +00
 1.134  +00 2.80   +00
 1.135  +00 3.23   +00
 1.136  +00 3.13   +00
 1.137  +00 3.19   +00
 1.137  +00 3.10   +00
 1.138  +00 3.37   +00
 1.139  +00 3.14   +00
 1.140  +00 3.42   +00
 1.141  +00 3.01   +00
 1.141  +00 3.12   +00
 1.142  +00 3.20   +00
 1.143  +00 3.38   +00
 1.144  +00 3.43   +00
 1.145  +00 3.18   +00
 1.145  +00 3.00   +00
 1.146  +00 2.71   +00
 1.147  +00 3.27   +00
 1.148  +00 3.28   +00
 1.149  +00 3.24   +00
 1.149  +00 2.76   +00
 1.150  +00 2.87   +00
 1.150  +00 3.06   +00
 1.151  +00 3.05   +00
 1.152  +00 3.12   +00
 1.153  +00 3.13   +00
 1.154  +00 3.28   +00
 1.154  +00 3.32   +00
 1.155  +00 3.04   +00
 1.156  +00 3.00   +00
 1.157  +00 2.86   +00
 1.158  +00 3.05   +00
 1.158  +00 3.02   +00
 1.159  +00 3.10   +00
 1.160  +00 3.16   +00
 1.161  +00 2.85   +00
 1.162  +00 3.17   +00
 1.163  +00 3.14   +00
 1.164  +00 3.41   +00
 1.165  +00 2.94   +00
 1.166  +00 3.01   +00
 1.167  +00 2.99   +00
 1.167  +00 3.42   +00
 1.168  +00 2.98   +00
 1.169  +00 3.17   +00
 1.170  +00 2.77   +00
 1.171  +00 2.96   +00
 1.171  +00 3.01   +00
 1.172  +00 2.53   +00
 1.173  +00 2.97   +00
 1.174  +00 3.11   +00
 1.175  +00 2.62   +00
 1.175  +00 2.93   +00
 1.176  +00 2.75   +00
 1.177  +00 3.08   +00
 1.178  +00 2.82   +00
 1.179  +00 2.89   +00
 1.180  +00 2.84   +00
 1.181  +00 2.99   +00
 1.182  +00 2.68   +00
 1.183  +00 3.02   +00
 1.184  +00 2.58   +00
 1.185  +00 3.09   +00
 1.185  +00 2.84   +00
 1.186  +00 2.73   +00
 1.187  +00 2.34   +00
 1.187  +00 2.74   +00
 1.188  +00 2.83   +00
 1.188  +00 2.77   +00
 1.189  +00 2.88   +00
 1.189  +00 2.00   +00
 1.190  +00 2.97   +00
 1.191  +00 2.80   +00
 1.192  +00 2.69   +00
 1.192  +00 2.77   +00
 1.193  +00 2.68   +00
 1.194  +00 2.79   +00
 1.195  +00 2.75   +00
 1.196  +00 2.68   +00
 1.197  +00 2.74   +00
 1.198  +00 2.51   +00
 1.199  +00 2.75   +00
 1.200  +00 3.04   +00
 1.201  +00 2.75   +00
 1.202  +00 2.81   +00
 1.203  +00 2.76   +00
 1.204  +00 2.59   +00
 1.205  +00 2.76   +00
 1.206  +00 2.99   +00
 1.207  +00 3.07   +00
 1.208  +00 2.99   +00
 1.209  +00 2.87   +00
 1.210  +00 2.95   +00
 1.210  +00 3.03   +00
 1.211  +00 2.94   +00
 1.212  +00 2.81   +00
 1.213  +00 3.04   +00
 1.214  +00 2.83   +00
 1.215  +00 3.08   +00
 1.216  +00 3.03   +00
 1.217  +00 2.89   +00
 1.218  +00 2.82   +00
 1.219  +00 2.88   +00
 1.219  +00 2.79   +00
 1.220  +00 2.67   +00
 1.221  +00 2.66   +00
 1.222  +00 2.85   +00
 1.223  +00 2.64   +00
 1.223  +00 2.75   +00
 1.224  +00 2.98   +00
 1.224  +00 3.16   +00
 1.225  +00 2.74   +00
 1.225  +00 2.76   +00
 1.226  +00 2.94   +00
 1.226  +00 2.72   +00
 1.226  +00 2.74   +00
 1.227  +00 2.65   +00
 1.227  +00 2.93   +00
 1.228  +00 2.85   +00
 1.228  +00 2.76   +00
 1.228  +00 2.91   +00
 1.229  +00 2.89   +00
 1.230  +00 2.59   +00
 1.231  +00 2.76   +00
 1.232  +00 3.02   +00
 1.233  +00 2.70   +00
 1.234  +00 2.71   +00
 1.235  +00 2.89   +00
 1.236  +00 2.76   +00
 1.237  +00 2.51   +00
 1.237  +00 2.63   +00
 1.238  +00 2.74   +00
 1.239  +00 2.75   +00
 1.240  +00 2.70   +00
 1.241  +00 2.81   +00
 1.242  +00 2.49   +00
 1.243  +00 2.56   +00
 1.244  +00 2.94   +00
 1.245  +00 2.67   +00
 1.246  +00 2.51   +00
 1.246  +00 2.76   +00
 1.247  +00 2.51   +00
 1.248  +00 2.54   +00
 1.249  +00 2.85   +00
 1.250  +00 3.16   +00
 1.251  +00 2.59   +00
 1.252  +00 2.78   +00
 1.253  +00 2.84   +00
 1.253  +00 2.74   +00
 1.254  +00 3.11   +00
 1.255  +00 2.74   +00
 1.256  +00 2.95   +00
 1.257  +00 2.88   +00
 1.258  +00 2.75   +00
 1.259  +00 2.78   +00
 1.260  +00 2.60   +00
 1.261  +00 2.63   +00
 1.262  +00 2.84   +00
 1.262  +00 2.79   +00
 1.263  +00 2.98   +00
 1.263  +00 2.60   +00
 1.264  +00 2.93   +00
 1.264  +00 2.69   +00
 1.265  +00 2.96   +00
 1.266  +00 2.76   +00
 1.266  +00 2.80   +00
 1.267  +00 2.80   +00
 1.268  +00 2.59   +00
 1.269  +00 2.70   +00
 1.270  +00 2.71   +00
 1.271  +00 3.01   +00
 1.272  +00 2.59   +00
 1.272  +00 2.77   +00
 1.273  +00 3.02   +00
 1.274  +00 2.88   +00
 1.275  +00 3.52   +00
 1.276  +00 3.74   +00
 1.277  +00 4.61   +00
 1.278  +00 4.50   +00
 1.279  +00 4.42   +00
 1.280  +00 4.08   +00
 1.281  +00 3.74   +00
 1.282  +00 3.27   +00
 1.282  +00 3.35   +00
 1.283  +00 3.15   +00
 1.284  +00 2.66   +00
 1.285  +00 2.61   +00
 1.286  +00 3.00   +00
 1.287  +00 3.25   +00
 1.287  +00 3.68   +00
 1.288  +00 4.05   +00
 1.289  +00 4.51   +00
 1.290  +00 5.10   +00
 1.291  +00 4.74   +00
 1.292  +00 5.07   +00
 1.293  +00 5.10   +00
 1.294  +00 4.96   +00
 1.295  +00 4.96   +00
 1.296  +00 5.29   +00
 1.296  +00 5.37   +00
 1.297  +00 5.56   +00
 1.298  +00 5.71   +00
 1.299  +00 5.25   +00
 1.300  +00 6.09   +00
 1.300  +00 5.62   +00
 1.301  +00 5.65   +00
 1.301  +00 5.60   +00
 1.302  +00 5.26   +00
 1.302  +00 5.94   +00
 1.303  +00 5.47   +00
 1.303  +00 5.34   +00
 1.304  +00 5.07   +00
 1.305  +00 4.81   +00
 1.306  +00 5.53   +00
 1.307  +00 4.22   +00
 1.307  +00 4.68   +00
 1.308  +00 3.83   +00
 1.308  +00 3.86   +00
 1.309  +00 3.83   +00
 1.309  +00 3.39   +00
 1.310  +00 4.06   +00
 1.311  +00 3.54   +00
 1.312  +00 3.60   +00
 1.313  +00 2.98   +00
 1.314  +00 3.62   +00
 1.315  +00 3.47   +00
 1.316  +00 3.90   +00
 1.317  +00 3.30   +00
 1.318  +00 3.89   +00
 1.319  +00 3.21   +00
 1.320  +00 4.00   +00
 1.321  +00 3.20   +00
 1.322  +00 3.59   +00
 1.322  +00 3.36   +00
 1.323  +00 3.59   +00
 1.324  +00 3.59   +00
 1.325  +00 3.46   +00
 1.326  +00 3.41   +00
 1.327  +00 3.04   +00
 1.328  +00 3.45   +00
 1.329  +00 3.83   +00
 1.330  +00 3.35   +00
 1.331  +00 3.88   +00
 1.332  +00 2.88   +00
 1.332  +00 3.97   +00
 1.333  +00 3.66   +00
 1.334  +00 3.10   +00
 1.335  +00 3.12   +00
 1.336  +00 3.26   +00
 1.337  +00 3.35   +00
 1.338  +00 3.45   +00
 1.339  +00 2.74   +00
 1.340  +00 3.20   +00
 1.341  +00 3.29   +00
 1.342  +00 2.91   +00
ENDDATA           1080
ENDSUBENT         1091
SUBENT        11523003     830412              20050926       0000
BIB                  2          2
REACTION   (20-CA-0(N,TOT),,SIG)
SAMPLE     SAMPLE 97.6 PERCENT CA BY WEIGHT.
ENDBIB               2
NOCOMMON             0          0
DATA                 2        937
EN         DATA
MEV        B
 4.05   -01 1.90   +00
 4.06   -01 1.92   +00
 4.07   -01 1.45   +00
 4.08   -01 1.92   +00
 4.09   -01 1.65   +00
 4.10   -01 1.47   +00
 4.11   -01 2.09   +00
 4.12   -01 1.75   +00
 4.13   -01 1.91   +00
 4.14   -01 2.00   +00
 4.15   -01 1.93   +00
 4.16   -01 1.62   +00
 4.17   -01 2.31   +00
 4.18   -01 2.02   +00
 4.19   -01 1.98   +00
 4.20   -01 2.09   +00
 4.21   -01 2.15   +00
 4.22   -01 1.85   +00
 4.23   -01 1.75   +00
 4.24   -01 1.62   +00
 4.25   -01 1.92   +00
 4.26   -01 1.62   +00
 4.27   -01 1.73   +00
 4.28   -01 1.84   +00
 4.29   -01 2.20   +00
 4.30   -01 1.54   +00
 4.31   -01 1.97   +00
 4.32   -01 2.15   +00
 4.33   -01 2.06   +00
 4.34   -01 2.27   +00
 4.35   -01 2.77   +00
 4.36   -01 3.42   +00
 4.37   -01 3.96   +00
 4.38   -01 4.93   +00
 4.39   -01 5.49   +00
 4.40   -01 6.61   +00
 4.41   -01 6.37   +00
 4.42   -01 5.97   +00
 4.43   -01 5.24   +00
 4.44   -01 5.36   +00
 4.45   -01 4.90   +00
 4.46   -01 5.36   +00
 4.47   -01 5.13   +00
 4.48   -01 4.80   +00
 4.49   -01 4.72   +00
 4.50   -01 4.56   +00
 4.51   -01 4.14   +00
 4.52   -01 3.80   +00
 4.53   -01 3.77   +00
 4.54   -01 3.47   +00
 4.55   -01 3.33   +00
 4.56   -01 3.06   +00
 4.57   -01 2.93   +00
 4.58   -01 2.73   +00
 4.59   -01 2.72   +00
 4.60   -01 2.84   +00
 4.61   -01 2.63   +00
 4.62   -01 2.57   +00
 4.63   -01 2.29   +00
 4.64   -01 2.46   +00
 4.65   -01 2.24   +00
 4.66   -01 2.12   +00
 4.67   -01 1.99   +00
 4.68   -01 2.06   +00
 4.69   -01 2.44   +00
 4.70   -01 2.56   +00
 4.71   -01 2.39   +00
 4.72   -01 2.22   +00
 4.73   -01 2.22   +00
 4.74   -01 2.14   +00
 4.75   -01 2.10   +00
 4.76   -01 2.01   +00
 4.77   -01 2.20   +00
 4.78   -01 2.06   +00
 4.79   -01 2.28   +00
 4.80   -01 2.09   +00
 4.81   -01 2.07   +00
 4.82   -01 2.08   +00
 4.83   -01 2.08   +00
 4.84   -01 1.98   +00
 4.85   -01 2.03   +00
 4.86   -01 1.90   +00
 4.87   -01 2.03   +00
 4.88   -01 1.99   +00
 4.89   -01 2.10   +00
 4.90   -01 2.08   +00
 4.91   -01 2.20   +00
 4.92   -01 2.01   +00
 4.93   -01 1.79   +00
 4.94   -01 1.53   +00
 4.95   -01 1.96   +00
 4.96   -01 1.95   +00
 4.97   -01 1.84   +00
 4.98   -01 1.88   +00
 4.99   -01 2.26   +00
 5.00   -01 2.01   +00
 5.01   -01 2.18   +00
 5.02   -01 2.29   +00
 5.03   -01 1.97   +00
 5.04   -01 1.96   +00
 5.05   -01 2.19   +00
 5.06   -01 2.70   +00
 5.07   -01 3.18   +00
 5.08   -01 3.60   +00
 5.09   -01 4.01   +00
 5.10   -01 4.35   +00
 5.11   -01 4.79   +00
 5.12   -01 4.94   +00
 5.13   -01 4.66   +00
 5.14   -01 4.70   +00
 5.15   -01 4.20   +00
 5.16   -01 4.33   +00
 5.17   -01 3.59   +00
 5.18   -01 3.11   +00
 5.19   -01 2.95   +00
 5.20   -01 2.75   +00
 5.21   -01 2.93   +00
 5.22   -01 2.79   +00
 5.23   -01 2.81   +00
 5.24   -01 2.60   +00
 5.25   -01 2.60   +00
 5.26   -01 2.67   +00
 5.27   -01 2.20   +00
 5.28   -01 2.35   +00
 5.29   -01 2.16   +00
 5.30   -01 2.12   +00
 5.31   -01 2.21   +00
 5.32   -01 1.91   +00
 5.33   -01 1.87   +00
 5.34   -01 1.80   +00
 5.35   -01 1.59   +00
 5.36   -01 1.96   +00
 5.37   -01 1.88   +00
 5.38   -01 1.73   +00
 5.39   -01 1.68   +00
 5.40   -01 1.45   +00
 5.41   -01 1.81   +00
 5.42   -01 1.86   +00
 5.43   -01 1.70   +00
 5.44   -01 1.92   +00
 5.45   -01 1.97   +00
 5.46   -01 1.51   +00
 5.47   -01 1.73   +00
 5.48   -01 1.34   +00
 5.49   -01 1.61   +00
 5.50   -01 1.53   +00
 5.51   -01 1.33   +00
 5.52   -01 1.66   +00
 5.53   -01 1.73   +00
 5.54   -01 1.79   +00
 5.55   -01 1.67   +00
 5.56   -01 1.26   +00
 5.57   -01 1.49   +00
 5.58   -01 2.02   +00
 5.59   -01 2.14   +00
 5.60   -01 2.09   +00
 5.61   -01 2.15   +00
 5.62   -01 1.68   +00
 5.63   -01 1.77   +00
 5.64   -01 1.99   +00
 5.65   -01 1.58   +00
 5.66   -01 1.39   +00
 5.67   -01 1.55   +00
 5.68   -01 1.44   +00
 5.69   -01 1.63   +00
 5.70   -01 1.97   +00
 5.71   -01 2.07   +00
 5.72   -01 2.12   +00
 5.73   -01 1.99   +00
 5.74   -01 2.06   +00
 5.75   -01 1.91   +00
 5.76   -01 2.14   +00
 5.77   -01 2.21   +00
 5.78   -01 2.50   +00
 5.79   -01 2.31   +00
 5.80   -01 2.37   +00
 5.81   -01 2.56   +00
 5.82   -01 2.45   +00
 5.83   -01 2.55   +00
 5.84   -01 2.75   +00
 5.85   -01 2.82   +00
 5.86   -01 2.76   +00
 5.87   -01 3.33   +00
 5.88   -01 3.29   +00
 5.89   -01 3.67   +00
 5.90   -01 3.50   +00
 5.91   -01 3.81   +00
 5.92   -01 4.06   +00
 5.93   -01 4.17   +00
 5.94   -01 4.78   +00
 5.95   -01 4.73   +00
 5.96   -01 4.95   +00
 5.97   -01 4.60   +00
 5.98   -01 5.38   +00
 5.99   -01 5.28   +00
 6.00   -01 5.69   +00
 6.01   -01 5.12   +00
 6.02   -01 5.14   +00
 6.03   -01 5.73   +00
 6.04   -01 5.66   +00
 6.05   -01 5.28   +00
 6.06   -01 5.83   +00
 6.07   -01 5.85   +00
 6.08   -01 5.53   +00
 6.09   -01 5.58   +00
 6.10   -01 5.79   +00
 6.11   -01 5.71   +00
 6.12   -01 5.49   +00
 6.13   -01 5.51   +00
 6.14   -01 5.41   +00
 6.15   -01 5.17   +00
 6.16   -01 5.31   +00
 6.17   -01 5.48   +00
 6.18   -01 5.02   +00
 6.19   -01 5.17   +00
 6.20   -01 4.85   +00
 6.21   -01 4.83   +00
 6.22   -01 4.72   +00
 6.23   -01 5.28   +00
 6.24   -01 4.61   +00
 6.25   -01 4.46   +00
 6.26   -01 4.38   +00
 6.27   -01 4.31   +00
 6.28   -01 4.25   +00
 6.29   -01 4.09   +00
 6.30   -01 3.81   +00
 6.31   -01 3.69   +00
 6.32   -01 3.49   +00
 6.33   -01 3.10   +00
 6.34   -01 3.07   +00
 6.35   -01 2.89   +00
 6.36   -01 2.94   +00
 6.37   -01 3.53   +00
 6.38   -01 3.58   +00
 6.39   -01 3.86   +00
 6.40   -01 4.20   +00
 6.41   -01 4.53   +00
 6.42   -01 4.86   +00
 6.43   -01 4.83   +00
 6.44   -01 4.87   +00
 6.45   -01 4.62   +00
 6.46   -01 4.44   +00
 6.47   -01 4.40   +00
 6.48   -01 3.95   +00
 6.49   -01 4.41   +00
 6.50   -01 3.96   +00
 6.51   -01 3.76   +00
 6.52   -01 3.82   +00
 6.53   -01 3.59   +00
 6.54   -01 3.21   +00
 6.55   -01 3.47   +00
 6.56   -01 3.22   +00
 6.57   -01 3.02   +00
 6.58   -01 3.16   +00
 6.59   -01 3.18   +00
 6.60   -01 2.82   +00
 6.61   -01 2.89   +00
 6.62   -01 2.93   +00
 6.63   -01 2.77   +00
 6.64   -01 2.64   +00
 6.65   -01 2.73   +00
 6.66   -01 2.49   +00
 6.67   -01 2.52   +00
 6.68   -01 2.51   +00
 6.69   -01 2.34   +00
 6.70   -01 2.05   +00
 6.71   -01 2.10   +00
 6.72   -01 2.16   +00
 6.73   -01 2.42   +00
 6.74   -01 2.31   +00
 6.75   -01 2.67   +00
 6.76   -01 3.10   +00
 6.77   -01 3.36   +00
 6.78   -01 3.68   +00
 6.79   -01 3.59   +00
 6.80   -01 3.63   +00
 6.81   -01 3.32   +00
 6.82   -01 3.10   +00
 6.83   -01 3.14   +00
 6.84   -01 3.05   +00
 6.85   -01 3.00   +00
 6.86   -01 2.92   +00
 6.87   -01 2.96   +00
 6.88   -01 2.59   +00
 6.89   -01 3.07   +00
 6.90   -01 2.75   +00
 6.91   -01 2.46   +00
 6.92   -01 2.81   +00
 6.93   -01 2.69   +00
 6.94   -01 3.05   +00
 6.95   -01 2.91   +00
 6.96   -01 2.89   +00
 6.97   -01 2.92   +00
 6.98   -01 2.81   +00
 6.99   -01 2.87   +00
 7.00   -01 2.79   +00
 7.01   -01 2.49   +00
 7.02   -01 2.44   +00
 7.03   -01 2.29   +00
 7.04   -01 2.44   +00
 7.05   -01 2.26   +00
 7.06   -01 2.25   +00
 7.07   -01 2.25   +00
 7.08   -01 2.20   +00
 7.09   -01 2.14   +00
 7.10   -01 2.07   +00
 7.11   -01 2.13   +00
 7.12   -01 2.07   +00
 7.13   -01 2.10   +00
 7.14   -01 2.14   +00
 7.15   -01 2.05   +00
 7.16   -01 2.15   +00
 7.17   -01 2.11   +00
 7.18   -01 2.10   +00
 7.19   -01 1.82   +00
 7.20   -01 1.84   +00
 7.21   -01 1.83   +00
 7.22   -01 1.98   +00
 7.23   -01 1.76   +00
 7.24   -01 1.65   +00
 7.25   -01 1.67   +00
 7.26   -01 1.83   +00
 7.27   -01 1.82   +00
 7.28   -01 1.93   +00
 7.29   -01 1.79   +00
 7.30   -01 1.69   +00
 7.31   -01 1.77   +00
 7.32   -01 1.69   +00
 7.33   -01 1.69   +00
 7.34   -01 1.57   +00
 7.35   -01 1.49   +00
 7.36   -01 1.59   +00
 7.37   -01 1.64   +00
 7.38   -01 2.05   +00
 7.39   -01 2.32   +00
 7.40   -01 2.58   +00
 7.41   -01 2.80   +00
 7.42   -01 2.85   +00
 7.43   -01 3.10   +00
 7.44   -01 3.75   +00
 7.45   -01 4.19   +00
 7.46   -01 3.91   +00
 7.47   -01 4.53   +00
 7.48   -01 3.91   +00
 7.49   -01 3.67   +00
 7.50   -01 3.31   +00
 7.51   -01 2.76   +00
 7.52   -01 2.48   +00
 7.53   -01 2.02   +00
 7.54   -01 2.05   +00
 7.55   -01 2.12   +00
 7.56   -01 2.91   +00
 7.57   -01 3.06   +00
 7.58   -01 2.90   +00
 7.59   -01 2.47   +00
 7.60   -01 2.21   +00
 7.61   -01 2.02   +00
 7.62   -01 1.76   +00
 7.63   -01 2.02   +00
 7.64   -01 2.09   +00
 7.65   -01 1.80   +00
 7.66   -01 1.42   +00
 7.67   -01 1.78   +00
 7.68   -01 1.82   +00
 7.69   -01 2.00   +00
 7.70   -01 2.72   +00
 7.71   -01 2.86   +00
 7.72   -01 3.59   +00
 7.73   -01 3.84   +00
 7.74   -01 4.25   +00
 7.75   -01 4.38   +00
 7.76   -01 4.24   +00
 7.77   -01 4.16   +00
 7.78   -01 4.21   +00
 7.79   -01 4.11   +00
 7.80   -01 4.25   +00
 7.81   -01 4.19   +00
 7.82   -01 3.30   +00
 7.83   -01 3.12   +00
 7.84   -01 3.25   +00
 7.85   -01 2.53   +00
 7.86   -01 2.49   +00
 7.87   -01 2.22   +00
 7.88   -01 2.72   +00
 7.89   -01 2.22   +00
 7.90   -01 2.49   +00
 7.91   -01 2.01   +00
 7.92   -01 2.00   +00
 7.93   -01 3.17   +00
 7.94   -01 2.95   +00
 7.95   -01 2.22   +00
 7.96   -01 2.81   +00
 7.97   -01 2.44   +00
 7.98   -01 3.05   +00
 7.99   -01 2.61   +00
 8.00   -01 2.75   +00
 8.01   -01 2.59   +00
 8.02   -01 2.33   +00
 8.03   -01 2.27   +00
 8.04   -01 2.33   +00
 8.05   -01 2.35   +00
 8.06   -01 2.40   +00
 8.07   -01 2.09   +00
 8.08   -01 1.87   +00
 8.09   -01 2.14   +00
 8.10   -01 1.45   +00
 8.11   -01 1.97   +00
 8.12   -01 1.42   +00
 8.13   -01 1.32   +00
 8.14   -01 1.98   +00
 8.15   -01 1.69   +00
 8.16   -01 1.88   +00
 8.17   -01 1.75   +00
 8.18   -01 1.44   +00
 8.19   -01 1.66   +00
 8.20   -01 1.53   +00
 8.21   -01 1.59   +00
 8.22   -01 2.19   +00
 8.23   -01 2.93   +00
 8.24   -01 3.36   +00
 8.25   -01 3.15   +00
 8.26   -01 2.54   +00
 8.27   -01 2.75   +00
 8.28   -01 2.53   +00
 8.29   -01 2.49   +00
 8.30   -01 2.35   +00
 8.31   -01 2.14   +00
 8.32   -01 2.29   +00
 8.33   -01 1.90   +00
 8.34   -01 1.89   +00
 8.35   -01 1.65   +00
 8.36   -01 1.48   +00
 8.37   -01 1.80   +00
 8.38   -01 1.78   +00
 8.39   -01 2.75   +00
 8.40   -01 2.98   +00
 8.41   -01 2.90   +00
 8.42   -01 2.66   +00
 8.43   -01 2.22   +00
 8.44   -01 2.32   +00
 8.45   -01 2.24   +00
 8.46   -01 1.75   +00
 8.47   -01 1.89   +00
 8.48   -01 2.10   +00
 8.49   -01 2.29   +00
 8.50   -01 2.05   +00
 8.51   -01 1.77   +00
 8.52   -01 1.72   +00
 8.53   -01 1.94   +00
 8.54   -01 2.04   +00
 8.55   -01 2.36   +00
 8.56   -01 2.24   +00
 8.57   -01 2.69   +00
 8.58   -01 3.04   +00
 8.59   -01 2.50   +00
 8.60   -01 2.46   +00
 8.61   -01 3.33   +00
 8.62   -01 3.42   +00
 8.63   -01 3.49   +00
 8.64   -01 3.69   +00
 8.65   -01 3.97   +00
 8.66   -01 4.26   +00
 8.67   -01 4.16   +00
 8.68   -01 3.57   +00
 8.69   -01 3.44   +00
 8.70   -01 2.98   +00
 8.71   -01 2.79   +00
 8.72   -01 2.53   +00
 8.73   -01 2.29   +00
 8.74   -01 2.35   +00
 8.75   -01 2.69   +00
 8.76   -01 2.65   +00
 8.77   -01 2.57   +00
 8.78   -01 2.80   +00
 8.79   -01 3.04   +00
 8.80   -01 3.63   +00
 8.81   -01 3.24   +00
 8.82   -01 3.94   +00
 8.83   -01 3.81   +00
 8.84   -01 4.09   +00
 8.85   -01 4.03   +00
 8.86   -01 3.93   +00
 8.87   -01 4.65   +00
 8.88   -01 4.36   +00
 8.89   -01 4.57   +00
 8.90   -01 4.40   +00
 8.91   -01 4.49   +00
 8.92   -01 4.35   +00
 8.93   -01 4.51   +00
 8.94   -01 4.59   +00
 8.95   -01 4.51   +00
 8.96   -01 4.51   +00
 8.97   -01 4.72   +00
 8.98   -01 4.67   +00
 8.99   -01 4.74   +00
 9.00   -01 4.69   +00
 9.01   -01 4.64   +00
 9.02   -01 4.17   +00
 9.03   -01 4.13   +00
 9.04   -01 4.66   +00
 9.05   -01 5.33   +00
 9.06   -01 4.80   +00
 9.07   -01 4.64   +00
 9.08   -01 5.21   +00
 9.09   -01 4.32   +00
 9.10   -01 4.39   +00
 9.11   -01 4.18   +00
 9.12   -01 4.18   +00
 9.13   -01 4.29   +00
 9.14   -01 4.51   +00
 9.15   -01 3.88   +00
 9.16   -01 2.96   +00
 9.17   -01 4.24   +00
 9.18   -01 3.32   +00
 9.19   -01 3.95   +00
 9.20   -01 3.51   +00
 9.21   -01 3.95   +00
 9.22   -01 4.58   +00
 9.23   -01 4.38   +00
 9.24   -01 4.06   +00
 9.25   -01 4.07   +00
 9.26   -01 3.72   +00
 9.27   -01 3.82   +00
 9.28   -01 3.71   +00
 9.29   -01 3.48   +00
 9.30   -01 3.53   +00
 9.31   -01 2.96   +00
 9.32   -01 3.57   +00
 9.33   -01 3.29   +00
 9.34   -01 3.40   +00
 9.35   -01 3.47   +00
 9.36   -01 3.03   +00
 9.37   -01 3.69   +00
 9.38   -01 3.26   +00
 9.39   -01 3.57   +00
 9.40   -01 3.42   +00
 9.41   -01 3.88   +00
 9.42   -01 4.18   +00
 9.43   -01 3.96   +00
 9.44   -01 4.33   +00
 9.45   -01 4.02   +00
 9.46   -01 2.98   +00
 9.47   -01 3.16   +00
 9.48   -01 3.15   +00
 9.49   -01 3.06   +00
 9.50   -01 3.01   +00
 9.51   -01 2.80   +00
 9.52   -01 2.60   +00
 9.53   -01 2.38   +00
 9.54   -01 2.40   +00
 9.55   -01 2.36   +00
 9.56   -01 2.69   +00
 9.57   -01 3.02   +00
 9.58   -01 2.91   +00
 9.59   -01 2.54   +00
 9.60   -01 2.89   +00
 9.61   -01 2.28   +00
 9.62   -01 2.28   +00
 9.63   -01 1.98   +00
 9.64   -01 1.76   +00
 9.65   -01 2.15   +00
 9.66   -01 1.98   +00
 9.67   -01 2.25   +00
 9.68   -01 2.46   +00
 9.69   -01 2.98   +00
 9.70   -01 3.31   +00
 9.71   -01 3.73   +00
 9.72   -01 4.04   +00
 9.73   -01 4.12   +00
 9.74   -01 4.04   +00
 9.75   -01 3.94   +00
 9.76   -01 3.97   +00
 9.77   -01 4.07   +00
 9.78   -01 3.93   +00
 9.79   -01 3.23   +00
 9.80   -01 2.87   +00
 9.81   -01 2.70   +00
 9.82   -01 3.40   +00
 9.83   -01 2.95   +00
 9.84   -01 2.88   +00
 9.85   -01 2.68   +00
 9.86   -01 2.73   +00
 9.87   -01 2.36   +00
 9.88   -01 2.27   +00
 9.89   -01 2.58   +00
 9.90   -01 3.36   +00
 9.91   -01 3.49   +00
 9.92   -01 3.90   +00
 9.93   -01 3.63   +00
 9.94   -01 3.08   +00
 9.95   -01 2.91   +00
 9.96   -01 2.61   +00
 9.97   -01 2.28   +00
 9.98   -01 2.44   +00
 9.99   -01 1.72   +00
 1.000  +00 1.85   +00
 1.001  +00 2.14   +00
 1.002  +00 2.08   +00
 1.003  +00 2.10   +00
 1.004  +00 2.48   +00
 1.005  +00 2.82   +00
 1.006  +00 3.58   +00
 1.007  +00 3.27   +00
 1.008  +00 3.76   +00
 1.009  +00 4.37   +00
 1.010  +00 3.78   +00
 1.011  +00 3.97   +00
 1.012  +00 3.92   +00
 1.013  +00 3.75   +00
 1.014  +00 3.56   +00
 1.015  +00 3.75   +00
 1.016  +00 3.99   +00
 1.017  +00 4.57   +00
 1.018  +00 4.58   +00
 1.019  +00 4.36   +00
 1.020  +00 4.25   +00
 1.021  +00 3.62   +00
 1.022  +00 3.97   +00
 1.023  +00 3.75   +00
 1.024  +00 3.83   +00
 1.025  +00 3.73   +00
 1.026  +00 3.31   +00
 1.027  +00 3.36   +00
 1.028  +00 3.50   +00
 1.029  +00 2.96   +00
 1.030  +00 2.68   +00
 1.031  +00 2.88   +00
 1.032  +00 2.61   +00
 1.033  +00 2.46   +00
 1.034  +00 3.15   +00
 1.035  +00 3.12   +00
 1.036  +00 3.46   +00
 1.037  +00 3.69   +00
 1.038  +00 3.48   +00
 1.039  +00 3.26   +00
 1.040  +00 3.62   +00
 1.041  +00 3.52   +00
 1.042  +00 3.34   +00
 1.043  +00 3.80   +00
 1.044  +00 3.23   +00
 1.045  +00 3.58   +00
 1.046  +00 3.89   +00
 1.047  +00 3.40   +00
 1.048  +00 2.65   +00
 1.049  +00 2.70   +00
 1.050  +00 2.73   +00
 1.051  +00 2.97   +00
 1.052  +00 2.37   +00
 1.053  +00 2.47   +00
 1.054  +00 2.48   +00
 1.055  +00 2.35   +00
 1.056  +00 2.70   +00
 1.057  +00 2.72   +00
 1.058  +00 2.81   +00
 1.059  +00 3.26   +00
 1.060  +00 2.78   +00
 1.061  +00 3.07   +00
 1.062  +00 2.76   +00
 1.063  +00 2.65   +00
 1.064  +00 2.62   +00
 1.065  +00 2.69   +00
 1.066  +00 2.51   +00
 1.067  +00 2.20   +00
 1.068  +00 2.58   +00
 1.069  +00 2.25   +00
 1.070  +00 2.21   +00
 1.071  +00 1.81   +00
 1.072  +00 1.95   +00
 1.073  +00 2.21   +00
 1.074  +00 1.58   +00
 1.075  +00 2.13   +00
 1.076  +00 1.94   +00
 1.077  +00 1.91   +00
 1.078  +00 1.83   +00
 1.079  +00 1.71   +00
 1.080  +00 1.70   +00
 1.081  +00 2.09   +00
 1.082  +00 2.67   +00
 1.083  +00 2.81   +00
 1.084  +00 2.71   +00
 1.085  +00 2.57   +00
 1.086  +00 2.05   +00
 1.087  +00 2.44   +00
 1.088  +00 2.23   +00
 1.089  +00 2.67   +00
 1.090  +00 2.24   +00
 1.091  +00 2.49   +00
 1.092  +00 2.97   +00
 1.093  +00 3.05   +00
 1.094  +00 3.31   +00
 1.095  +00 3.33   +00
 1.096  +00 3.78   +00
 1.097  +00 3.75   +00
 1.098  +00 3.66   +00
 1.099  +00 4.03   +00
 1.100  +00 4.47   +00
 1.101  +00 3.37   +00
 1.102  +00 4.33   +00
 1.103  +00 4.22   +00
 1.104  +00 4.19   +00
 1.105  +00 3.87   +00
 1.107  +00 3.77   +00
 1.108  +00 3.91   +00
 1.109  +00 3.56   +00
 1.110  +00 3.73   +00
 1.111  +00 3.73   +00
 1.112  +00 3.60   +00
 1.113  +00 3.73   +00
 1.114  +00 3.49   +00
 1.115  +00 3.42   +00
 1.116  +00 3.42   +00
 1.117  +00 3.44   +00
 1.118  +00 3.48   +00
 1.119  +00 3.52   +00
 1.120  +00 3.47   +00
 1.121  +00 3.62   +00
 1.122  +00 3.12   +00
 1.123  +00 2.89   +00
 1.124  +00 3.31   +00
 1.125  +00 3.09   +00
 1.126  +00 4.34   +00
 1.127  +00 4.55   +00
 1.128  +00 4.79   +00
 1.129  +00 4.21   +00
 1.130  +00 4.02   +00
 1.131  +00 3.22   +00
 1.132  +00 3.44   +00
 1.133  +00 2.88   +00
 1.134  +00 3.00   +00
 1.135  +00 3.12   +00
 1.136  +00 3.43   +00
 1.137  +00 3.41   +00
 1.138  +00 3.28   +00
 1.139  +00 3.09   +00
 1.140  +00 3.05   +00
 1.141  +00 2.86   +00
 1.142  +00 3.08   +00
 1.143  +00 2.79   +00
 1.144  +00 3.17   +00
 1.145  +00 3.06   +00
 1.146  +00 3.01   +00
 1.147  +00 2.53   +00
 1.148  +00 2.64   +00
 1.149  +00 2.11   +00
 1.150  +00 2.30   +00
 1.151  +00 2.43   +00
 1.152  +00 2.61   +00
 1.153  +00 2.50   +00
 1.154  +00 2.23   +00
 1.155  +00 2.52   +00
 1.156  +00 2.23   +00
 1.157  +00 2.42   +00
 1.158  +00 2.40   +00
 1.159  +00 2.75   +00
 1.160  +00 2.67   +00
 1.161  +00 2.80   +00
 1.162  +00 2.38   +00
 1.163  +00 2.56   +00
 1.164  +00 2.60   +00
 1.165  +00 2.29   +00
 1.166  +00 2.54   +00
 1.167  +00 3.08   +00
 1.168  +00 3.00   +00
 1.169  +00 2.78   +00
 1.170  +00 2.75   +00
 1.171  +00 2.52   +00
 1.172  +00 2.37   +00
 1.173  +00 2.04   +00
 1.174  +00 2.43   +00
 1.175  +00 2.14   +00
 1.176  +00 2.26   +00
 1.177  +00 2.06   +00
 1.178  +00 2.15   +00
 1.179  +00 2.49   +00
 1.180  +00 2.52   +00
 1.181  +00 2.08   +00
 1.182  +00 2.11   +00
 1.183  +00 1.88   +00
 1.184  +00 1.54   +00
 1.185  +00 1.70   +00
 1.186  +00 1.83   +00
 1.187  +00 2.26   +00
 1.188  +00 2.29   +00
 1.189  +00 2.64   +00
 1.190  +00 2.79   +00
 1.191  +00 3.03   +00
 1.192  +00 3.07   +00
 1.193  +00 2.86   +00
 1.194  +00 3.02   +00
 1.195  +00 3.23   +00
 1.196  +00 3.39   +00
 1.197  +00 3.76   +00
 1.198  +00 4.12   +00
 1.199  +00 4.80   +00
 1.200  +00 5.57   +00
 1.201  +00 6.04   +00
 1.202  +00 5.84   +00
 1.203  +00 4.68   +00
 1.204  +00 3.58   +00
 1.205  +00 3.16   +00
 1.206  +00 2.92   +00
 1.207  +00 2.42   +00
 1.208  +00 2.15   +00
 1.209  +00 2.36   +00
 1.210  +00 2.81   +00
 1.211  +00 2.81   +00
 1.212  +00 4.47   +00
 1.213  +00 4.22   +00
 1.214  +00 4.75   +00
 1.215  +00 4.48   +00
 1.216  +00 5.05   +00
 1.217  +00 4.42   +00
 1.218  +00 4.39   +00
 1.219  +00 4.20   +00
 1.220  +00 4.09   +00
 1.221  +00 4.02   +00
 1.222  +00 3.67   +00
 1.223  +00 3.74   +00
 1.224  +00 3.78   +00
 1.225  +00 3.90   +00
 1.226  +00 3.89   +00
 1.227  +00 4.14   +00
 1.228  +00 4.27   +00
 1.229  +00 4.65   +00
 1.230  +00 4.49   +00
 1.231  +00 4.47   +00
 1.232  +00 4.12   +00
 1.233  +00 3.70   +00
 1.234  +00 3.82   +00
 1.235  +00 3.30   +00
 1.236  +00 3.27   +00
 1.237  +00 2.70   +00
 1.238  +00 3.05   +00
 1.239  +00 3.09   +00
 1.240  +00 3.39   +00
 1.241  +00 3.84   +00
 1.242  +00 3.54   +00
 1.243  +00 3.45   +00
 1.244  +00 3.42   +00
 1.245  +00 3.50   +00
 1.246  +00 4.29   +00
 1.247  +00 4.19   +00
 1.248  +00 4.39   +00
 1.249  +00 4.01   +00
 1.250  +00 3.48   +00
 1.251  +00 3.44   +00
 1.252  +00 2.67   +00
 1.253  +00 3.08   +00
 1.254  +00 2.88   +00
 1.255  +00 3.39   +00
 1.256  +00 2.99   +00
 1.257  +00 3.32   +00
 1.258  +00 3.40   +00
 1.259  +00 3.65   +00
 1.260  +00 3.97   +00
 1.261  +00 4.16   +00
 1.262  +00 3.75   +00
 1.263  +00 3.96   +00
 1.264  +00 4.29   +00
 1.265  +00 4.77   +00
 1.266  +00 4.60   +00
 1.267  +00 4.48   +00
 1.268  +00 4.25   +00
 1.269  +00 3.95   +00
 1.270  +00 2.94   +00
 1.271  +00 2.57   +00
 1.272  +00 2.85   +00
 1.273  +00 2.72   +00
 1.274  +00 2.60   +00
 1.275  +00 2.75   +00
 1.276  +00 2.58   +00
 1.277  +00 2.40   +00
 1.278  +00 2.41   +00
 1.279  +00 2.65   +00
 1.280  +00 2.60   +00
 1.281  +00 2.43   +00
 1.282  +00 3.01   +00
 1.283  +00 3.07   +00
 1.284  +00 3.34   +00
 1.285  +00 3.05   +00
 1.286  +00 3.03   +00
 1.287  +00 3.65   +00
 1.288  +00 4.40   +00
 1.289  +00 4.34   +00
 1.290  +00 4.44   +00
 1.291  +00 3.91   +00
 1.292  +00 3.52   +00
 1.293  +00 3.32   +00
 1.294  +00 3.17   +00
 1.295  +00 2.77   +00
 1.296  +00 2.95   +00
 1.297  +00 2.84   +00
 1.298  +00 2.45   +00
 1.299  +00 2.49   +00
 1.300  +00 2.89   +00
 1.301  +00 2.59   +00
 1.302  +00 2.10   +00
 1.303  +00 2.83   +00
 1.304  +00 2.36   +00
 1.305  +00 2.72   +00
 1.306  +00 2.68   +00
 1.307  +00 2.77   +00
 1.308  +00 3.00   +00
 1.309  +00 3.47   +00
 1.310  +00 2.80   +00
 1.311  +00 2.53   +00
 1.312  +00 2.50   +00
 1.313  +00 2.92   +00
 1.314  +00 2.72   +00
 1.315  +00 2.79   +00
 1.316  +00 3.16   +00
 1.317  +00 3.59   +00
 1.318  +00 3.32   +00
 1.319  +00 3.46   +00
 1.320  +00 2.74   +00
 1.321  +00 2.89   +00
 1.322  +00 2.88   +00
 1.323  +00 2.99   +00
 1.324  +00 3.13   +00
 1.325  +00 2.44   +00
 1.326  +00 2.81   +00
 1.327  +00 2.72   +00
 1.328  +00 2.46   +00
 1.329  +00 2.57   +00
 1.330  +00 2.70   +00
 1.331  +00 2.62   +00
 1.332  +00 3.03   +00
 1.333  +00 3.12   +00
 1.334  +00 3.19   +00
 1.335  +00 2.73   +00
 1.336  +00 2.73   +00
 1.337  +00 2.57   +00
 1.338  +00 2.86   +00
 1.339  +00 2.81   +00
 1.340  +00 2.52   +00
 1.341  +00 2.65   +00
 1.342  +00 2.63   +00
ENDDATA            939
ENDSUBENT          946
NOSUBENT      11523004     830412              20050926       0000
NOSUBENT      11523005     830412              20050926       0000
ENDENTRY             5
