ENTRY            11588   19830815              20050926       0000
SUBENT        11588001   19830815              20050926       0000
BIB                  5          6
INSTITUTE  (1USADKE)
REFERENCE  (W,BILPUCH,6309)
AUTHOR     (J.A.FARRELL,E.G.BILPUCH,H.W.NEWSON)
STATUS     (SCSRS)
HISTORY    (760718T) TRANSLATED FROM SCISRS
           (830815A) CONVERTED TO REACTION FORMALISM
ENDBIB               6
NOCOMMON             0          0
ENDSUBENT            9
SUBENT        11588002   19830815              20050926       0000
BIB                  1          1
REACTION   (30-ZN-68(N,TOT),,SIG)
ENDBIB               1
NOCOMMON             0          0
DATA                 2       1124
EN         DATA
MEV        B
 3.05   -02 5.911  +00
 3.15   -02 9.352  +00
 3.25   -02 1.407  +01
 3.35   -02 1.485  +01
 3.45   -02 1.790  +01
 3.55   -02 2.082  +01
 3.65   -02 1.982  +01
 3.75   -02 1.789  +01
 3.85   -02 1.523  +01
 3.95   -02 1.284  +01
 4.05   -02 1.163  +01
 4.15   -02 9.883  +00
 4.25   -02 7.925  +00
 4.35   -02 7.589  +00
 4.45   -02 6.595  +00
 4.55   -02 7.595  +00
 4.65   -02 8.075  +00
 4.75   -02 6.458  +00
 4.85   -02 5.293  +00
 4.95   -02 4.562  +00
 5.00   -02 4.661  +00
 5.00   -02 3.730  +00
 5.00   -02 4.833  +00
 5.00   -02 4.208  +00
 5.05   -02 3.658  +00
 5.05   -02 5.816  +00
 5.10   -02 5.221  +00
 5.10   -02 4.280  +00
 5.10   -02 5.018  +00
 5.15   -02 6.001  +00
 5.20   -02 8.240  +00
 5.25   -02 8.959  +00
 5.30   -02 9.258  +00
 5.35   -02 7.758  +00
 5.40   -02 7.346  +00
 5.45   -02 6.136  +00
 5.50   -02 5.288  +00
 5.55   -02 4.787  +00
 5.60   -02 5.749  +00
 5.65   -02 5.059  +00
 5.70   -02 4.169  +00
 5.75   -02 4.685  +00
 5.80   -02 4.627  +00
 5.85   -02 4.247  +00
 5.90   -02 5.302  +00
 5.95   -02 4.400  +00
 6.00   -02 3.626  +00
 6.00   -02 3.231  +00
 6.05   -02 3.935  +00
 6.05   -02 3.868  +00
 6.10   -02 3.673  +00
 6.10   -02 2.959  +00
 6.15   -02 3.516  +00
 6.15   -02 3.034  +00
 6.20   -02 2.890  +00
 6.20   -02 2.448  +00
 6.25   -02 2.908  +00
 6.25   -02 2.080  +00
 6.30   -02 2.541  +00
 6.30   -02 2.345  +00
 6.35   -02 2.796  +00
 6.35   -02 2.586  +00
 6.40   -02 3.488  +00
 6.40   -02 1.604  +00
 6.45   -02 2.848  +00
 6.45   -02 2.619  +00
 6.50   -02 2.969  +00
 6.50   -02 7.068  +00
 6.55   -02 2.961  +00
 6.55   -02 1.147  +01
 6.60   -02 3.528  +00
 6.60   -02 1.596  +01
 6.65   -02 2.443  +00
 6.65   -02 1.675  +01
 6.70   -02 3.853  +00
 6.70   -02 1.715  +01
 6.75   -02 3.110  +00
 6.75   -02 1.558  +01
 6.80   -02 2.524  +00
 6.80   -02 1.355  +01
 6.85   -02 2.235  +00
 6.85   -02 1.260  +01
 6.90   -02 2.051  +00
 6.90   -02 1.141  +01
 6.95   -02 1.844  +00
 6.95   -02 9.896  +00
 7.00   -02 1.706  +00
 7.00   -02 8.597  +00
 7.05   -02 9.63   -01
 7.05   -02 9.125  +00
 7.10   -02 9.28   -01
 7.10   -02 8.448  +00
 7.15   -02 8.90   -01
 7.15   -02 8.217  +00
 7.20   -02 6.88   -01
 7.20   -02 8.524  +00
 7.25   -02 5.76   -01
 7.25   -02 7.765  +00
 7.30   -02 6.02   -01
 7.30   -02 7.195  +00
 7.35   -02 8.54   -01
 7.40   -02 3.095  +00
 7.45   -02 7.040  +00
 7.50   -02 9.376  +00
 7.55   -02 9.519  +00
 7.60   -02 5.773  +00
 7.65   -02 3.941  +00
 7.70   -02 4.474  +00
 7.75   -02 9.746  +00
 7.80   -02 1.251  +01
 7.80   -02 1.256  +01
 7.85   -02 1.530  +01
 7.85   -02 1.472  +01
 7.90   -02 1.342  +01
 7.90   -02 8.121  +00
 7.95   -02 8.233  +00
 7.95   -02 7.126  +00
 8.00   -02 7.042  +00
 8.00   -02 9.323  +00
 8.05   -02 9.305  +00
 8.05   -02 1.276  +01
 8.10   -02 1.239  +01
 8.15   -02 1.396  +01
 8.20   -02 1.287  +01
 8.25   -02 1.139  +01
 8.30   -02 9.594  +00
 8.35   -02 9.258  +00
 8.40   -02 7.863  +00
 8.45   -02 7.305  +00
 8.50   -02 5.306  +00
 8.55   -02 4.972  +00
 8.60   -02 4.177  +00
 8.65   -02 4.928  +00
 8.70   -02 5.470  +00
 8.75   -02 7.309  +00
 8.80   -02 6.406  +00
 8.85   -02 5.869  +00
 8.90   -02 3.410  +00
 8.95   -02 3.270  +00
 9.00   -02 1.832  +00
 9.05   -02 1.251  +00
 9.10   -02 1.107  +00
 9.15   -02 3.395  +00
 9.20   -02 3.757  +00
 9.25   -02 7.409  +00
 9.30   -02 1.628  +01
 9.35   -02 1.711  +01
 9.40   -02 1.694  +01
 9.45   -02 1.333  +01
 9.50   -02 1.582  +01
 9.55   -02 1.542  +01
 9.60   -02 1.320  +01
 9.65   -02 1.191  +01
 9.70   -02 1.144  +01
 9.75   -02 8.877  +00
 9.80   -02 8.938  +00
 9.85   -02 8.170  +00
 9.90   -02 6.829  +00
 9.95   -02 6.589  +00
 1.000  -01 6.300  +00
 1.005  -01 5.992  +00
 1.010  -01 5.576  +00
 1.015  -01 7.175  +00
 1.020  -01 6.232  +00
 1.025  -01 5.502  +00
 1.030  -01 3.856  +00
 1.030  -01 6.678  +00
 1.035  -01 3.612  +00
 1.035  -01 5.327  +00
 1.040  -01 2.332  +00
 1.040  -01 4.718  +00
 1.045  -01 1.912  +00
 1.045  -01 5.087  +00
 1.050  -01 2.457  +00
 1.050  -01 5.728  +00
 1.055  -01 1.508  +00
 1.055  -01 7.387  +00
 1.060  -01 1.009  +00
 1.060  -01 7.207  +00
 1.065  -01 1.872  +00
 1.065  -01 5.045  +00
 1.070  -01 1.908  +00
 1.070  -01 4.414  +00
 1.075  -01 4.362  +00
 1.075  -01 2.182  +00
 1.080  -01 6.983  +00
 1.080  -01 3.382  +00
 1.085  -01 9.888  +00
 1.085  -01 2.566  +00
 1.090  -01 3.628  +00
 1.095  -01 6.397  +00
 1.100  -01 1.493  +01
 1.100  -01 9.671  +00
 1.105  -01 1.396  +01
 1.105  -01 1.406  +01
 1.110  -01 1.400  +01
 1.110  -01 1.604  +01
 1.115  -01 1.272  +01
 1.115  -01 1.694  +01
 1.120  -01 1.180  +01
 1.120  -01 1.603  +01
 1.125  -01 1.094  +01
 1.125  -01 1.568  +01
 1.130  -01 1.038  +01
 1.130  -01 1.346  +01
 1.135  -01 9.986  +00
 1.135  -01 1.241  +01
 1.140  -01 8.989  +00
 1.140  -01 1.121  +01
 1.145  -01 8.661  +00
 1.150  -01 6.773  +00
 1.155  -01 6.250  +00
 1.160  -01 3.755  +00
 1.165  -01 3.879  +00
 1.170  -01 6.423  +00
 1.175  -01 9.954  +00
 1.180  -01 1.083  +01
 1.185  -01 1.071  +01
 1.190  -01 9.843  +00
 1.195  -01 8.397  +00
 1.200  -01 8.267  +00
 1.205  -01 8.392  +00
 1.210  -01 7.630  +00
 1.215  -01 6.616  +00
 1.220  -01 6.712  +00
 1.225  -01 6.118  +00
 1.230  -01 4.288  +00
 1.235  -01 4.644  +00
 1.240  -01 5.073  +00
 1.245  -01 5.785  +00
 1.250  -01 6.189  +00
 1.255  -01 4.743  +00
 1.260  -01 3.232  +00
 1.265  -01 2.933  +00
 1.270  -01 5.746  +00
 1.275  -01 8.886  +00
 1.280  -01 1.103  +01
 1.285  -01 1.204  +01
 1.290  -01 1.143  +01
 1.295  -01 9.692  +00
 1.300  -01 9.504  +00
 1.305  -01 9.081  +00
 1.310  -01 9.155  +00
 1.315  -01 8.641  +00
 1.320  -01 8.156  +00
 1.325  -01 8.538  +00
 1.330  -01 8.227  +00
 1.335  -01 6.988  +00
 1.340  -01 7.084  +00
 1.345  -01 6.926  +00
 1.350  -01 6.418  +00
 1.355  -01 7.119  +00
 1.360  -01 5.943  +00
 1.365  -01 5.970  +00
 1.370  -01 5.750  +00
 1.375  -01 6.494  +00
 1.380  -01 5.679  +00
 1.385  -01 4.630  +00
 1.390  -01 4.532  +00
 1.395  -01 5.018  +00
 1.400  -01 7.478  +00
 1.405  -01 7.631  +00
 1.410  -01 8.015  +00
 1.415  -01 6.588  +00
 1.420  -01 6.086  +00
 1.425  -01 6.091  +00
 1.430  -01 6.195  +00
 1.435  -01 5.611  +00
 1.440  -01 5.344  +00
 1.445  -01 6.297  +00
 1.450  -01 6.818  +00
 1.455  -01 5.093  +00
 1.460  -01 4.403  +00
 1.465  -01 3.653  +00
 1.465  -01 4.059  +00
 1.470  -01 4.800  +00
 1.470  -01 3.385  +00
 1.475  -01 5.505  +00
 1.475  -01 4.494  +00
 1.480  -01 7.431  +00
 1.480  -01 5.292  +00
 1.485  -01 8.941  +00
 1.485  -01 7.388  +00
 1.490  -01 7.711  +00
 1.490  -01 6.658  +00
 1.495  -01 8.102  +00
 1.495  -01 7.413  +00
 1.500  -01 7.034  +00
 1.500  -01 6.712  +00
 1.500  -01 5.802  +00
 1.505  -01 6.390  +00
 1.505  -01 7.369  +00
 1.505  -01 5.141  +00
 1.505  -01 6.252  +00
 1.510  -01 6.731  +00
 1.510  -01 7.162  +00
 1.510  -01 6.022  +00
 1.515  -01 7.014  +00
 1.515  -01 6.673  +00
 1.515  -01 6.733  +00
 1.520  -01 6.697  +00
 1.520  -01 6.586  +00
 1.520  -01 5.092  +00
 1.525  -01 5.752  +00
 1.525  -01 6.469  +00
 1.530  -01 6.679  +00
 1.530  -01 5.713  +00
 1.535  -01 6.274  +00
 1.535  -01 5.345  +00
 1.540  -01 5.852  +00
 1.540  -01 5.037  +00
 1.545  -01 6.808  +00
 1.545  -01 5.971  +00
 1.550  -01 6.046  +00
 1.550  -01 7.156  +00
 1.555  -01 5.269  +00
 1.555  -01 8.923  +00
 1.560  -01 4.544  +00
 1.560  -01 7.742  +00
 1.565  -01 5.175  +00
 1.565  -01 7.362  +00
 1.570  -01 5.490  +00
 1.570  -01 7.394  +00
 1.575  -01 4.802  +00
 1.575  -01 6.736  +00
 1.580  -01 5.234  +00
 1.580  -01 6.769  +00
 1.585  -01 4.603  +00
 1.585  -01 6.748  +00
 1.590  -01 5.120  +00
 1.590  -01 6.522  +00
 1.595  -01 5.265  +00
 1.595  -01 7.075  +00
 1.600  -01 5.357  +00
 1.600  -01 6.886  +00
 1.605  -01 5.677  +00
 1.605  -01 6.066  +00
 1.610  -01 5.258  +00
 1.610  -01 4.155  +00
 1.615  -01 5.019  +00
 1.615  -01 3.888  +00
 1.620  -01 5.149  +00
 1.620  -01 4.573  +00
 1.625  -01 6.161  +00
 1.625  -01 7.372  +00
 1.630  -01 6.297  +00
 1.630  -01 7.888  +00
 1.635  -01 5.717  +00
 1.635  -01 8.569  +00
 1.640  -01 3.888  +00
 1.640  -01 7.686  +00
 1.645  -01 4.512  +00
 1.645  -01 7.926  +00
 1.650  -01 3.872  +00
 1.650  -01 6.676  +00
 1.655  -01 3.584  +00
 1.655  -01 6.895  +00
 1.660  -01 4.588  +00
 1.660  -01 6.236  +00
 1.665  -01 5.915  +00
 1.665  -01 6.249  +00
 1.670  -01 7.113  +00
 1.670  -01 5.692  +00
 1.675  -01 6.948  +00
 1.675  -01 6.089  +00
 1.680  -01 6.792  +00
 1.680  -01 6.295  +00
 1.685  -01 5.796  +00
 1.685  -01 5.599  +00
 1.690  -01 5.741  +00
 1.690  -01 5.788  +00
 1.695  -01 4.987  +00
 1.695  -01 5.956  +00
 1.700  -01 4.525  +00
 1.705  -01 4.506  +00
 1.710  -01 4.256  +00
 1.715  -01 5.415  +00
 1.720  -01 4.998  +00
 1.725  -01 4.938  +00
 1.730  -01 4.414  +00
 1.735  -01 4.237  +00
 1.740  -01 4.521  +00
 1.745  -01 4.499  +00
 1.750  -01 4.598  +00
 1.755  -01 4.696  +00
 1.760  -01 4.313  +00
 1.765  -01 4.362  +00
 1.770  -01 2.526  +00
 1.775  -01 3.764  +00
 1.780  -01 3.902  +00
 1.785  -01 2.561  +00
 1.790  -01 2.337  +00
 1.795  -01 1.723  +00
 1.800  -01 1.370  +00
 1.805  -01 4.63   -01
 1.810  -01 1.669  +00
 1.815  -01 3.376  +00
 1.820  -01 6.505  +00
 1.825  -01 9.255  +00
 1.830  -01 8.818  +00
 1.835  -01 1.010  +01
 1.840  -01 9.519  +00
 1.845  -01 8.642  +00
 1.850  -01 8.747  +00
 1.855  -01 8.367  +00
 1.860  -01 7.854  +00
 1.865  -01 6.394  +00
 1.870  -01 5.858  +00
 1.875  -01 5.124  +00
 1.880  -01 4.222  +00
 1.885  -01 2.752  +00
 1.890  -01 4.899  +00
 1.895  -01 6.942  +00
 1.900  -01 8.810  +00
 1.900  -01 1.335  +01
 1.905  -01 7.948  +00
 1.905  -01 1.465  +01
 1.910  -01 8.167  +00
 1.915  -01 7.815  +00
 1.920  -01 8.084  +00
 1.925  -01 6.876  +00
 1.930  -01 6.639  +00
 1.935  -01 6.630  +00
 1.940  -01 5.083  +00
 1.945  -01 5.540  +00
 1.950  -01 6.003  +00
 1.950  -01 2.109  +00
 1.955  -01 5.303  +00
 1.955  -01 5.252  +00
 1.960  -01 4.757  +00
 1.960  -01 7.206  +00
 1.965  -01 5.042  +00
 1.965  -01 8.126  +00
 1.970  -01 4.455  +00
 1.970  -01 9.540  +00
 1.975  -01 4.020  +00
 1.975  -01 9.996  +00
 1.980  -01 3.584  +00
 1.980  -01 9.212  +00
 1.985  -01 4.368  +00
 1.985  -01 9.402  +00
 1.990  -01 2.896  +00
 1.990  -01 8.242  +00
 1.995  -01 3.338  +00
 1.995  -01 7.448  +00
 2.000  -01 2.955  +00
 2.000  -01 7.234  +00
 2.000  -01 3.111  +00
 2.005  -01 2.992  +00
 2.005  -01 6.062  +00
 2.010  -01 3.590  +00
 2.010  -01 5.318  +00
 2.015  -01 5.176  +00
 2.015  -01 4.055  +00
 2.020  -01 4.750  +00
 2.020  -01 2.788  +00
 2.025  -01 5.301  +00
 2.025  -01 4.286  +00
 2.030  -01 2.949  +00
 2.030  -01 5.169  +00
 2.035  -01 1.988  +00
 2.035  -01 7.943  +00
 2.040  -01 3.834  +00
 2.040  -01 8.206  +00
 2.045  -01 7.519  +00
 2.045  -01 8.438  +00
 2.050  -01 7.549  +00
 2.050  -01 8.906  +00
 2.055  -01 8.098  +00
 2.055  -01 7.477  +00
 2.060  -01 6.269  +00
 2.060  -01 6.842  +00
 2.065  -01 6.134  +00
 2.065  -01 6.624  +00
 2.070  -01 7.932  +00
 2.070  -01 6.954  +00
 2.075  -01 9.110  +00
 2.080  -01 9.430  +00
 2.085  -01 8.822  +00
 2.090  -01 8.318  +00
 2.095  -01 8.641  +00
 2.100  -01 8.014  +00
 2.105  -01 7.539  +00
 2.110  -01 7.410  +00
 2.115  -01 6.613  +00
 2.120  -01 7.052  +00
 2.125  -01 7.105  +00
 2.130  -01 7.468  +00
 2.135  -01 6.893  +00
 2.140  -01 6.793  +00
 2.145  -01 5.221  +00
 2.150  -01 5.866  +00
 2.155  -01 5.690  +00
 2.160  -01 5.219  +00
 2.165  -01 6.745  +00
 2.170  -01 5.388  +00
 2.175  -01 5.398  +00
 2.180  -01 5.307  +00
 2.185  -01 4.651  +00
 2.190  -01 4.582  +00
 2.195  -01 4.637  +00
 2.200  -01 5.368  +00
 2.205  -01 5.178  +00
 2.210  -01 3.764  +00
 2.215  -01 4.368  +00
 2.220  -01 3.886  +00
 2.225  -01 3.744  +00
 2.230  -01 3.655  +00
 2.235  -01 3.587  +00
 2.240  -01 2.835  +00
 2.245  -01 2.681  +00
 2.250  -01 2.906  +00
 2.255  -01 2.629  +00
 2.260  -01 1.289  +00
 2.265  -01 1.798  +00
 2.270  -01 2.099  +00
 2.275  -01 5.003  +00
 2.280  -01 6.223  +00
 2.285  -01 6.882  +00
 2.290  -01 7.861  +00
 2.295  -01 7.072  +00
 2.300  -01 6.475  +00
 2.305  -01 5.885  +00
 2.310  -01 5.057  +00
 2.315  -01 3.714  +00
 2.320  -01 3.180  +00
 2.325  -01 2.915  +00
 2.330  -01 4.174  +00
 2.335  -01 5.425  +00
 2.340  -01 7.105  +00
 2.345  -01 8.093  +00
 2.350  -01 8.891  +00
 2.355  -01 8.321  +00
 2.360  -01 7.959  +00
 2.365  -01 7.424  +00
 2.370  -01 5.653  +00
 2.375  -01 5.847  +00
 2.380  -01 5.848  +00
 2.385  -01 5.188  +00
 2.390  -01 4.273  +00
 2.395  -01 6.044  +00
 2.400  -01 5.542  +00
 2.450  -01 4.211  +00
 2.450  -01 3.691  +00
 2.455  -01 5.012  +00
 2.455  -01 3.019  +00
 2.460  -01 8.401  +00
 2.460  -01 3.431  +00
 2.465  -01 8.792  +00
 2.465  -01 3.582  +00
 2.470  -01 9.239  +00
 2.470  -01 6.108  +00
 2.475  -01 9.041  +00
 2.475  -01 6.795  +00
 2.480  -01 7.671  +00
 2.480  -01 8.971  +00
 2.485  -01 6.459  +00
 2.485  -01 9.372  +00
 2.490  -01 9.621  +00
 2.490  -01 7.628  +00
 2.490  -01 6.395  +00
 2.495  -01 5.851  +00
 2.495  -01 7.241  +00
 2.500  -01 8.219  +00
 2.500  -01 6.121  +00
 2.500  -01 5.376  +00
 2.505  -01 7.905  +00
 2.505  -01 4.857  +00
 2.510  -01 6.303  +00
 2.510  -01 8.045  +00
 2.515  -01 5.367  +00
 2.515  -01 6.835  +00
 2.520  -01 5.886  +00
 2.520  -01 4.684  +00
 2.525  -01 5.751  +00
 2.530  -01 6.626  +00
 2.535  -01 4.648  +00
 2.550  -01 5.857  +00
 2.555  -01 5.106  +00
 2.560  -01 5.348  +00
 2.565  -01 7.531  +00
 2.570  -01 8.791  +00
 2.575  -01 8.163  +00
 2.580  -01 7.888  +00
 2.585  -01 6.744  +00
 2.590  -01 7.493  +00
 2.595  -01 6.342  +00
 2.600  -01 6.058  +00
 2.605  -01 5.829  +00
 2.605  -01 5.179  +00
 2.605  -01 5.922  +00
 2.620  -01 5.514  +00
 2.625  -01 5.146  +00
 2.630  -01 4.108  +00
 2.635  -01 3.990  +00
 2.640  -01 3.410  +00
 2.645  -01 4.066  +00
 2.650  -01 2.108  +00
 2.655  -01 2.483  +00
 2.660  -01 5.388  +00
 2.665  -01 7.778  +00
 2.670  -01 6.494  +00
 2.675  -01 6.792  +00
 2.680  -01 5.592  +00
 2.685  -01 5.501  +00
 2.690  -01 5.479  +00
 2.695  -01 6.225  +00
 2.700  -01 6.026  +00
 2.705  -01 6.584  +00
 2.710  -01 6.813  +00
 2.715  -01 6.094  +00
 2.720  -01 5.740  +00
 2.725  -01 5.839  +00
 2.730  -01 5.399  +00
 2.735  -01 4.859  +00
 2.740  -01 4.599  +00
 2.745  -01 4.189  +00
 2.750  -01 3.242  +00
 2.755  -01 3.482  +00
 2.760  -01 2.915  +00
 2.765  -01 4.832  +00
 2.770  -01 4.814  +00
 2.775  -01 5.422  +00
 2.780  -01 4.714  +00
 2.785  -01 4.069  +00
 2.790  -01 2.380  +00
 2.795  -01 2.352  +00
 2.800  -01 2.97   -01
 2.805  -01 1.603  +00
 2.810  -01 4.073  +00
 2.815  -01 6.239  +00
 2.820  -01 7.754  +00
 2.825  -01 8.575  +00
 2.830  -01 6.025  +00
 2.835  -01 5.120  +00
 2.840  -01 4.104  +00
 2.845  -01 5.084  +00
 2.850  -01 5.567  +00
 2.855  -01 7.365  +00
 2.860  -01 8.044  +00
 2.865  -01 8.857  +00
 2.870  -01 8.263  +00
 2.875  -01 9.826  +00
 2.880  -01 9.816  +00
 2.885  -01 9.451  +00
 2.890  -01 8.116  +00
 2.895  -01 7.239  +00
 2.900  -01 7.994  +00
 2.905  -01 7.595  +00
 2.910  -01 6.012  +00
 2.915  -01 6.417  +00
 2.920  -01 6.310  +00
 2.925  -01 6.929  +00
 2.930  -01 7.794  +00
 2.935  -01 7.294  +00
 2.940  -01 5.348  +00
 2.940  -01 6.947  +00
 2.945  -01 6.333  +00
 2.950  -01 4.515  +00
 2.950  -01 5.651  +00
 2.955  -01 5.634  +00
 2.960  -01 6.877  +00
 2.960  -01 6.144  +00
 2.965  -01 7.124  +00
 2.965  -01 7.700  +00
 2.970  -01 6.697  +00
 2.970  -01 6.449  +00
 2.975  -01 6.022  +00
 2.980  -01 6.442  +00
 2.985  -01 6.196  +00
 2.990  -01 6.482  +00
 2.995  -01 8.153  +00
 3.000  -01 7.111  +00
 3.005  -01 6.930  +00
 3.010  -01 5.100  +00
 3.015  -01 6.209  +00
 3.020  -01 6.183  +00
 3.025  -01 5.853  +00
 3.030  -01 5.891  +00
 3.035  -01 5.248  +00
 3.040  -01 5.047  +00
 3.045  -01 4.942  +00
 3.050  -01 5.149  +00
 3.055  -01 4.166  +00
 3.060  -01 4.760  +00
 3.065  -01 4.493  +00
 3.070  -01 4.965  +00
 3.075  -01 6.490  +00
 3.080  -01 4.757  +00
 3.085  -01 4.403  +00
 3.090  -01 3.443  +00
 3.095  -01 2.527  +00
 3.100  -01 2.525  +00
 3.105  -01 3.556  +00
 3.110  -01 5.120  +00
 3.115  -01 6.422  +00
 3.120  -01 6.923  +00
 3.125  -01 6.261  +00
 3.130  -01 5.769  +00
 3.135  -01 5.653  +00
 3.145  -01 5.556  +00
 3.150  -01 4.023  +00
 3.155  -01 3.748  +00
 3.160  -01 3.484  +00
 3.165  -01 3.927  +00
 3.170  -01 6.213  +00
 3.175  -01 6.582  +00
 3.180  -01 6.922  +00
 3.185  -01 6.503  +00
 3.190  -01 5.665  +00
 3.195  -01 4.891  +00
 3.200  -01 5.011  +00
 3.205  -01 3.570  +00
 3.210  -01 2.592  +00
 3.215  -01 3.786  +00
 3.220  -01 5.860  +00
 3.225  -01 6.192  +00
 3.230  -01 6.726  +00
 3.235  -01 6.021  +00
 3.240  -01 6.854  +00
 3.245  -01 5.937  +00
 3.250  -01 6.483  +00
 3.255  -01 5.900  +00
 3.260  -01 3.074  +00
 3.265  -01 3.083  +00
 3.270  -01 4.054  +00
 3.275  -01 6.367  +00
 3.280  -01 7.323  +00
 3.285  -01 6.783  +00
 3.290  -01 7.526  +00
 3.295  -01 6.771  +00
 3.300  -01 6.657  +00
 3.305  -01 6.796  +00
 3.310  -01 7.789  +00
 3.315  -01 7.436  +00
 3.320  -01 5.802  +00
 3.325  -01 6.080  +00
 3.330  -01 5.827  +00
 3.335  -01 4.839  +00
 3.340  -01 4.522  +00
 3.345  -01 4.619  +00
 3.350  -01 6.137  +00
 3.355  -01 6.251  +00
 3.360  -01 6.850  +00
 3.365  -01 6.589  +00
 3.370  -01 6.664  +00
 3.375  -01 6.132  +00
 3.380  -01 5.802  +00
 3.385  -01 5.583  +00
 3.390  -01 6.392  +00
 3.395  -01 5.417  +00
 3.400  -01 5.865  +00
 3.410  -01 6.076  +00
 3.415  -01 5.545  +00
 3.420  -01 4.774  +00
 3.425  -01 6.606  +00
 3.430  -01 6.650  +00
 3.435  -01 6.185  +00
 3.440  -01 5.662  +00
 3.445  -01 5.498  +00
 3.450  -01 5.170  +00
 3.455  -01 4.291  +00
 3.460  -01 5.380  +00
 3.465  -01 5.526  +00
 3.470  -01 5.652  +00
 3.475  -01 6.611  +00
 3.480  -01 6.534  +00
 3.485  -01 7.150  +00
 3.490  -01 6.543  +00
 3.495  -01 6.237  +00
 3.500  -01 5.787  +00
 3.505  -01 6.126  +00
 3.510  -01 5.695  +00
 3.515  -01 4.995  +00
 3.520  -01 5.214  +00
 3.525  -01 5.400  +00
 3.530  -01 5.227  +00
 3.535  -01 6.801  +00
 3.540  -01 8.469  +00
 3.545  -01 6.826  +00
 3.550  -01 6.483  +00
 3.555  -01 6.885  +00
 3.560  -01 5.555  +00
 3.565  -01 6.427  +00
 3.570  -01 5.853  +00
 3.575  -01 4.266  +00
 3.580  -01 5.296  +00
 3.585  -01 4.284  +00
 3.590  -01 4.988  +00
 3.595  -01 5.702  +00
 3.600  -01 5.149  +00
 3.605  -01 4.574  +00
 3.610  -01 4.245  +00
 3.615  -01 4.475  +00
 3.620  -01 4.173  +00
 3.625  -01 4.079  +00
 3.630  -01 3.217  +00
 3.635  -01 3.460  +00
 3.640  -01 4.404  +00
 3.645  -01 4.835  +00
 3.650  -01 5.601  +00
 3.655  -01 4.236  +00
 3.660  -01 4.014  +00
 3.665  -01 3.698  +00
 3.670  -01 4.341  +00
 3.675  -01 5.277  +00
 3.680  -01 4.993  +00
 3.685  -01 5.204  +00
 3.690  -01 5.055  +00
 3.695  -01 4.476  +00
 3.700  -01 4.319  +00
 3.705  -01 4.026  +00
 3.710  -01 4.684  +00
 3.715  -01 5.297  +00
 3.720  -01 4.645  +00
 3.725  -01 3.920  +00
 3.730  -01 3.872  +00
 3.735  -01 3.092  +00
 3.740  -01 3.176  +00
 3.745  -01 2.050  +00
 3.750  -01 2.965  +00
 3.750  -01 2.219  +00
 3.755  -01 3.637  +00
 3.755  -01 4.540  +00
 3.760  -01 7.010  +00
 3.760  -01 6.302  +00
 3.765  -01 6.205  +00
 3.765  -01 7.394  +00
 3.770  -01 6.539  +00
 3.770  -01 6.811  +00
 3.775  -01 6.105  +00
 3.775  -01 6.222  +00
 3.780  -01 4.270  +00
 3.780  -01 4.595  +00
 3.785  -01 3.314  +00
 3.785  -01 4.419  +00
 3.790  -01 3.079  +00
 3.795  -01 4.362  +00
 3.800  -01 5.203  +00
 3.805  -01 5.890  +00
 3.810  -01 6.158  +00
 3.815  -01 7.019  +00
 3.820  -01 6.424  +00
 3.825  -01 5.817  +00
 3.830  -01 5.812  +00
 3.835  -01 6.003  +00
 3.840  -01 5.696  +00
 3.845  -01 5.849  +00
 3.850  -01 5.424  +00
 3.855  -01 6.267  +00
 3.860  -01 5.437  +00
 3.865  -01 5.137  +00
 3.870  -01 5.181  +00
 3.875  -01 5.685  +00
 3.880  -01 6.237  +00
 3.885  -01 5.476  +00
 3.890  -01 5.570  +00
 3.895  -01 4.914  +00
 3.900  -01 5.314  +00
 3.905  -01 4.783  +00
 3.910  -01 4.618  +00
 3.915  -01 4.003  +00
 3.920  -01 4.371  +00
 3.925  -01 4.227  +00
 3.930  -01 4.959  +00
 3.935  -01 4.049  +00
 3.940  -01 4.326  +00
 3.945  -01 4.197  +00
 3.950  -01 4.226  +00
 3.955  -01 5.903  +00
 3.960  -01 6.755  +00
 3.965  -01 6.388  +00
 3.970  -01 5.531  +00
 3.975  -01 4.956  +00
 3.980  -01 5.034  +00
 3.985  -01 5.023  +00
 3.990  -01 5.537  +00
 3.995  -01 5.247  +00
 4.000  -01 4.334  +00
 4.005  -01 4.414  +00
 4.010  -01 4.337  +00
 4.015  -01 3.830  +00
 4.020  -01 4.021  +00
 4.025  -01 2.429  +00
 4.030  -01 4.729  +00
 4.035  -01 4.663  +00
 4.040  -01 4.785  +00
 4.045  -01 4.901  +00
 4.050  -01 5.300  +00
 4.055  -01 4.563  +00
 4.060  -01 4.442  +00
 4.065  -01 4.141  +00
 4.070  -01 4.045  +00
 4.075  -01 3.162  +00
 4.080  -01 4.596  +00
 4.085  -01 3.977  +00
 4.090  -01 4.061  +00
 4.095  -01 4.007  +00
 4.105  -01 5.026  +00
 4.110  -01 5.529  +00
 4.115  -01 4.549  +00
 4.120  -01 4.165  +00
 4.125  -01 3.929  +00
 4.130  -01 3.777  +00
 4.135  -01 3.322  +00
 4.140  -01 3.217  +00
 4.145  -01 3.573  +00
 4.150  -01 3.675  +00
 4.155  -01 3.298  +00
 4.160  -01 3.879  +00
 4.165  -01 3.591  +00
 4.170  -01 2.802  +00
 4.175  -01 2.201  +00
 4.180  -01 3.180  +00
 4.185  -01 3.465  +00
 4.190  -01 3.900  +00
 4.195  -01 3.152  +00
 4.200  -01 3.687  +00
 4.205  -01 4.044  +00
 4.210  -01 3.332  +00
 4.215  -01 4.038  +00
 4.220  -01 4.135  +00
 4.225  -01 2.416  +00
 4.230  -01 3.173  +00
 4.235  -01 3.574  +00
 4.240  -01 3.579  +00
 4.245  -01 3.379  +00
 4.250  -01 3.865  +00
 4.255  -01 4.136  +00
 4.260  -01 4.040  +00
 4.265  -01 2.516  +00
 4.270  -01 4.744  +00
 4.275  -01 5.364  +00
 4.280  -01 7.433  +00
 4.285  -01 7.472  +00
 4.290  -01 6.583  +00
 4.295  -01 5.021  +00
 4.300  -01 5.457  +00
 4.305  -01 6.626  +00
 4.310  -01 6.733  +00
 4.315  -01 5.758  +00
 4.320  -01 5.290  +00
 4.325  -01 4.879  +00
 4.330  -01 3.457  +00
 4.335  -01 2.767  +00
 4.340  -01 3.134  +00
 4.345  -01 4.022  +00
 4.350  -01 4.525  +00
 4.355  -01 6.256  +00
 4.360  -01 4.596  +00
 4.365  -01 6.718  +00
 4.370  -01 4.782  +00
 4.375  -01 5.361  +00
 4.380  -01 4.074  +00
 4.385  -01 4.450  +00
 4.390  -01 4.573  +00
 4.395  -01 5.138  +00
 4.400  -01 4.479  +00
 4.405  -01 4.628  +00
 4.410  -01 4.680  +00
 4.415  -01 3.776  +00
 4.420  -01 3.864  +00
 4.425  -01 3.641  +00
 4.430  -01 4.035  +00
 4.435  -01 6.497  +00
 4.440  -01 4.821  +00
 4.445  -01 4.983  +00
 4.450  -01 4.564  +00
 4.455  -01 4.738  +00
 4.460  -01 4.242  +00
 4.465  -01 2.969  +00
 4.470  -01 4.545  +00
 4.475  -01 5.000  +00
 4.480  -01 6.342  +00
 4.485  -01 7.043  +00
 4.490  -01 6.012  +00
 4.495  -01 6.947  +00
 4.500  -01 5.656  +00
 4.505  -01 5.923  +00
 4.510  -01 5.749  +00
 4.515  -01 5.921  +00
 4.520  -01 5.291  +00
 4.525  -01 5.909  +00
 4.530  -01 5.904  +00
 4.535  -01 5.594  +00
 4.540  -01 4.687  +00
 4.545  -01 4.521  +00
 4.550  -01 4.412  +00
 4.555  -01 5.022  +00
 4.560  -01 4.336  +00
 4.565  -01 4.107  +00
 4.570  -01 5.044  +00
 4.575  -01 4.388  +00
 4.580  -01 4.354  +00
 4.585  -01 3.321  +00
 4.590  -01 2.757  +00
 4.595  -01 1.596  +00
 4.600  -01 1.902  +00
 4.605  -01 2.011  +00
 4.610  -01 3.292  +00
 4.615  -01 3.005  +00
 4.620  -01 3.023  +00
 4.625  -01 4.711  +00
 4.630  -01 5.094  +00
 4.635  -01 5.446  +00
 4.640  -01 4.998  +00
 4.645  -01 5.792  +00
 4.650  -01 5.754  +00
 4.655  -01 5.372  +00
 4.660  -01 5.290  +00
 4.665  -01 5.756  +00
 4.670  -01 6.137  +00
 4.675  -01 7.209  +00
 4.680  -01 5.605  +00
 4.685  -01 5.150  +00
 4.690  -01 4.755  +00
 4.695  -01 1.706  +00
 4.700  -01 1.762  +00
 4.705  -01 5.428  +00
 4.710  -01 6.260  +00
 4.715  -01 7.147  +00
 4.720  -01 5.679  +00
 4.725  -01 4.563  +00
 4.730  -01 5.597  +00
 4.735  -01 4.771  +00
 4.740  -01 5.053  +00
 4.745  -01 4.181  +00
 4.750  -01 4.862  +00
 4.755  -01 4.894  +00
 4.760  -01 5.154  +00
 4.765  -01 3.918  +00
 4.770  -01 4.768  +00
 4.775  -01 5.740  +00
 4.780  -01 4.981  +00
 4.785  -01 5.708  +00
 4.790  -01 5.983  +00
 4.795  -01 6.372  +00
 4.800  -01 5.956  +00
 4.805  -01 6.161  +00
 4.810  -01 5.884  +00
 4.815  -01 4.431  +00
 4.820  -01 4.340  +00
 4.825  -01 4.350  +00
 4.830  -01 4.534  +00
 4.835  -01 3.724  +00
 4.840  -01 4.126  +00
 4.845  -01 4.701  +00
 4.850  -01 4.125  +00
 4.855  -01 5.257  +00
 4.860  -01 4.745  +00
 4.865  -01 3.669  +00
 4.870  -01 5.380  +00
 4.875  -01 4.833  +00
 4.880  -01 4.223  +00
 4.885  -01 3.104  +00
 4.890  -01 4.048  +00
 4.895  -01 3.243  +00
 4.900  -01 2.901  +00
 4.905  -01 3.738  +00
 4.910  -01 3.072  +00
 4.915  -01 2.907  +00
 4.920  -01 3.414  +00
 4.925  -01 1.661  +00
 4.930  -01 2.738  +00
 4.935  -01 2.036  +00
 4.940  -01 3.264  +00
 4.945  -01 3.812  +00
 4.950  -01 4.000  +00
 4.955  -01 4.094  +00
 4.960  -01 3.601  +00
 4.965  -01 4.778  +00
 4.970  -01 5.433  +00
 4.975  -01 5.150  +00
 4.980  -01 4.723  +00
 4.985  -01 5.077  +00
 4.990  -01 5.122  +00
 4.995  -01 4.795  +00
 5.000  -01 4.392  +00
 5.005  -01 5.823  +00
 5.010  -01 5.874  +00
 5.015  -01 4.386  +00
 5.020  -01 2.695  +00
 5.025  -01 3.964  +00
 5.030  -01 4.565  +00
 5.035  -01 4.537  +00
 5.040  -01 4.079  +00
 5.045  -01 4.279  +00
 5.050  -01 3.693  +00
 5.055  -01 4.015  +00
 5.060  -01 4.764  +00
 5.065  -01 4.580  +00
 5.070  -01 6.170  +00
 5.075  -01 4.046  +00
 5.080  -01 3.398  +00
 5.085  -01 4.265  +00
 5.090  -01 2.705  +00
 5.095  -01 4.127  +00
 5.100  -01 4.537  +00
 5.105  -01 4.239  +00
 5.110  -01 2.234  +00
 5.115  -01 3.916  +00
 5.120  -01 3.600  +00
 5.125  -01 3.428  +00
 5.130  -01 2.572  +00
 5.135  -01 1.729  +00
 5.140  -01 1.470  +00
 5.145  -01 3.346  +00
 5.150  -01 6.927  +00
 5.155  -01 8.529  +00
 5.160  -01 5.635  +00
 5.165  -01 5.473  +00
 5.170  -01 5.350  +00
 5.175  -01 3.586  +00
 5.180  -01 3.220  +00
 5.185  -01 2.556  +00
 5.190  -01 3.798  +00
 5.195  -01 3.450  +00
 5.200  -01 4.549  +00
 5.205  -01 5.219  +00
 5.210  -01 3.474  +00
 5.215  -01 4.064  +00
 5.220  -01 4.141  +00
 5.225  -01 4.654  +00
 5.230  -01 5.512  +00
ENDDATA           1126
ENDSUBENT         1132
ENDENTRY             2
