ENTRY            22115   20170128   20170403   20170325       2257
SUBENT        22115001   20170128   20170403   20170325       2257
BIB                 12         54
REFERENCE  (C,88MITO,,127,1988)
TITLE       Shape of the 238-U neutron capture cross section in
            the range 0.002 - 0.1 eV
AUTHOR     (F.Corvi,G.Fioni)
INSTITUTE  (2ZZZGEL)
FACILITY   (LINAC,2ZZZGEL) The Geel Linac, operated to produce
            100 MeV electrons with a current of 0.2 a and a width
            bursts of  2.2 micro-s at a repetition rate of
            40 Hz, was used for the measurements.
INC-SOURCE (PHOTO) The neutrons from the rotary U target was mode-
            rated using a liquid methane moderator, contained in a
            cryostat and cooled to a temperature of 110 K. The
            cryostat consisted of two interconnected boxes of the
            size 13 x 8.5 x 7.5 cm having two vacuum isolated
            stainless steel walls of thickness 0.15 cm each. This
            cold moderator resulted in an increase of about a fac-
            tor 5 in the production of neutrons below 20 milli-eV.
            The neutron beam was collimated to 5 cm diameter by
            borated wax and lead collimators.
METHOD     (TOF) Time-of-flight techniques with a flight path of
            8.68 m was used to determine the neutron energies. The
            neutron flux was determined by replacing the sample
            with a sintered B4C disk of 0.06 cm thickness and 8 cm
            diameter enriched to 93% in 10-B. The 478 keV gamma-
            rays were detected with the same C6D6 scintillators.
DETECTOR   (SCIN) The samples were viewed by four C6D6 liquid
            scintillators of 10.2 cm diameter and 7.6 cm height,
            housed in a large shielding with walls made of 14 cm
            thick lead and 25 cm thick borated wax. The samples
            were also surrounded by a 0.6 cm thick 6-Li sleeve.
           (IOCH) The constancy of the neutron flux was checked
            by a double gridded ionization chamber placed in the
            beam before the shielding and loaded with back-to-back
            deposits of 10-B of 5 micro-g/cm2 thickness.
MONITOR    (92-U-238(N,G)92-U-239,,SIG,,RTE/AV) The measured data
            have been normalized in the range 36 - 90 milli-eV to
            the average value given, which corresponds to a termal
            capture cross section of 2.71b in the absence of a
            nearby negative energy resonance.
CORRECTION .The data were corrected for time dependent and time
            independent background, the latter being associated
            with the 238-U samples. It was measured at time-of-
            flights corresponding to the energy interval 0.65 -
            0.78 milli-eV, where the neutron flux is negligible.
            The oxide sample data were also corrected for multiple
            scattering.
ERR-ANALYS (DATA-ERR) The errors given were obtained by combining
            quadratically the statistical errors and the systema-
            tic uncertainties:
HISTORY    (19891101C) N.O.
           (20170128A) SD:Updated to new date formats,lower case.
           In Subent 22115.002: Data set was separated to two
           according to N.Otsuka remark, CRITIQUE from
           P.Schillebeeckx was added.
ENDBIB              54
COMMON               3          3
EN-NRM-MIN EN-NRM-MAX MONIT
MILLI-EV   MILLI-EV   B*RT-EV
   36.       90.       0.431
ENDCOMMON            3
ENDSUBENT           61
SUBENT        22115002   20170128   20170403   20170325       2257
BIB                  5         23
REACTION  1(92-U-238(N,G)92-U-239,,SIG,,RTE) Metal sample
          2(92-U-238(N,G)92-U-239,,SIG,,RTE) Oxide sample
SAMPLE     .Two samples were used.
          1 A uranium metal sample, consisting of a thin plate of
            highly depleted /99.999%/ uranium metal of size
            6 x 6 cm and weight 13.8 g, which is equivalent to
            0.968E-03 atoms/barn.
          2 A uranium oxide sample, consisting of 59.8 g U3O8
            canned in a thin wall aluminium container of 8 cm dia-
            meter. This sample was also depleted to 99.999 %
            and had a thickness of 2.56E-03 atoms/barn. Both the
            samples had a chemical purity of about 99.9%.
            A graphite scatterer and an empty aluminium can was
            used to determine the time dependent background for
            the two samples, respectively.
CRITIQUE   P.Schillebeeckx (2017-01-16) : The values for the
           oxide sample are ~0.42 b*sqrt(eV) at 0.027311 eV and
                            ~0.41 b*sqrt(eV) at 0.0070652 eV
           in Fig.2 of C,88MITO,,127,1988
STATUS     (TABLE) Data obtained from F. Corvi 1989-01-19.
HISTORY    (20170128A) SD: Data set was separated to two according
           to N.Otsuka remark, critique from P.Schillebeeckx
           was added. FLAG was deleted.
ENDBIB              23
NOCOMMON             0          0
DATA                 5         72
EN         DATA      1DATA-ERR  1DATA      2DATA-ERR  2
EV         B*RT-EV    B*RT-EV    B*RT-EV    B*RT-EV
 2.0235E-03 4.1343E-01 1.4767E-01 4.0701E-01 9.2986E-02
 2.1017E-03 4.2262E-01 1.3419E-01 3.7589E-01 8.2025E-02
 2.1845E-03 3.9708E-01 1.2138E-01 3.8863E-01 7.5135E-02
 2.2724E-03 3.7602E-01 1.1016E-01 3.9918E-01 6.8729E-02
 2.3656E-03 3.7322E-01 9.9853E-02 3.8841E-01 6.2916E-02
 2.4647E-03 3.8996E-01 8.9936E-02 3.8307E-01 5.6261E-02
 2.5705E-03 4.2110E-01 8.1473E-02 4.0105E-01 5.1893E-02
 2.6825E-03 4.2074E-01 7.3362E-02 4.0262E-01 4.7521E-02
 2.8024E-03 3.9502E-01 6.7025E-02 4.0106E-01 4.3402E-02
 2.9305E-03 4.2436E-01 6.0643E-02 3.8267E-01 3.8741E-02
 3.0677E-03 4.3140E-01 5.4631E-02 4.0999E-01 3.6618E-02
 3.2146E-03 3.9821E-01 4.9564E-02 3.9477E-01 3.2940E-02
 3.3724E-03 4.1387E-01 4.4440E-02 3.9955E-01 3.0381E-02
 3.5421E-03 4.2102E-01 4.0309E-02 4.0101E-01 2.7728E-02
 3.7250E-03 4.2188E-01 3.5807E-02 4.0101E-01 2.5863E-02
 3.9224E-03 4.2601E-01 3.2299E-02 3.9740E-01 2.3657E-02
 4.1358E-03 4.2793E-01 2.9118E-02 4.0053E-01 2.2334E-02
 4.3673E-03 4.2031E-01 2.6416E-02 4.0424E-01 2.1092E-02
 4.6186E-03 4.1551E-01 2.4246E-02 3.9836E-01 1.9926E-02
 4.8924E-03 4.1888E-01 2.3400E-02 4.0208E-01 1.9170E-02
 5.1132E-03 4.0628E-01 2.4554E-02 3.8716E-01 1.9564E-02
 5.2693E-03 4.1845E-01 2.3236E-02 4.0000E-01 1.9446E-02
 5.4327E-03 4.2414E-01 2.2650E-02 3.9890E-01 1.8787E-02
 5.6039E-03 4.2982E-01 2.1458E-02 4.0687E-01 1.8321E-02
 5.7832E-03 4.3391E-01 2.0593E-02 4.0567E-01 1.7978E-02
 5.9714E-03 4.4411E-01 1.9965E-02 3.9828E-01 1.7252E-02
 6.1688E-03 4.4931E-01 1.9209E-02 4.0460E-01 1.6921E-02
 6.3762E-03 4.5404E-01 1.8127E-02 4.0721E-01 1.6763E-02
 6.5942E-03 4.4869E-01 1.7346E-02 4.1171E-01 1.6467E-02
 6.8236E-03 4.3612E-01 1.6398E-02 4.0286E-01 1.5735E-02
 7.0652E-03 4.3559E-01 1.5673E-02 4.5384E-01 1.5334E-02
 7.3199E-03 4.3639E-01 1.4799E-02 4.0962E-01 1.5064E-02
 7.5886E-03 4.3152E-01 1.4213E-02 4.0835E-01 1.4767E-02
 7.8723E-03 4.3368E-01 1.3387E-02 4.1539E-01 1.4440E-02
 8.1723E-03 4.2242E-01 1.2471E-02 4.1904E-01 1.4212E-02
 8.4897E-03 4.2075E-01 1.1908E-02 4.1686E-01 1.3876E-02
 8.8260E-03 4.1965E-01 1.1250E-02 4.1779E-01 1.3689E-02
 9.1827E-03 4.2301E-01 1.0557E-02 4.2478E-01 1.3607E-02
 9.5615E-03 4.2386E-01 1.0044E-02 4.1806E-01 1.3239E-02
 9.9641E-03 4.2269E-01 9.3746E-03 4.2306E-01 1.3113E-02
 1.0393E-02 4.2173E-01 8.9826E-03 4.2509E-01 1.2992E-02
 1.0850E-02 4.2405E-01 8.4634E-03 4.2252E-01 1.2817E-02
 1.1337E-02 4.2563E-01 8.1808E-03 4.2448E-01 1.2713E-02
 1.1859E-02 4.2687E-01 7.9268E-03 4.2166E-01 1.2576E-02
 1.2417E-02 4.2230E-01 7.8209E-03 4.2192E-01 1.2479E-02
 1.3016E-02 4.2368E-01 7.5969E-03 4.2257E-01 1.2446E-02
 1.3659E-02 4.1967E-01 7.1755E-03 4.2182E-01 1.2358E-02
 1.4350E-02 4.2152E-01 6.8010E-03 4.2122E-01 1.2212E-02
 1.5096E-02 4.1972E-01 6.4811E-03 4.2445E-01 1.2196E-02
 1.5901E-02 4.2489E-01 6.3722E-03 4.2345E-01 1.2131E-02
 1.6773E-02 4.2255E-01 6.2466E-03 4.2184E-01 1.2093E-02
 1.7718E-02 4.2628E-01 6.1496E-03 4.2085E-01 1.2083E-02
 1.8746E-02 4.2545E-01 6.1550E-03 4.1959E-01 1.1994E-02
 1.9865E-02 4.2806E-01 5.9872E-03 4.1720E-01 1.1929E-02
 2.1088E-02 4.2494E-01 5.9404E-03 4.1979E-01 1.1956E-02
 2.2428E-02 4.2071E-01 5.8777E-03 4.1865E-01 1.1965E-02
 2.3900E-02 4.2684E-01 5.8925E-03 4.1868E-01 1.1989E-02
 2.5520E-02 4.2035E-01 5.9736E-03 4.1807E-01 1.1991E-02
 2.7311E-02 4.2504E-01 6.0421E-03 5.1765E-01 1.2027E-02
 2.9299E-02 4.2084E-01 6.3160E-03 4.2080E-01 1.2115E-02
 3.1511E-02 4.2238E-01 6.5084E-03 4.2243E-01 1.2289E-02
 3.3983E-02 4.2422E-01 6.7627E-03 4.2156E-01 1.2267E-02
 3.6759E-02 4.2107E-01 7.0969E-03 4.2183E-01 1.2464E-02
 3.9889E-02 4.2926E-01 7.6136E-03 4.2887E-01 1.2675E-02
 4.3436E-02 4.3610E-01 8.1807E-03 4.3055E-01 1.2954E-02
 4.7479E-02 4.3074E-01 9.1249E-03 4.2938E-01 1.3205E-02
 5.2114E-02 4.2988E-01 1.0126E-02 4.2788E-01 1.3615E-02
 5.7462E-02 4.3422E-01 1.1458E-02 4.2412E-01 1.3916E-02
 6.3678E-02 4.2814E-01 1.2706E-02 4.3472E-01 1.4634E-02
 7.0960E-02 4.2588E-01 1.3861E-02 4.3706E-01 1.5069E-02
 7.9567E-02 4.3839E-01 1.4616E-02 4.3588E-01 1.5471E-02
 8.9842E-02 4.3750E-01 1.5069E-02 4.4643E-01 1.5847E-02
ENDDATA             74
ENDSUBENT          102
ENDENTRY             2
