ENTRY            22115     891211
SUBENT        22115001     891211
BIB                 14         65
REFERENCE  (C,88MITO,,127,88)
TITLE      -SHAPE OF THE 238-U NEUTRON CAPTURE CROSS SECTION IN
            THE RANGE 0.002 - 0.1 EV.
AUTHOR     (F.CORVI,G.FIONI)
INSTITUTE  (2ZZZGEL)
FACILITY   (LINAC) THE GEEL LINAC, OPERATED TO PRODUCE BURSTS OF
            100 MEV ELECTRONS WITH A CURRENT OF 0.2 A AND A WIDTH
            OF 2.2 MICRO-S AT A REPETITION RATE OF 40 HZ, WAS USED
            FOR THE MEASUREMENTS.
INC-SOURCE (PHOTO) THE NEUTRONS FROM THE ROTARY U TARGET WAS MODE-
            RATED USING A LIQUID METHANE MODERATOR, CONTAINED IN A
            CRYOSTAT AND COOLED TO A TEMPERATURE OF 110 K. THE
            CRYOSTAT CONSISTED OF TWO INTERCONNECTED BOXES OF THE
            SIZE 13 X 8.5 X 7.5 CM HAVING TWO VACUUM ISOLATED
            STAINLESS STEEL WALLS OF THICKNESS 0.15 CM EACH. THIS
            COLD MODERATOR RESULTED IN AN INCREASE OF ABOUT A FAC-
            TOR 5 IN THE PRODUCTION OF NEUTRONS BELOW 20 MILLI-EV.
            THE NEUTRON BEAM WAS COLLIMATED TO 5 CM DIAMETER BY
            BORATED WAX AND LEAD COLLIMATORS.
METHOD     (TOF  ) TIME-OF-FLIGHT TECHNIQUES WITH A FLIGHT PATH OF
            8.68 M WAS USED TO DETERMINE THE NEUTRON ENERGIES. THE
            NEUTRON FLUX WAS DETERMINED BY REPLACING THE SAMPLE
            WITH A SINTERED B4C DISK OF 0.06 CM THICKNESS AND 8 CM
            DIAMETER ENRICHED TO 93 PERCENT IN 10-B. THE 478 KEV
            GAMMA-RAYS WERE DETECTED WITH THE SAME C6D6 SCINTILLA-
            TORS.
DETECTOR   (SCIN ) THE SAMPLES WERE VIEWED BY FOUR C6D6 LIQUID
            SCINTILLATORS OF 10.2 CM DIAMETER AND 7.6 CM HEIGHT,
            HOUSED IN A LARGE SHIELDING WITH WALLS MADE OF 14 CM
            THICK LEAD AND 25 CM THICK BORATED WAX. THE SAMPLES
            WERE ALSO SURROUNDED BY A 0.6 CM THICK 6-LI SLEEVE.
           (IOCH ) THE CONSTANCY OF THE NEUTRON FLUX WAS CHECKED
            BY A DOUBLE GRIDDED IONAZATION CHAMBER PLACED IN THE
            BEAM BEFORE THE SHIELDING AND LOADED WITH BACK-TO-BACK
            DEPOSITS OF 10-B OF 5 MICRO-G/CM2 THICKNESS.
MONITOR    (92-U-238(N,G)92-U-239,,SIG,,RTE/AV) THE MEASURED DATA
            HAVE BEEN NORMALIZED IN THE RANGE 36 - 90 MILLI-EV TO
            THE AVERAGE VALUE GIVEN, WHICH CORRESPONDS TO A TERMAL
            CAPTURE CROSS SECTION OF 2.71 B IN THE ABSENCE OF A
            NEARBY NEGATIVE ENERGY RESONANCE.
SAMPLE     .TWO SAMPLES WERE USED. /1./ A URANIUM METAL SAMPLE,
            CONSISTING OF A THIN PLATE OF HIGHLY DEPLETED /99.999
            PERCENT/ URANIUM METAL OF SIZE 6 X 6 CM AND WEIGHT
            13.8 G, WHICH IS EQIVALENT TO 0.968E-03 ATOMS/BARN.
            /2./ A URANIUM OXIDE SAMPLE, CONSISTING OF 59.8 G U3O8
            CANNED IN A THIN WALL ALUMINIUM CONTAINER OF 8 CM DIA-
            METER. THIS SAMPLE WAS ALSO DEPLETED TO 99.999 PERCENT
            AND HAD A THICKNESS OF 2.56E-03 ATOMS/BARN. BOTH THE
            SAMPLES HAD A CHEMICAL PURITY OF ABOUT 99.9 PERCENT.
            A GRAPHITE SCATTERER AND AN EMPTY ALUMINIUM CAN WAS
            USED TO DETERMINE THE TIME DEPENDENT BACKGROUND FOR
            THE TWO SAMPLES, RESPECTIVELY.
CORRECTION .THE DATA WERE CORRECTED FOR TIME DEPENDENT AND TIME
            INDEPENDENT BACKGROUND, THE LATTER BEING ASSOCIATED
            WITH THE 238-U SAMPLES. IT WAS MEASURED AT TIME-OF-
            FLIGHTS CORRESPONDING TO THE ENERGY INTERVAL 0.65 -
            0.78 MILLI-EV, WHERE THE NEUTRON FLUX IS NEGLIGIBLE.
            THE OXIDE SAMPLE DATA WERE ALSO CORRECTED FOR MULTIPLE
            SCATTERING.
ERR-ANALYS (DATA-ERR) THE ERRORS GIVEN WERE OBTAINED BY COMBINING
            QUADRATICALLY THE STATISTICAL ERRORS AND THE SYSTEMA-
            TIC UNCERTAINTIES.
STATUS     .DATA TAKEN FROM MAIN REF.
HISTORY    (891101C) N.O.
           (891211E)
ENDBIB              65
COMMON               3          3
EN-NRM-MIN EN-NRM-MAX MONIT
MILLI-EV   MILLI-EV   B*RT-EV
 3.6000E+01 9.0000E+01 4.3100E-01
ENDCOMMON            3
ENDSUBENT           72
SUBENT        22115002     891211
BIB                  4          6
REACTION   (92-U-238(N,G)92-U-239,,SIG,,RTE)
FLAG       (1.) METAL SAMPLE.
           (2.) OXIDE SAMPLE.
STATUS     .DATA OBTAINED FROM F. CORVI 89-01-19.
HISTORY    (891101C) N.O.
           (891211E)
ENDBIB               6
NOCOMMON             0          0
DATA                 4        144
EN         DATA       DATA-ERR   FLAG
EV         B*RT-EV    B*RT-EV    NO-DIM
 2.0235E-03 4.1343E-01 1.4767E-01 1.0000E+00
 2.0235E-03 4.0701E-01 9.2986E-02 2.0000E+00
 2.1017E-03 4.2262E-01 1.3419E-01 1.0000E+00
 2.1017E-03 3.7589E-01 8.2025E-02 2.0000E+00
 2.1845E-03 3.9708E-01 1.2138E-01 1.0000E+00
 2.1845E-03 3.8863E-01 7.5135E-02 2.0000E+00
 2.2724E-03 3.7602E-01 1.1016E-01 1.0000E+00
 2.2724E-03 3.9918E-01 6.8729E-02 2.0000E+00
 2.3656E-03 3.7322E-01 9.9853E-02 1.0000E+00
 2.3656E-03 3.8841E-01 6.2916E-02 2.0000E+00
 2.4647E-03 3.8996E-01 8.9936E-02 1.0000E+00
 2.4647E-03 3.8307E-01 5.6261E-02 2.0000E+00
 2.5705E-03 4.2110E-01 8.1473E-02 1.0000E+00
 2.5705E-03 4.0105E-01 5.1893E-02 2.0000E+00
 2.6825E-03 4.2074E-01 7.3362E-02 1.0000E+00
 2.6825E-03 4.0262E-01 4.7521E-02 2.0000E+00
 2.8024E-03 3.9502E-01 6.7025E-02 1.0000E+00
 2.8024E-03 4.0106E-01 4.3402E-02 2.0000E+00
 2.9305E-03 4.2436E-01 6.0643E-02 1.0000E+00
 2.9305E-03 3.8267E-01 3.8741E-02 2.0000E+00
 3.0677E-03 4.3140E-01 5.4631E-02 1.0000E+00
 3.0677E-03 4.0999E-01 3.6618E-02 2.0000E+00
 3.2146E-03 3.9821E-01 4.9564E-02 1.0000E+00
 3.2146E-03 3.9477E-01 3.2940E-02 2.0000E+00
 3.3724E-03 4.1387E-01 4.4440E-02 1.0000E+00
 3.3724E-03 3.9955E-01 3.0381E-02 2.0000E+00
 3.5421E-03 4.2102E-01 4.0309E-02 1.0000E+00
 3.5421E-03 4.0101E-01 2.7728E-02 2.0000E+00
 3.7250E-03 4.2188E-01 3.5807E-02 1.0000E+00
 3.7250E-03 4.0101E-01 2.5863E-02 2.0000E+00
 3.9224E-03 4.2601E-01 3.2299E-02 1.0000E+00
 3.9224E-03 3.9740E-01 2.3657E-02 2.0000E+00
 4.1358E-03 4.2793E-01 2.9118E-02 1.0000E+00
 4.1358E-03 4.0053E-01 2.2334E-02 2.0000E+00
 4.3673E-03 4.2031E-01 2.6416E-02 1.0000E+00
 4.3673E-03 4.0424E-01 2.1092E-02 2.0000E+00
 4.6186E-03 4.1551E-01 2.4246E-02 1.0000E+00
 4.6186E-03 3.9836E-01 1.9926E-02 2.0000E+00
 4.8924E-03 4.1888E-01 2.3400E-02 1.0000E+00
 4.8924E-03 4.0208E-01 1.9170E-02 2.0000E+00
 5.1132E-03 4.0628E-01 2.4554E-02 1.0000E+00
 5.1132E-03 3.8716E-01 1.9564E-02 2.0000E+00
 5.2693E-03 4.1845E-01 2.3236E-02 1.0000E+00
 5.2693E-03 4.0000E-01 1.9446E-02 2.0000E+00
 5.4327E-03 4.2414E-01 2.2650E-02 1.0000E+00
 5.4327E-03 3.9890E-01 1.8787E-02 2.0000E+00
 5.6039E-03 4.2982E-01 2.1458E-02 1.0000E+00
 5.6039E-03 4.0687E-01 1.8321E-02 2.0000E+00
 5.7832E-03 4.3391E-01 2.0593E-02 1.0000E+00
 5.7832E-03 4.0567E-01 1.7978E-02 2.0000E+00
 5.9714E-03 4.4411E-01 1.9965E-02 1.0000E+00
 5.9714E-03 3.9828E-01 1.7252E-02 2.0000E+00
 6.1688E-03 4.4931E-01 1.9209E-02 1.0000E+00
 6.1688E-03 4.0460E-01 1.6921E-02 2.0000E+00
 6.3762E-03 4.5404E-01 1.8127E-02 1.0000E+00
 6.3762E-03 4.0721E-01 1.6763E-02 2.0000E+00
 6.5942E-03 4.4869E-01 1.7346E-02 1.0000E+00
 6.5942E-03 4.1171E-01 1.6467E-02 2.0000E+00
 6.8236E-03 4.3612E-01 1.6398E-02 1.0000E+00
 6.8236E-03 4.0286E-01 1.5735E-02 2.0000E+00
 7.0652E-03 4.3559E-01 1.5673E-02 1.0000E+00
 7.0652E-03 4.5384E-01 1.5334E-02 2.0000E+00
 7.3199E-03 4.3639E-01 1.4799E-02 1.0000E+00
 7.3199E-03 4.0962E-01 1.5064E-02 2.0000E+00
 7.5886E-03 4.3152E-01 1.4213E-02 1.0000E+00
 7.5886E-03 4.0835E-01 1.4767E-02 2.0000E+00
 7.8723E-03 4.3368E-01 1.3387E-02 1.0000E+00
 7.8723E-03 4.1539E-01 1.4440E-02 2.0000E+00
 8.1723E-03 4.2242E-01 1.2471E-02 1.0000E+00
 8.1723E-03 4.1904E-01 1.4212E-02 2.0000E+00
 8.4897E-03 4.2075E-01 1.1908E-02 1.0000E+00
 8.4897E-03 4.1686E-01 1.3876E-02 2.0000E+00
 8.8260E-03 4.1965E-01 1.1250E-02 1.0000E+00
 8.8260E-03 4.1779E-01 1.3689E-02 2.0000E+00
 9.1827E-03 4.2301E-01 1.0557E-02 1.0000E+00
 9.1827E-03 4.2478E-01 1.3607E-02 2.0000E+00
 9.5615E-03 4.2386E-01 1.0044E-02 1.0000E+00
 9.5615E-03 4.1806E-01 1.3239E-02 2.0000E+00
 9.9641E-03 4.2269E-01 9.3746E-03 1.0000E+00
 9.9641E-03 4.2306E-01 1.3113E-02 2.0000E+00
 1.0393E-02 4.2173E-01 8.9826E-03 1.0000E+00
 1.0393E-02 4.2509E-01 1.2992E-02 2.0000E+00
 1.0850E-02 4.2405E-01 8.4634E-03 1.0000E+00
 1.0850E-02 4.2252E-01 1.2817E-02 2.0000E+00
 1.1337E-02 4.2563E-01 8.1808E-03 1.0000E+00
 1.1337E-02 4.2448E-01 1.2713E-02 2.0000E+00
 1.1859E-02 4.2687E-01 7.9268E-03 1.0000E+00
 1.1859E-02 4.2166E-01 1.2576E-02 2.0000E+00
 1.2417E-02 4.2230E-01 7.8209E-03 1.0000E+00
 1.2417E-02 4.2192E-01 1.2479E-02 2.0000E+00
 1.3016E-02 4.2368E-01 7.5969E-03 1.0000E+00
 1.3016E-02 4.2257E-01 1.2446E-02 2.0000E+00
 1.3659E-02 4.1967E-01 7.1755E-03 1.0000E+00
 1.3659E-02 4.2182E-01 1.2358E-02 2.0000E+00
 1.4350E-02 4.2152E-01 6.8010E-03 1.0000E+00
 1.4350E-02 4.2122E-01 1.2212E-02 2.0000E+00
 1.5096E-02 4.1972E-01 6.4811E-03 1.0000E+00
 1.5096E-02 4.2445E-01 1.2196E-02 2.0000E+00
 1.5901E-02 4.2489E-01 6.3722E-03 1.0000E+00
 1.5901E-02 4.2345E-01 1.2131E-02 2.0000E+00
 1.6773E-02 4.2255E-01 6.2466E-03 1.0000E+00
 1.6773E-02 4.2184E-01 1.2093E-02 2.0000E+00
 1.7718E-02 4.2628E-01 6.1496E-03 1.0000E+00
 1.7718E-02 4.2085E-01 1.2083E-02 2.0000E+00
 1.8746E-02 4.2545E-01 6.1550E-03 1.0000E+00
 1.8746E-02 4.1959E-01 1.1994E-02 2.0000E+00
 1.9865E-02 4.2806E-01 5.9872E-03 1.0000E+00
 1.9865E-02 4.1720E-01 1.1929E-02 2.0000E+00
 2.1088E-02 4.2494E-01 5.9404E-03 1.0000E+00
 2.1088E-02 4.1979E-01 1.1956E-02 2.0000E+00
 2.2428E-02 4.2071E-01 5.8777E-03 1.0000E+00
 2.2428E-02 4.1865E-01 1.1965E-02 2.0000E+00
 2.3900E-02 4.2684E-01 5.8925E-03 1.0000E+00
 2.3900E-02 4.1868E-01 1.1989E-02 2.0000E+00
 2.5520E-02 4.2035E-01 5.9736E-03 1.0000E+00
 2.5520E-02 4.1807E-01 1.1991E-02 2.0000E+00
 2.7311E-02 4.2504E-01 6.0421E-03 1.0000E+00
 2.7311E-02 5.1765E-01 1.2027E-02 2.0000E+00
 2.9299E-02 4.2084E-01 6.3160E-03 1.0000E+00
 2.9299E-02 4.2080E-01 1.2115E-02 2.0000E+00
 3.1511E-02 4.2238E-01 6.5084E-03 1.0000E+00
 3.1511E-02 4.2243E-01 1.2289E-02 2.0000E+00
 3.3983E-02 4.2422E-01 6.7627E-03 1.0000E+00
 3.3983E-02 4.2156E-01 1.2267E-02 2.0000E+00
 3.6759E-02 4.2107E-01 7.0969E-03 1.0000E+00
 3.6759E-02 4.2183E-01 1.2464E-02 2.0000E+00
 3.9889E-02 4.2926E-01 7.6136E-03 1.0000E+00
 3.9889E-02 4.2887E-01 1.2675E-02 2.0000E+00
 4.3436E-02 4.3610E-01 8.1807E-03 1.0000E+00
 4.3436E-02 4.3055E-01 1.2954E-02 2.0000E+00
 4.7479E-02 4.3074E-01 9.1249E-03 1.0000E+00
 4.7479E-02 4.2938E-01 1.3205E-02 2.0000E+00
 5.2114E-02 4.2988E-01 1.0126E-02 1.0000E+00
 5.2114E-02 4.2788E-01 1.3615E-02 2.0000E+00
 5.7462E-02 4.3422E-01 1.1458E-02 1.0000E+00
 5.7462E-02 4.2412E-01 1.3916E-02 2.0000E+00
 6.3678E-02 4.2814E-01 1.2706E-02 1.0000E+00
 6.3678E-02 4.3472E-01 1.4634E-02 2.0000E+00
 7.0960E-02 4.2588E-01 1.3861E-02 1.0000E+00
 7.0960E-02 4.3706E-01 1.5069E-02 2.0000E+00
 7.9567E-02 4.3839E-01 1.4616E-02 1.0000E+00
 7.9567E-02 4.3588E-01 1.5471E-02 2.0000E+00
 8.9842E-02 4.3750E-01 1.5069E-02 1.0000E+00
 8.9842E-02 4.4643E-01 1.5847E-02 2.0000E+00
ENDDATA            146
ENDSUBENT          157
ENDENTRY             2
