ENTRY            22149   19910125              20050926       0000
SUBENT        22149001   19910125              20050926       0000
BIB                 13         45
REFERENCE  (J,NP/A,494,36,8903)
TITLE      -LOW-LYING 130-I EXCITED STATES FROM THE (N,G) REACTION
AUTHOR     (S.L.SAKHAROV,I.A.KONDUROV,YU.E.LOGINOV,V.V.MARTYNOV,
            A.A.RODIONOV,P.A.SUSHKOV,YU.L.KHAZOV,A.I.EGOROV,
            V.K.ISUPOV,H.G.BOERNER,F.HOYLER,S.KERR,
            K.SCHRECKENBACH,G.HLAWATSCH,T.VON EGIDY,H.LINDNER)
INSTITUTE  (4CCPLIN) S.L.S., I.A.K., YU.E.L., V.V.M., A.A.R.,
                     P.A.S., YU.L.K., A.I.E., V.K.I.
           (2FR ILL) H.G.B., F.H., S.K., K.S. AND EXPERIMENTAL
                     SITE FOR (N,G) GAMMA SPECTRUM MEASUREMENTS
           (2GERMUN) G.H., T.VON E., H.L.
FACILITY   (REAC,2FR ILL) GRENOBLE HIGH-FLUX REACTOR.
INC-SOURCE (REAC ) FLUX 5.5E14 N/CM-SQ/SEC.
INC-SPECT  .THERMAL REACTOR SPECTRUM.
SAMPLE     .49 MG 90% ENRICHED IN 129-I, PREPARED FROM KI.
METHOD     (GSPEC) MEASUREMENT OF PROMPT GAMMAS FROM THERMAL
            CAPTURE.
DETECTOR   .GAMS1,2,3 BENT CRYSTAL SPECTROMETERS FOR LOW ENERGY
            (15-1000 KEV) GAMMAS, ENERGY RESOLUTION:
               GAMS1     (DELTA-E)/E = 7E-6 E(KEV)/N
               GAMS2,3   (DELTA-E)/E = 7E-6 E(KEV)/N
                              N = REFLECTION ORDER
                              (DELTA-E) IS FWHM IN KEV
               MEASUREMENTS MADE WITH FIVE ORDERS OF REFLECTION
               SIMULTANEOUSLY.
            GAMS ENERGY CALIBRATION USING G-RAYS OF 40-K, 36-CL
            AND 128-I, AND GAMS INTENSITY CALIBRATION USING
            RELATIVE INTENSITIES OF G-TRANSITIONS OF 130-XE AND
            128-I.
           (BPAIR) HPGE PAIR SPECTROMETER FOR HIGH ENERGY (5.4-
            6.5 MEV) MEASUREMENTS, RESOLUTION 5 KEV AT 6 MEV.
            HPGE ENERGY AND INTENSITY CALIBRATION USING
            G-TRANSITIONS IN 28-AL, 36-CL AND 40-K.
           (GELI ) ALSO USED FOR LOW ENERGY GAMMAS 10-100 KEV.
ERR-ANALYS (DATA-ERR) ENERGY ERROR PRIMARILY FROM CALIBRATION.
            INTENSITY ERROR ABOUT 3% FOR STRONG LINES TO ABOUT
            30% FOR WEAK LINES.
            HPGE ENERGY ERROR AT 6.5MEV QUOTED AS 6 EV STATISTICAL
            AND 43 EV TOTAL INCLUDING ERROR OF CALIBRATION
            STANDARD.
STATUS     .TABLES 1 AND 2 IN MAIN REFERENCE.
HISTORY    (900530C) S.W.
           (900917E)
           (910125A) S.W. DATA POINT CORRECTED SUBENT 003
           (910205E)
ENDBIB              45
COMMON               1          3
EN-DUMMY
EV
 2.5300E-02
ENDCOMMON            3
ENDSUBENT           52
SUBENT        22149002   19900917              20050926       0000
BIB                  4         16
REACTION   (53-I-129(N,G)53-I-130,,SPC,,MXW) LOW ENERGY
            TRANSITIONS.
FLAG       (1.) ENERGY FROM GE(LI) DATA
           (2.) INTENSITY FROM GE(LI) DATA
           (3.) ENERGY CALCULATED FROM SPECTROMETER 'BILL'
                MEASUREMENTS, AND INTENSITY DEDUCED FROM BILL
                MEASUREMENTS ASSUMING M3 MULTIPOLARITY
           (4.) ENERGY CALCULATED FROM SPECTROMETER 'BILL'
                MEASUREMENTS, AND INTENSITY DEDUCED FROM BILL
                MEASUREMENTS ASSUMING E2 MULTIPOLARITY
           (5.) ENERGY CALCULATED FROM SPECTROMETER 'BILL'
                MEASUREMENTS, AND INTENSITY FROM GE(LI) DATA
           (6.) ABOUT 50% OF INTENSITY DUE TO 130-XE
STATUS     .TABLE 1 IN MAIN REFERENCE.
HISTORY    (900530C) S.W.
           (900917E)
ENDBIB              16
NOCOMMON             0          0
DATA                 7        182
E          E-ERR      DATA       DATA-ERR   E-LVL-INI  E-LVL-FIN
FLAG
KEV        KEV        GAM/100N   GAM/100N   KEV        KEV
NO-DIM
    19.312      0.012      0.069      0.007       111.0       91.7
1.
    39.9542     0.0021     0.0127     0.0010       39.9        0.0
3.
    41.4737     0.0009     1.45       0.16        111.0       69.5

    44.336      0.015      0.0071     0.0008       44.3        0.0
4.
    44.8818     0.0019     0.30       0.05         93.7       48.8

    47.8242     0.0006     2.59       0.23         91.7       43.9

    48.8325     0.0008     1.35       0.13         48.8        0.0

    49.389      0.004      0.132      0.013        93.7       44.3
2.
    50.931      0.006      0.090      0.012       296.0      245.1
5.
    53.7613     0.0014     0.53       0.06         93.7       39.9

    69.5862     0.0007    13.0        0.9          69.5        0.0

    76.923      0.003      0.157      0.018       125.7       48.8

    81.4331     0.0011     0.66       0.05        125.7       44.3

    83.005      0.015      0.047      0.006       761.5      678.4
2.
    85.1104     0.0010     5.8        0.4          85.1        0.0

    95.1902     0.0011     0.270      0.019       180.3       85.1

    97.9040     0.0012     0.63       0.04        180.3       82.3

   102.3585     0.0020     0.64       0.05        480.7      378.3

   105.195      0.011      0.045      0.011       699.2      593.9

   112.632      0.007      0.050      0.008       374.6      262.0

   116.009      0.012      0.035      0.003       209.7       93.7
5.
   125.759      0.003      2.37       0.12        125.7        0.0

   125.790      0.009      0.24       0.05        251.5      125.7

   129.189      0.007      0.039      0.07

   130.263      0.004      0.149      0.014       223.9       93.7

   132.215      0.003      0.124      0.010       223.9       91.7

   150.694      0.012      0.033      0.006       374.6      223.9

   151.422      0.007      0.035      0.005

   153.3396     0.0015     0.87       0.06        245.1       91.7

   157.832      0.005      0.254      0.019       251.5       93.7

   159.956      0.009      0.97       0.16

   159.9921     0.0012     4.4        0.3         245.1       85.1

   160.909      0.010      0.031      0.007       209.7       48.8

   164.938      0.004      0.262      0.024       374.6      209.7

   165.4124     0.0021     0.417      0.024       209.7       44.3

   166.486      0.003      0.389      0.023       209.7       43.2

   168.3370     0.0015     1.26       0.05        262.0       93.7

   169.7863     0.0015     2.42       0.12        209.7       39.9

   175.137      0.005      0.39       0.03        223.9       48.8

   175.515      0.007      0.272      0.015       245.1       69.5

   177.688      0.005      0.144      0.012

   179.643      0.003      0.373      0.017       223.9       44.3

   180.041      0.007      0.090      0.014       223.9       43.9

   180.738      0.016      0.029      0.006       223.9       43.2

   184.0249     0.0015     2.10       0.08        223.9       39.9

   184.673      0.012      0.40       0.13        480.7      296.0

   184.9756     0.0015     6.4        0.3         296.0      111.0

   186.090      0.005      0.288      0.13        437.6      251.5

   194.04       0.04       0.029      0.012       876.2      682.2

   196.171      0.023      0.033      0.009

   197.790      0.006      0.102      0.008       678.4      480.7

   201.531      0.003      0.340      0.013       682.4      480.7

   202.727      0.008      0.164      0.021       251.5       48.8

   202.790      0.014      0.159      0.023      1079.0      876.2

   204.284      0.004      0.253      0.009       296.0       91.7

   207.221      0.004      0.300      0.013       251.5       44.3

   211.598      0.003      1.33       0.04        251.5       39.9

   213.218      0.008      0.094      0.017       262.0       48.8

   213.769      0.008      0.134      0.011

   214.8422     0.0018     1.40       0.05        254.7       39.9

   215.641      0.006      0.114      0.017       593.9      378.3

   217.726      0.005      0.183      0.018       262.0       44.3

   218.138      0.008      0.101      0.009

   223.980      0.007      0.113      0.013       223.9        0.0

   227.882      0.010      0.078      0.008       437.6      209.7

   231.36       0.04       0.046      0.009

   231.76       0.04       0.049      0.011

   235.5986     0.0020     2.75       0.13        480.7      245.1

   236.73       0.04       0.071      0.010

   238.2950     0.0022     0.60       0.04        699.2      460.9

   240.82       0.04       0.032      0.007

   252.105      0.016      0.062      0.007       296.0       43.9

   256.724      0.016      0.069      0.006

   260.221      0.009      0.130      0.008

   262.039      0.012      0.203      0.011       262.0        0.0

   271.104      0.018      0.100      0.009       525.8      254.7

   274.328      0.008      0.121      0.010       525.8      251.5

   280.614      0.006      1.10       0.08        460.9      180.3

   280.835      0.016      0.161      0.017       761.5      480.7

   284.214      0.019      0.087      0.013

   286.588      0.003      1.90       0.11        378.3       91.7

   286.96       0.03       0.090      0.017

   293.242      0.005      0.50       0.05        378.3       85.1

   293.421      0.020      0.161      0.025       544.9      251.5

   306.350      0.006      0.26       0.04        349.5       43.2

   309.640      0.004      0.74       0.05        349.5       39.9

   309.794      0.003      5.03       0.14        353.7       43.9

   317.532      0.006      0.79       0.04       1079.0      761.5

   320.990      0.005      0.325      0.017       544.9      223.9

   322.248      0.007      0.180      0.017       783.1      460.9

   322.74       0.03       0.086      0.016

   323.33       0.06       0.070      0.012

   324.772      0.012      0.145      0.013       678.4      353.7

   325.850      0.005      0.70       0.03        374.6       48.8

   328.497      0.008      0.164      0.17        682.2      353.7

   330.356      0.004      0.508      0.025       374.6       44.3

   331.27       0.03       0.106      0.013

   334.73       0.05       0.074      0.012

   335.28       0.04       0.086      0.016       544.9      209.7

   366.810      0.06       0.390      0.019

   369.638      0.012      0.59       0.03        480.7      111.0

   374.64       0.04       0.086      0.013

   375.632      0.017      0.179      0.025

   382.446      0.006      0.68       0.04        678.4      296.0

   386.182      0.018      0.63       0.03        682.2      296.0

   388.932      0.014      0.152      0.017       480.7       91.7

   393.294      0.015      0.140      0.017       437.6       44.3

   394.382      0.014      0.163      0.025       437.6       43.2

   395.555      0.007      0.48       0.03        876.2      480.7

   397.695      0.008      0.33       0.04        437.6       39.9

   400.10       0.05       0.124      0.017       944.9      544.9

   414.680      0.012      0.51       0.04        768.4      353.7

   415.24       0.05       0.113      0.020

   416.47       0.03       0.089      0.016

   419.101      0.020      0.27       0.03

   424.16       0.04       0.140      0.017

   426.94       0.04       0.120      0.013

   433.392      0.017      0.93       0.04        678.4      245.1

   435.96       0.05       0.074      0.024

   436.760      0.011      0.33       0.03        480.7       43.9

   440.042      0.011      0.434      0.023

   446.676      0.021      0.364      0.024       825.0      378.3

   454.47       0.06       0.116      0.024       804.0      349.5

   459.463      0.014      0.28       0.03

   464.33       0.07       0.19       0.04        944.9      480.7

   465.476      0.010      1.91       0.09        761.5      296.0

   468.836      0.018      0.178      0.017

   480.791      0.012      0.27       0.05        606.5      125.7

   484.84       0.09       0.31       0.05

   485.926      0.016      0.40       0.04        525.8       39.9

   489.200      0.014      0.28       0.03

   496.14       0.03       0.250      0.022       544.9       48.8

   513.01       0.07       0.27       0.05

   526.394      0.018      0.29       0.09

   527.98       0.04       0.149      0.020

   548.16       0.03       0.171      0.024

   553.916      0.010      0.53       0.05

   555.06       0.07       0.18       0.05

   560.41       0.08       0.110      0.016

   562.29       0.10       0.117      0.024

   565.42       0.04       0.230      0.025

   566.55       0.04       0.24       0.03        944.9      378.3

   567.435      0.016      1.62       0.17        678.4      111.0

   568.837      0.021      0.43       0.03

   574.276      0.015      0.53       0.03

   580.14       0.04       0.20       0.03        804.0      223.9

   588.43       0.11       0.128      0.023

   591.24       0.05       0.26       0.03        944.9      353.7

   598.76       0.09       0.25       0.03

   606.545      0.015      0.57       0.03        606.5        0.0

   615.62       0.04       0.16       0.03

   624.82       0.05       0.19       0.03

   629.65       0.03       0.377      0.024       699.2       69.5

   631.26       0.06       0.177      0.020       876.2      245.1

   634.515      0.023      0.48       0.03        678.4       43.9

   638.331      0.016      0.72       0.04        682.2       43.9

   645.453      0.024      0.50       0.07

   672.12       0.03       0.50       0.04

   676.68       0.06       0.21       0.03        768.4       91.7

   677.68       0.05       0.34       0.03

   698.10       0.06       0.216      0.024       783.1       85.1

   706.63       0.04       0.33       0.06

   713.72       0.07       0.33       0.05

   724.49       0.03       0.72       0.05        768.4       43.9

   725.40       0.07       0.36       0.04       1079.0      353.7

   742.00       0.09       0.49       0.11

   746.90       0.09       0.31       0.05

   749.84       0.07       0.41       0.05

   750.70       0.06       0.52       0.04

   771.52       0.07       0.45       0.08

   775.10       0.05       0.40       0.03

   791.24       0.07       0.51       0.11        876.2       85.1

   794.64       0.07       0.41       0.04

   803.99       0.07       0.22       0.05        804.0        0.0

   808.38       0.05       0.46       0.06
6.
   812.11       0.07       0.39       0.06

   832.49       0.13       0.39       0.07

   853.24       0.05       0.69       0.08        944.9       91.7

   898.57       0.08       0.51       0.04

   927.27       0.16       0.59       0.06

   961.82       0.07       0.61       0.16

   985.10       0.18       0.60       0.22

ENDDATA            368
ENDSUBENT          389
SUBENT        22149003   19910125              20050926       0000
BIB                  3          7
REACTION   (53-I-129(N,G)53-I-130,,SPC,,MXW/REL) HIGH ENERGY
           TRANSITIONS, PRIMARY GAMMAS.
STATUS     .TABLE 2 IN MAIN REFERENCE.
HISTORY    (900530C) S.W.
           (900917E)
           (910125A) S.W. DATA POINT CORRECTED
           (910205E)
ENDBIB               7
NOCOMMON             0          0
DATA                 4         59
E          E-ERR      DATA       DATA-ERR
KEV        KEV        ARB-UNITS  ARB-UNITS
 6.4996E+03 5.0000E-01 1.1700E-01 2.3000E-02
 6.4654E+03 3.0000E-01 3.4000E-01 4.0000E-02
 6.4604E+03 1.2000E-01 1.5000E+00 1.2000E-01
 6.4560E+03 7.0000E-02 3.5000E+00 3.0000E-01
 6.4515E+03 7.0000E-02 2.2100E+00 1.7000E-01
 6.4084E+03 1.2000E-02 7.0000E+01 5.0000E+00
 6.3942E+03 6.0000E-01 2.8000E-01 6.0000E-02
 6.3898E+03 6.0000E-01 3.4000E-01 6.0000E-02
 6.3853E+03 8.0000E-01 2.2000E-01 6.0000E-02
 6.3744E+03 1.2000E-01 1.5000E+00 1.5000E-01
 6.3078E+03 3.0000E-01 3.7000E-01 6.0000E-02
 6.2764E+03 2.3000E-01 7.0000E-01 8.0000E-02
 6.2550E+03 4.0000E-02 2.7300E+00 2.1000E-01
 6.2493E+03 5.0000E-01 2.0000E-01 4.0000E-02
 6.2375E+03 5.0000E-01 1.6000E-01 3.0000E-02
 6.2100E+03 6.0000E-01 1.7000E-01 3.0000E-02
 6.2042E+03 1.5000E-02 1.4000E+01 1.1000E+00
 6.1517E+03 1.0000E+00 1.2000E-01 4.0000E-02
 6.1465E+03 1.6000E-02 1.4300E+01 1.1000E+00
 6.1255E+03 6.0000E-02 4.8000E+00 4.0000E-01
 6.1219E+03 5.0000E-01 4.9000E-01 1.0000E-01
 6.0633E+03 6.0000E-01 1.4000E-01 3.0000E-02
 6.0195E+03 1.4000E-02 2.4100E+01 1.9000E+00
 5.9712E+03 1.9000E-01 4.3000E-01 5.0000E-02
 5.9553E+03 6.0000E-02 1.7500E+00 1.8000E-01
 5.9209E+03 3.0000E-01 2.7000E-01 3.0000E-02
 5.8907E+03 1.3000E-01 8.2000E-01 7.0000E-02
 5.8658E+03 3.0000E-01 2.7000E-01 3.0000E-02
 5.8545E+03 9.0000E-01 9.0000E-02 3.0000E-02
 5.8306E+03 3.0000E-01 5.2000E-01 7.0000E-02
 5.8217E+03 1.7000E-02 3.1000E+01 3.0000E+00
 5.8189E+03 1.1000E+00 2.9000E-01 1.4000E-01
 5.8097E+03 4.0000E-01 2.5000E-01 4.0000E-02
 5.8011E+03 1.0000E-01 1.4400E+00 1.3000E-01
 5.7568E+03 7.0000E-01 1.1000E-01 3.0000E-02
 5.7384E+03 7.0000E-02 6.0000E-01 9.0000E-02
 5.7320E+03 9.0000E-02 1.5000E+00 4.0000E-01
 5.7277E+03 8.0000E-01 7.3000E-01 1.9000E-01
 5.7050E+03 5.0000E-01 5.0000E-01 1.2000E-01
 5.6752E+03 6.0000E-02 3.3000E+00 3.0000E-01
 5.6720E+03 3.0000E-01 6.3000E-01 8.0000E-02
 5.6639E+03 4.0000E-01 1.8000E-01 4.0000E-02
 5.6578E+03 4.0000E-01 1.8000E-01 5.0000E-02
 5.6451E+03 1.9000E-01 4.2000E-01 5.0000E-02
 5.6364E+03 3.0000E-01 2.9000E-01 5.0000E-02
 5.6240E+03 5.0000E-02 2.2300E+00 1.9000E-01
 5.6162E+03 3.0000E-01 3.0000E-01 5.0000E-02
 5.5818E+03 1.0000E-01 2.2600E+00 2.0000E-01
 5.5761E+03 1.4000E-01 8.2000E-01 8.0000E-02
 5.5552E+03 1.5000E-01 4.1000E+00 5.0000E-01
 5.5380E+03 5.0000E-01 4.6000E-01 9.0000E-02
 5.5293E+03 2.4000E-01 2.0200E+00 2.3000E-01
 5.5058E+03 9.0000E-01 2.2000E-01 7.0000E-02
 5.4945E+03 3.0000E-02 5.1000E+00 5.0000E-01
 5.4820E+03 1.0000E-01 9.5000E-01 9.0000E-02
 5.4640E+03 8.0000E-02 1.5000E+00 1.3000E-01
 5.4602E+03 3.0000E-01 3.4000E-01 5.0000E-02
 5.4212E+03 1.7000E-02 1.8300E+01 1.5000E+00
 5.3959E+03 7.0000E-02 1.2300E+00 1.1000E-01
ENDDATA             61
ENDSUBENT           73
ENDENTRY             3
