ENTRY            O1626   20080213   20080604   20080526       O035
SUBENT        O1626001   20080213   20080604   20080526       O035
BIB                 10         32
TITLE      Global optical model potentials for symmetrical lithium
           systems-Li6+Li, Li7+Li7 at E(lab)=5-40 MeV.
AUTHOR     (K.W.Potthast, H.Brand, H.Freiesleben, P.Rosenthal,
           B.Kamys, H.Paetz gen.Schieck, L.Sydow)
INSTITUTE  (2GERBOC)
           (3POLUJK)
           (2GERKLN)
REFERENCE  (J,NP/A,614,95,1997)
           (J,ZP/A,346,47,1993) Details of experiments
DETECTOR   (SIBAR) two position sensitive surface barrier
           detectors(PSDs-100 mum, 8*47 mm**2) for first
           experiment at the energy 5-17 MeV
           and for second experiment (20-40 MeV) two angle-
           defining PSDs(500-mum,8*15 mm**2) were used.
ADD-RES    (COMP) Optical model.
ERR-ANALYS (ERR-S).Statistical errors are of the symbol size in
           the figures to be shown, uncertainties due to the
           correction of the efficiency are angle dependent, for
           angles below Ang(cm)=60-degree their size is up to 10%,
           leading to 16.5% overall uncertainty for the smallest
           angles and to an uncertainty of the slope of the
           angular distributions at forward angles.
           (ERR-SYS).Systematic overall uncertainty is 11%.
           (ERR-1).The uncertainty in target thickness is 11%.
           (ERR-2).The error in beam current integration is 4%.
           (ERR-3).The error in the effective charge state of the
           integrated beam is 3%.
METHOD     (TOF)
           (COINC)
           (BCINT)
STATUS     (CURVE) By CAJAD.
HISTORY    (20080213C) S.B
ENDBIB              32
COMMON               4          3
ERR-SYS    ERR-1      ERR-2      ERR-3
PER-CENT   PER-CENT   PER-CENT   PER-CENT
11.        11.        4.         3.
ENDCOMMON            3
ENDSUBENT           39
SUBENT        O1626002   20080214   20080604   20080526       O035
BIB                  4          8
REACTION   (3-LI-6(3-LI-6,EL)3-LI-6,,DA)  fig 1
FACILITY   (DYNAM,2GERBOC) The 4-MV Dynamitron tandem accelerator
            at energy range 5-17 MeV.
SAMPLE     A 95% enriched metallic Li-6 target of 27-mug/cm**2,
           evaporated onto a thin carbon backing of about
            10-mug/cm**2.
ERR-ANALYS (ERR-DIG).Digitizing error of data.
           (ANG-ERR-D).Digitizing error of angle.
ENDBIB               8
COMMON               3          3
ANG-ERR-D  ERR-DIG    ERR-S
ADEG       PER-CENT   PER-CENT
0.5        6.         10.
ENDCOMMON            3
DATA                 3         73
EN         ANG-CM     DATA-CM
MEV        ADEG       MB/SR
    5.00000   59.30000  127.00000
    5.00000   69.40000   86.00000
    5.00000   79.80000   75.00000
    5.00000   89.50000   69.00000
   10.00000   31.90000  610.00000
   10.00000   34.90000  385.00000
   10.00000   37.60000  265.00000
   10.00000   40.20000  167.00000
   10.00000   42.90000  120.00000
   10.00000   45.90000   94.00000
   10.00000   48.20000   70.00000
   10.00000   51.20000   55.00000
   10.00000   52.80000   48.30000
   10.00000   54.50000   46.40000
   10.00000   56.50000   42.90000
   10.00000   59.40000   36.40000
   10.00000   62.10000   36.60000
   10.00000   65.00000   32.50000
   10.00000   67.30000   32.60000
   10.00000   70.00000   28.90000
   10.00000   72.00000   26.70000
   10.00000   73.60000   26.80000
   10.00000   75.20000   29.20000
   10.00000   77.20000   28.10000
   10.00000   78.50000   28.20000
   10.00000   80.50000   27.10000
   10.00000   82.20000   27.20000
   10.00000   83.80000   27.30000
   10.00000   85.10000   27.40000
   10.00000   86.80000   28.70000
   10.00000   88.70000   27.60000
   10.00000   90.70000   26.60000
   10.00000   92.00000   26.70000
   10.00000   93.00000   26.70000
   10.00000   95.00000   24.70000
   10.00000   97.60000   28.20000
   10.00000  100.60000   25.00000
   10.00000  103.60000   24.10000
   15.00000   19.80000 2070.00000
   15.00000   22.90000 1230.00000
   15.00000   25.30000  630.00000
   15.00000   28.40000  308.00000
   15.00000   31.20000  150.00000
   15.00000   33.90000   98.00000
   15.00000   37.00000   70.00000
   15.00000   38.90000   64.00000
   15.00000   40.50000   64.00000
   15.00000   42.40000   67.00000
   15.00000   44.70000   64.00000
   15.00000   47.10000   65.00000
   15.00000   48.20000   53.00000
   15.00000   51.30000   46.00000
   15.00000   54.00000   36.60000
   15.00000   56.80000   23.90000
   15.00000   59.50000   16.30000
   15.00000   61.80000   11.70000
   15.00000   64.90000    9.20000
   15.00000   67.30000    8.40000
   15.00000   70.00000    9.30000
   15.00000   73.10000   11.30000
   15.00000   75.00000   13.00000
   15.00000   76.50000   13.70000
   15.00000   78.80000   15.90000
   15.00000   81.90000   15.90000
   15.00000   83.50000   15.90000
   15.00000   85.40000   16.80000
   15.00000   87.70000   16.80000
   15.00000   89.30000   16.80000
   15.00000   92.40000   18.60000
   15.00000   95.80000   16.10000
   15.00000   98.20000   15.40000
   15.00000  102.00000   12.20000
   15.00000  104.40000   11.10000
ENDDATA             75
ENDSUBENT           92
SUBENT        O1626003   20080214   20080604   20080526       O035
BIB                  4          8
REACTION   (3-LI-6(3-LI-6,EL)3-LI-6,,DA) fig 1
FACILITY   (VDGT,2GERKLN) The 10 MV Van de Graaff tandem
           at energies between 20-40 MeV.
SAMPLE     A target of mixed composition (22.5 mug/cm**2 of Li-7,
            40-mug/cm**2 of Li-6 on a carbon backing of
            20-mug/cm**2) was employed.
ERR-ANALYS (ERR-DIG).Digitizing error of data.
           (ANG-ERR-D).Digitizing error of angle.
ENDBIB               8
COMMON               3          3
ANG-ERR-D  ERR-DIG    ERR-S
ADEG       PER-CENT   PER-CENT
0.5        7.         11.
ENDCOMMON            3
DATA                 3        181
EN         ANG-CM     DATA-CM
MEV        ADEG       MB/SR
   20.00000   26.10000   81.00000
   20.00000   28.10000   56.00000
   20.00000   30.10000   41.90000
   20.00000   31.70000   41.90000
   20.00000   34.40000   49.50000
   20.00000   36.00000   75.00000
   20.00000   37.70000   78.00000
   20.00000   39.70000   85.00000
   20.00000   41.30000   75.00000
   20.00000   43.00000   75.00000
   20.00000   44.30000   64.00000
   20.00000   46.30000   61.00000
   20.00000   47.70000   44.20000
   20.00000   50.00000   33.10000
   20.00000   52.00000   23.80000
   20.00000   54.00000   14.00000
   20.00000   56.00000    8.50000
   20.00000   58.40000    6.70000
   20.00000   60.00000    5.70000
   20.00000   61.30000    7.00000
   20.00000   63.00000    7.00000
   20.00000   65.30000    7.60000
   20.00000   67.00000    8.20000
   20.00000   69.30000    8.30000
   20.00000   71.60000    8.30000
   20.00000   74.00000    6.70000
   20.00000   75.90000    6.70000
   20.00000   77.90000    5.70000
   20.00000   79.90000    4.66000
   20.00000   81.90000    3.50000
   20.00000   83.60000    2.73000
   20.00000   86.30000    2.14000
   20.00000   88.60000    1.89000
   20.00000   90.30000    1.54000
   20.00000   92.30000    1.75000
   20.00000   93.90000    1.75000
   25.00000   23.90000   71.00000
   25.00000   25.80000   37.40000
   25.00000   28.40000   27.20000
   25.00000   30.20000   32.80000
   25.00000   32.30000   39.60000
   25.00000   34.20000   48.00000
   25.00000   36.30000   52.00000
   25.00000   37.80000   48.00000
   25.00000   40.00000   40.10000
   25.00000   42.20000   35.10000
   25.00000   44.10000   25.50000
   25.00000   46.00000   18.60000
   25.00000   48.60000   10.30000
   25.00000   50.40000    7.50000
   25.00000   52.70000    5.20000
   25.00000   54.10000    4.60000
   25.00000   55.60000    4.80000
   25.00000   57.10000    5.20000
   25.00000   58.50000    5.50000
   25.00000   60.30000    7.30000
   25.00000   61.80000    7.30000
   25.00000   64.30000    7.30000
   25.00000   66.50000    7.40000
   25.00000   68.00000    6.70000
   25.00000   70.60000    5.40000
   25.00000   71.70000    4.70000
   25.00000   73.90000    3.92000
   25.00000   76.50000    3.28000
   25.00000   77.90000    3.77000
   25.00000   80.10000    4.34000
   25.00000   81.90000    5.00000
   25.00000   84.10000    6.00000
   25.00000   85.60000    6.60000
   25.00000   87.40000    7.00000
   25.00000   89.60000    7.00000
   25.00000   91.80000    7.30000
   25.00000   94.00000    8.10000
   30.00000   24.10000   37.20000
   30.00000   25.50000   25.20000
   30.00000   27.60000   26.30000
   30.00000   29.70000   37.20000
   30.00000   32.10000   48.10000
   30.00000   34.20000   48.10000
   30.00000   35.90000   40.50000
   30.00000   38.40000   37.20000
   30.00000   40.10000   27.50000
   30.00000   42.20000   16.40000
   30.00000   44.30000   10.20000
   30.00000   46.00000    6.10000
   30.00000   47.80000    3.97000
   30.00000   49.50000    3.97000
   30.00000   52.30000    5.40000
   30.00000   54.10000    6.10000
   30.00000   56.20000    6.10000
   30.00000   57.90000    6.10000
   30.00000   60.70000    6.10000
   30.00000   62.40000    5.80000
   30.00000   64.20000    4.51000
   30.00000   65.90000    4.51000
   30.00000   68.40000    2.81000
   30.00000   70.10000    1.68000
   30.00000   72.20000    1.30000
   30.00000   74.30000    1.00000
   30.00000   75.70000    1.24000
   30.00000   78.10000    1.83000
   30.00000   80.20000    2.17000
   30.00000   82.30000    3.20000
   30.00000   84.80000    4.14000
   30.00000   86.50000    4.51000
   30.00000   88.60000    4.32000
   30.00000   91.00000    4.90000
   30.00000   93.10000    4.90000
   30.00000   94.20000    4.32000
   35.00000   23.60000   21.80000
   35.00000   25.80000   21.90000
   35.00000   28.00000   33.20000
   35.00000   29.80000   43.90000
   35.00000   31.60000   42.10000
   35.00000   33.80000   35.10000
   35.00000   36.00000   33.70000
   35.00000   38.30000   19.50000
   35.00000   40.80000   12.30000
   35.00000   42.40000    5.70000
   35.00000   44.30000    3.42000
   35.00000   46.50000    2.85000
   35.00000   48.20000    4.80000
   35.00000   50.40000    6.00000
   35.00000   52.20000    6.90000
   35.00000   54.80000    6.60000
   35.00000   55.90000    6.10000
   35.00000   58.80000    5.80000
   35.00000   59.90000    3.85000
   35.00000   62.10000    3.53000
   35.00000   64.40000    2.04000
   35.00000   66.60000    1.29000
   35.00000   68.50000    0.86000
   35.00000   70.00000    0.54000
   35.00000   72.60000    0.41300
   35.00000   74.00000    0.41400
   35.00000   76.20000    0.72000
   35.00000   78.40000    0.66000
   35.00000   79.80000    0.83000
   35.00000   82.00000    0.84000
   35.00000   83.80000    1.16000
   35.00000   86.00000    0.84000
   35.00000   87.80000    0.97000
   35.00000   89.60000    0.85000
   35.00000   91.50000    0.89000
   35.00000   93.60000    1.03000
   40.00000   23.40000    7.50000
   40.00000   25.00000   11.10000
   40.00000   27.00000   15.60000
   40.00000   29.10000   17.70000
   40.00000   31.10000   19.30000
   40.00000   33.20000   13.70000
   40.00000   34.70000   10.20000
   40.00000   37.20000    5.60000
   40.00000   38.70000    2.36000
   40.00000   40.90000    1.09000
   40.00000   42.90000    1.29000
   40.00000   44.80000    2.80000
   40.00000   46.90000    3.62000
   40.00000   48.50000    4.30000
   40.00000   50.60000    4.30000
   40.00000   52.40000    3.62000
   40.00000   54.80000    3.47000
   40.00000   56.90000    2.46000
   40.00000   59.00000    1.75000
   40.00000   60.80000    1.35000
   40.00000   62.60000    0.57000
   40.00000   64.70000    0.60000
   40.00000   67.20000    0.42400
   40.00000   69.30000    0.28800
   40.00000   71.30000    0.35700
   40.00000   72.90000    0.65000
   40.00000   75.00000    0.40600
   40.00000   76.80000    0.37300
   40.00000   79.20000    0.38900
   40.00000   81.30000    0.25300
   40.00000   83.40000    0.22300
   40.00000   85.40000    0.27600
   40.00000   87.50000    0.28800
   40.00000   89.20000    0.19600
   40.00000   90.90000    0.34200
   40.00000   93.70000    0.25300
ENDDATA            183
ENDSUBENT          200
ENDENTRY             3
