ENTRY            O1807   20091208   20100809   20100806       O041
SUBENT        O1807001   20091208   20100809   20100806       O041
BIB                 13         38
TITLE      Studies of single neutron holes in the transitional
           nuclei N=83-89.
           The 150,148Nd(d,t) and 150,148,146Nd(He3,a) pick-up
           reactions.
AUTHOR     (G.Loevhoeiden, J.R.Lien, S.El-Kazzaz, J.Rekstad,
           C.Ellegaard, J.H.Bjerregaard, P.Knudsen, P.Kleinheinz)
INSTITUTE  (2NORBGN)
           (2NOROSL)
           (2DENNBI)
           (2GERJUL)
REFERENCE  (J,NP/A,339,477,1980)
FACILITY   (VDGT,2DENNBI)
DETECTOR   (MAGSP) the Elbek-type multiangle spectrograph.
           (PLATE) The reaction products were detected with
           nuclear emulsions.
           (SI) as monitor detector
MONITOR    Cross section normalization was obtained through
           comparison of the measured yield of elastically
           scattered particles to the elastic scattering cross
           section calculated from the DWBA.
SAMPLE     The targets were made from enriched material and
           and evaporated onto carbon backings. The target
           thicknesses were about 50 mu-g/cm**2 for the (d,t)
           measurements and 200 mug/cm**2 for the (He3,a)
           reaction.  The targets material was enriched to
             96.2% in Nd-146, 95.46.2% in Nd-148 and 96.0% in
           Nd-150.
INC-SOURCE *EN-RSL-FW*.Energy resolution.
ERR-ANALYS (ERR-1).The uncertainties in the absolute cross
           sections is estimated to be +-15%.
           (E-LVL-ERR).The estimated uncertainties in excitation
           energies.
           (ANG-ERR-D).Angle digitizing error
           (ERR-S).Statistical  uncertainties.
           (ERR-DIG).Data digitizing error
METHOD     (BCINT)
STATUS     (CURVE).By CAJAD.
HISTORY    (20091202C) SB
ENDBIB              38
COMMON               1          3
ERR-1
PER-CENT
15.
ENDCOMMON            3
ENDSUBENT           45
SUBENT        O1807002   20091208   20100809   20100806       O041
BIB                  2          2
REACTION   (60-ND-150(D,T)60-ND-149,PAR,DA) fig.7
EN-SEC     (E-LVL,60-ND-149)
ENDBIB               2
COMMON               5          3
EN         EN-RSL-FW  E-LVL-ERR  ANG-ERR-D  ERR-DIG
MEV        KEV        KEV        ADEG       PER-CENT
17.        12.        5.         0.5        2.
ENDCOMMON            3
DATA                 4        354
E-LVL      ANG-CM     DATA-CM    ERR-S
MEV        ADEG       MB/SR      PER-CENT
    0.00000    7.80000    0.05610    4.00000
    0.00000   13.10000    0.08350
    0.00000   18.10000    0.06020
    0.00000   22.10000    0.12460
    0.00000   27.10000    0.11090
    0.00000   32.10000    0.09480
    0.00000   37.10000    0.09260
    0.00000   42.10000    0.05900    7.00000
    0.00000   52.20000    0.03200    4.00000
    0.00000   62.20000    0.02250    8.00000
    0.10800    7.40000    0.27000
    0.10800   11.70000    0.53600
    0.10800   16.80000    0.67800
    0.10800   21.40000    0.95300
    0.10800   27.30000    0.66600
    0.10800   31.60000    0.58300
    0.10800   37.10000    0.55900
    0.10800   41.80000    0.47000
    0.10800   51.60000    0.35000
    0.10800   61.80000    0.23800
    0.13800    7.40000    0.09180
    0.13800   12.80000    0.14310
    0.13800   17.10000    0.18700
    0.13800   22.90000    0.32900
    0.13800   27.30000    0.23600
    0.13800   32.10000    0.18400
    0.13800   37.20000    0.18400
    0.13800   42.40000    0.17300
    0.13800   52.30000    0.10990
    0.13800   62.60000    0.08230
    0.16200    6.00000    0.98000
    0.16200   11.30000    0.79000
    0.16200   17.10000    0.37100
    0.16200   21.60000    0.58400
    0.16200   26.40000    0.67400
    0.16200   31.40000    0.56300
    0.16200   36.70000    0.47000
    0.16200   42.00000    0.37800
    0.16200   52.30000    0.25400
    0.16200   62.20000    0.17950
    0.21700   12.60000    0.01780    8.00000
    0.21700   17.70000    0.02720    8.00000
    0.21700   21.90000    0.08750
    0.21700   26.60000    0.17400
    0.21700   31.20000    0.18300
    0.21700   36.30000    0.16200
    0.21700   41.30000    0.13760
    0.21700   51.40000    0.08920
    0.21700   61.50000    0.07860
    0.27300    5.00000    0.18300    5.00000
    0.27300   10.00000    0.24500
    0.27300   14.40000    0.22100
    0.27300   20.10000    0.42100
    0.27300   25.20000    0.42100
    0.27300   29.70000    0.26900
    0.27300   34.90000    0.21800    7.00000
    0.27300   40.00000    0.20700    4.00000
    0.27300   50.10000    0.11400    5.00000
    0.27300   60.90000    0.07000    7.00000
    0.28300   10.40000    0.39400
    0.28300   15.40000    0.21900
    0.28300   19.80000    0.33500
    0.28300   24.30000    0.40100
    0.28300   30.30000    0.27800
    0.28300   35.40000    0.20100    5.00000
    0.28300   39.70000    0.20000    7.00000
    0.28300   50.80000    0.11400    7.00000
    0.28300   60.60000    0.07600    8.00000
    0.31900    7.70000    0.42500
    0.31900   13.30000    0.67400
    0.31900   18.00000    0.84300
    0.31900   23.20000    1.11300
    0.31900   28.60000    0.72900
    0.31900   32.60000    0.82000
    0.31900   37.70000    0.74800
    0.31900   42.80000    0.58900
    0.31900   52.90000    0.41200
    0.31900   63.10000    0.23000
    0.36500    7.30000    1.24500
    0.36500   12.50000    1.01200
    0.36500   17.30000    0.52900
    0.36500   22.30000    0.75500
    0.36500   27.90000    0.74300
    0.36500   32.10000    0.63500
    0.36500   37.70000    0.58800
    0.36500   42.10000    0.43000
    0.36500   52.20000    0.26500
    0.36500   62.60000    0.14270
    0.40200    7.40000    0.27400
    0.40200   12.40000    0.29600
    0.40200   17.60000    0.14390
    0.40200   22.00000    0.22900
    0.40200   27.10000    0.25700
    0.40200   31.70000    0.22500
    0.40200   37.10000    0.19600
    0.40200   42.10000    0.14030
    0.40200   52.10000    0.09750
    0.40200   62.40000    0.06780
    0.45000    6.30000    0.07130
    0.45000   11.60000    0.14290
    0.45000   16.50000    0.26400
    0.45000   21.50000    0.31800
    0.45000   26.70000    0.26100
    0.45000   31.60000    0.18000
    0.45000   36.30000    0.21400
    0.45000   41.50000    0.16700
    0.45000   51.80000    0.12790
    0.45000   61.80000    0.07460
    0.48300    3.50000    0.35600
    0.48300    9.70000    0.10820
    0.48300   14.20000    0.26200
    0.48300   18.80000    0.29900
    0.48300   24.50000    0.20900
    0.48300   29.60000    0.19000
    0.48300   34.20000    0.22600
    0.48300   38.70000    0.16700
    0.48300   49.40000    0.11490
    0.54400    6.30000    1.00900
    0.54400   11.50000    0.89700
    0.54400   17.00000    0.40000
    0.54400   21.90000    0.68000
    0.54400   26.60000    0.66200
    0.54400   31.80000    0.50200
    0.54400   36.60000    0.47000
    0.54400   41.80000    0.38500
    0.54400   51.90000    0.22100
    0.54400   61.90000    0.15070
    0.64800   17.50000    0.05220    6.00000
    0.64800   21.90000    0.12880
    0.64800   27.00000    0.26600
    0.64800   31.30000    0.37000
    0.64800   36.50000    0.28800
    0.64800   51.50000    0.16120
    0.64800   62.00000    0.12340
    0.70800    6.30000    0.71100
    0.70800   11.40000    0.80700
    0.70800   16.10000    0.97900
    0.70800   20.80000    1.30200
    0.70800   26.30000    0.78800
    0.70800   31.40000    0.84900
    0.70800   35.70000    0.92700
    0.70800   51.40000    0.37500
    0.70800   62.00000    0.17000
    0.74200    5.80000    0.35900
    0.74200   11.50000    0.52800
    0.74200   16.20000    0.67100
    0.74200   21.30000    0.65400
    0.74200   26.60000    0.39500
    0.74200   31.10000    0.66400
    0.74200   36.70000    0.54500
    0.74200   51.90000    0.27800
    0.74200   61.70000    0.10720
    0.81500    4.20000    1.30100
    0.81500   10.80000    0.61200
    0.81500   15.50000    1.03500
    0.81500   20.20000    1.64000
    0.81500   24.70000    1.16200
    0.81500   30.10000    1.14400
    0.81500   34.60000    1.28600
    0.81500   50.20000    0.54200
    0.81500   61.40000    0.25400
    0.88100    7.10000    0.19700
    0.88100   12.20000    0.28800
    0.88100   17.80000    0.40100
    0.88100   22.60000    0.44000
    0.88100   27.30000    0.27300
    0.88100   32.50000    0.35000
    0.88100   37.60000    0.38900
    0.88100   42.90000    0.20300
    0.88100   52.80000    0.23100
    0.88100   62.70000    0.12210
    0.98400    6.80000    4.37000
    0.98400   11.70000    1.24600
    0.98400   16.50000    2.94000
    0.98400   21.90000    4.34000
    0.98400   26.60000    2.57000
    0.98400   31.50000    2.63000
    0.98400   36.80000    3.05000
    0.98400   41.80000    1.58900
    0.98400   51.60000    1.45500
    1.02600   10.40000    0.24800
    1.02600   15.20000    0.18300
    1.02600   20.20000    0.25400
    1.02600   25.30000    0.26300
    1.02600   31.00000    0.13010
    1.02600   35.60000    0.22900
    1.02600   41.20000    0.13820
    1.02600   51.10000    0.08300    8.00000
    1.02600   61.50000    0.05100   12.00000
    1.03900    6.20000    0.21400
    1.03900   11.40000    0.25400
    1.03900   17.10000    0.39100
    1.03900   21.50000    0.30000
    1.03900   26.90000    0.19700
    1.03900   31.30000    0.22100
    1.03900   37.00000    0.23000
    1.03900   41.40000    0.16700
    1.03900   51.20000    0.12230
    1.03900   61.80000    0.09100    8.00000
    1.12300    6.30000    0.26600
    1.12300   17.20000    0.41100
    1.12300   22.20000    0.38100
    1.12300   27.40000    0.20800    5.00000
    1.12300   32.40000    0.26700
    1.12300   37.40000    0.27000
    1.12300   41.80000    0.26200
    1.12300   52.90000    0.13500    6.00000
    1.12300   62.80000    0.14600    6.00000
    1.27300    6.60000    0.13530
    1.27300   17.20000    0.06900   12.00000
    1.27300   21.80000    0.08600    8.00000
    1.27300   26.30000    0.07500    7.00000
    1.27300   32.40000    0.07400    9.00000
    1.27300   37.40000    0.10000    7.00000
    1.27300   41.80000    0.05200   10.00000
    1.27300   52.50000    0.03500   11.00000
    1.27300   62.30000    0.02600   15.00000
    1.35000    8.10000    0.12510
    1.35000   18.70000    0.09500    3.00000
    1.35000   23.40000    0.11600    6.00000
    1.35000   27.80000    0.05500    9.00000
    1.35000   33.00000    0.07900    6.00000
    1.35000   38.20000    0.06100   10.00000
    1.35000   43.20000    0.06200   11.00000
    1.35000   52.80000    0.02140   12.00000
    1.50500    9.50000    0.38600
    1.50500   19.20000    0.17100
    1.50500   24.30000    0.23400
    1.50500   29.00000    0.25000
    1.50500   33.80000    0.17100
    1.50500   38.40000    0.13300
    1.50500   43.50000    0.15970
    1.50500   53.10000    0.03400   12.00000
    1.50500   62.80000    0.06800    7.00000
    1.53100    6.70000    0.16700
    1.53100   16.80000    0.08400    6.00000
    1.53100   21.60000    0.11800    5.00000
    1.53100   27.30000    0.13800    6.00000
    1.53100   31.70000    0.08800    7.00000
    1.53100   36.90000    0.09100    9.00000
    1.53100   41.30000    0.10200    6.00000
    1.53100   51.90000    0.03200   13.00000
    1.53100   62.00000    0.03300   12.00000
    1.55500    7.90000    0.15700
    1.55500   18.40000    0.09570
    1.55500   23.00000    0.13320
    1.55500   27.50000    0.13720
    1.55500   32.70000    0.10940
    1.55500   38.00000    0.08900    4.00000
    1.55500   42.90000    0.09000    7.00000
    1.55500   51.90000    0.04600   11.00000
    1.55500   62.80000    0.02500   12.00000
    1.62200   17.00000    0.04700    9.00000
    1.62200   22.40000    0.05800    7.00000
    1.62200   27.80000    0.07400    8.00000
    1.62200   32.50000    0.09600    6.00000
    1.62200   37.30000    0.08200    7.00000
    1.62200   42.70000    0.09400    6.00000
    1.62200   52.80000    0.06200    8.00000
    1.62200   62.40000    0.03500   11.00000
    1.70600   17.00000    0.06600    9.00000
    1.70600   21.90000    0.08400    7.00000
    1.70600   26.90000    0.09600    5.00000
    1.70600   31.80000    0.14400    4.00000
    1.70600   36.30000    0.12770
    1.70600   41.30000    0.11660
    1.70600   51.60000    0.08400    4.00000
    1.70600   61.90000    0.07300    5.00000
    1.71800   16.80000    0.08600    6.00000
    1.71800   21.60000    0.07500    7.00000
    1.71800   26.70000    0.05900    8.00000
    1.71800   32.20000    0.09400    6.00000
    1.71800   36.50000    0.10000    7.00000
    1.71800   41.70000    0.08200    7.00000
    1.71800   51.90000    0.05100   10.00000
    1.71800   61.70000    0.04200   12.00000
    1.73600    7.10000    0.06700    7.00000
    1.73600   17.40000    0.10100    6.00000
    1.73600   22.20000    0.09800    6.00000
    1.73600   27.00000    0.06000    8.00000
    1.73600   31.90000    0.08300    6.00000
    1.73600   36.80000    0.07700    8.00000
    1.73600   41.60000    0.07600    8.00000
    1.73600   51.70000    0.05400    7.00000
    1.73600   62.30000    0.03300   12.00000
    1.78500    6.80000    0.21100
    1.78500   16.60000    0.32200
    1.78500   22.00000    0.29900
    1.78500   26.90000    0.21500
    1.78500   32.80000    0.28000
    1.78500   36.80000    0.26000
    1.78500   42.20000    0.24800
    1.78500   52.40000    0.16300
    1.78500   61.80000    0.11900    5.00000
    1.85800    7.40000    0.13550
    1.85800   16.70000    0.27300
    1.85800   21.60000    0.32000
    1.85800   26.50000    0.21900
    1.85800   32.20000    0.22800
    1.85800   36.30000    0.23100
    1.85800   42.00000    0.21000    6.00000
    1.85800   51.70000    0.14000    6.00000
    1.85800   61.90000    0.10700    7.00000
    1.95700   10.10000    0.05000   12.00000
    1.95700   20.70000    0.07100    7.00000
    1.95700   25.10000    0.06600    9.00000
    1.95700   30.30000    0.05900    8.00000
    1.95700   34.90000    0.06100   10.00000
    1.95700   40.40000    0.05200    8.00000
    1.95700   44.80000    0.04300   12.00000
    1.95700   54.90000    0.02400   17.00000
    1.95700   64.30000    0.02400   17.00000
    1.98000    6.90000    0.07600    8.00000
    1.98000   16.70000    0.17500
    1.98000   22.20000    0.16200
    1.98000   26.90000    0.14000    4.00000
    1.98000   32.00000    0.15800    6.00000
    1.98000   36.80000    0.12100    7.00000
    1.98000   42.30000    0.08400    7.00000
    1.98000   52.20000    0.03600    8.00000
    1.98000   62.40000    0.04000   13.00000
    2.02900   17.40000    0.17800
    2.02900   22.60000    0.29300
    2.02900   27.90000    0.18600
    2.02900   32.30000    0.16500    6.00000
    2.02900   37.20000    0.20900
    2.02900   42.00000    0.20900
    2.02900   52.10000    0.09400    5.00000
    2.02900   61.80000    0.07800    6.00000
    2.07800   16.20000    0.33100
    2.07800   21.20000    0.19400
    2.07800   26.50000    0.25000
    2.07800   31.40000    0.28100
    2.07800   36.30000    0.28500
    2.07800   41.30000    0.23900
    2.07800   51.20000    0.17500
    2.07800   61.60000    0.12280
    2.22700    6.30000    0.11200    8.00000
    2.22700   16.00000    0.15000    5.00000
    2.22700   20.40000    0.16500    5.00000
    2.22700   26.20000    0.10600    5.00000
    2.22700   31.40000    0.11300    5.00000
    2.22700   36.20000    0.10900    7.00000
    2.22700   40.70000    0.12000    4.00000
    2.22700   51.30000    0.07800    8.00000
    2.22700   60.70000    0.05600    9.00000
    2.29300    7.20000    0.16900
    2.29300   21.80000    0.56200
    2.29300   27.10000    0.27000
    2.29300   31.60000    0.34200
    2.29300   36.50000    0.28200
    2.29300   41.40000    0.24900    3.00000
    2.29300   51.20000    0.15100    3.00000
    2.29300   61.40000    0.17600    4.00000
ENDDATA            356
ENDSUBENT          367
SUBENT        O1807003   20091208   20100809   20100806       O041
BIB                  2          2
REACTION   (60-ND-150(HE3,A)60-ND-149,PAR,DA) fig.6
EN-SEC     (E-LVL,60-ND-149)
ENDBIB               2
COMMON               5          3
EN         EN-RSL-FW  E-LVL-ERR  ANG-ERR-D  ERR-DIG
MEV        KEV        KEV        ADEG       PER-CENT
24.        30.        10.        0.4        2.8
ENDCOMMON            3
DATA                 4        131
E-LVL      ANG-CM     DATA-CM    ERR-S
MEV        ADEG       MB/SR      PER-CENT
    0.00000    7.40000    0.00060   50.00000
    0.00000   12.20000    0.00050   60.00000
    0.00000   27.40000    0.00041   50.00000
    0.00000   32.20000    0.00051   60.00000
    0.00000   42.10000    0.00081   40.00000
    0.00000   52.20000    0.00040   50.00000
    0.10900   12.30000    0.00330   15.00000
    0.10900   22.00000    0.00630   13.00000
    0.10900   31.30000    0.00590   14.00000
    0.10900   36.80000    0.00740   12.00000
    0.10900   41.50000    0.00990   16.00000
    0.10900   46.60000    0.00970    9.00000
    0.10900   52.30000    0.00590   24.00000
    0.10900   57.10000    0.00630   16.00000
    0.10900   67.00000    0.00630   13.00000
    0.10900   77.10000    0.00220   23.00000
    0.22500    8.40000    0.01220   11.00000
    0.22500   13.40000    0.01380    9.00000
    0.22500   23.90000    0.02800    6.00000
    0.22500   29.20000    0.02590    7.00000
    0.22500   34.30000    0.03170    6.00000
    0.22500   38.60000    0.02690    7.00000
    0.22500   43.90000    0.02690    6.00000
    0.22500   48.80000    0.02150    5.00000
    0.22500   53.80000    0.01780   13.00000
    0.22500   58.50000    0.01080   11.00000
    0.22500   68.30000    0.00640   14.00000
    0.22500   78.40000    0.00340   15.00000
    0.34100    7.10000    0.05500    4.00000
    0.34100   12.40000    0.06090
    0.34100   27.70000    0.11920
    0.34100   32.80000    0.09720
    0.34100   37.80000    0.10050
    0.34100   42.80000    0.09230
    0.34100   47.80000    0.06500
    0.34100   52.90000    0.05900    7.00000
    0.34100   57.70000    0.03520    9.00000
    0.34100   67.80000    0.02410    7.00000
    0.45500    7.10000    0.00100   50.00000
    0.45500   12.10000    0.00140   40.00000
    0.45500   22.50000    0.00220   23.00000
    0.45500   27.60000    0.00330   27.00000
    0.45500   32.30000    0.00340   24.00000
    0.45500   37.60000    0.00430   21.00000
    0.45500   42.70000    0.00580   19.00000
    0.45500   47.60000    0.00430   21.00000
    0.45500   52.80000    0.00230   40.00000
    0.45500   57.70000    0.00170   40.00000
    0.45500   67.30000    0.00170   50.00000
    0.45500   77.60000    0.00190   26.00000
    0.59000    7.90000    0.01610   11.00000
    0.59000   12.80000    0.01220   10.00000
    0.59000   27.50000    0.01360   11.00000
    0.59000   32.40000    0.01310   10.00000
    0.59000   37.70000    0.01410   10.00000
    0.59000   42.30000    0.01020   14.00000
    0.59000   47.30000    0.01090   12.00000
    0.59000   52.30000    0.01390   17.00000
    0.59000   57.20000    0.00710   14.00000
    0.59000   67.60000    0.00430   21.00000
    0.59000   77.40000    0.00140   29.00000
    0.65000    7.00000    0.07000    4.00000
    0.65000   11.50000    0.05800    5.00000
    0.65000   21.10000    0.08820
    0.65000   26.30000    0.09250
    0.65000   31.50000    0.08900
    0.65000   36.70000    0.08890
    0.65000   41.20000    0.09110
    0.65000   46.40000    0.06700    4.00000
    0.65000   51.30000    0.05900    7.00000
    0.65000   57.00000    0.04210    7.00000
    0.65000   67.60000    0.02040   10.00000
    0.71300   21.80000    0.00600   30.00000
    0.71300   27.50000    0.00670   15.00000
    0.71300   32.40000    0.00980   14.00000
    0.71300   37.10000    0.00920   13.00000
    0.71300   41.70000    0.01800   14.00000
    0.71300   47.00000    0.01360   12.00000
    0.71300   52.30000    0.01800   40.00000
    0.71300   66.90000    0.01040   16.00000
    0.71300   77.20000    0.00410   24.00000
    0.74300    8.50000    0.00470   19.00000
    0.74300   12.60000    0.00240   21.00000
    0.74300   23.50000    0.00430   19.00000
    0.74300   33.00000    0.00540   26.00000
    0.74300   38.40000    0.00590   17.00000
    0.74300   42.70000    0.01060   22.00000
    0.74300   47.90000    0.00820   16.00000
    0.74300   53.80000    0.01300   60.00000
    0.74300   67.70000    0.00580   22.00000
    0.74300   77.20000    0.00200   30.00000
    0.87300   13.00000    0.00200   30.00000
    0.87300   23.00000    0.00480   21.00000
    0.87300   33.20000    0.00510   16.00000
    0.87300   47.50000    0.00510   30.00000
    0.87300   52.80000    0.00690   23.00000
    1.14400    7.40000    0.00460   20.00000
    1.14400   12.20000    0.00440   18.00000
    1.14400   21.60000    0.01060   12.00000
    1.14400   26.90000    0.01010   17.00000
    1.14400   31.90000    0.00780   14.00000
    1.14400   36.60000    0.01080   13.00000
    1.14400   41.60000    0.01100   11.00000
    1.14400   46.60000    0.00950   13.00000
    1.14400   51.90000    0.00600   25.00000
    1.14400   56.90000    0.00480   19.00000
    1.14400   77.50000    0.00150   30.00000
    1.62500    7.00000    0.02320    7.00000
    1.62500   12.10000    0.01820    8.00000
    1.62500   22.10000    0.03260    5.00000
    1.62500   26.80000    0.02920    4.00000
    1.62500   31.90000    0.02780    4.00000
    1.62500   36.70000    0.03410    7.00000
    1.62500   41.50000    0.03210    7.00000
    1.62500   46.90000    0.01970   11.00000
    1.62500   52.00000    0.01720   13.00000
    1.62500   57.10000    0.01250    9.00000
    1.62500   67.30000    0.00750   19.00000
    1.62500   77.10000    0.00370   22.00000
    1.70800    7.40000    0.02950    5.00000
    1.70800   12.30000    0.02600    4.00000
    1.70800   22.30000    0.04300    5.00000
    1.70800   27.30000    0.04100   10.00000
    1.70800   31.80000    0.03780    5.00000
    1.70800   37.20000    0.04400    9.00000
    1.70800   42.10000    0.04390    5.00000
    1.70800   47.00000    0.03190    8.00000
    1.70800   52.00000    0.02800   14.00000
    1.70800   56.80000    0.01710   12.00000
    1.70800   67.00000    0.00730   19.00000
    1.70800   76.80000    0.00500   20.00000
ENDDATA            133
ENDSUBENT          144
SUBENT        O1807004   20091208   20100809   20100806       O041
BIB                  2          2
REACTION   (60-ND-148(D,T)60-ND-147,PAR,DA) fig.9
EN-SEC     (E-LVL,60-ND-147)
ENDBIB               2
COMMON               5          3
EN         EN-RSL-FW  E-LVL-ERR  ANG-ERR-D  ERR-DIG
MEV        KEV        KEV        ADEG       PER-CENT
17.        12.        5.         0.4        2.4
ENDCOMMON            3
DATA                 4        651
E-LVL      ANG-CM     DATA-CM    ERR-S
MEV        ADEG       MB/SR      PER-CENT
    0.00000    8.60000    0.05280    4.00000
    0.00000   14.00000    0.08700
    0.00000   18.70000    0.10400    4.00000
    0.00000   23.50000    0.12500    4.00000
    0.00000   29.70000    0.08300    4.00000
    0.00000   33.80000    0.05720    4.00000
    0.00000   39.60000    0.07040    4.00000
    0.00000   44.80000    0.05970    4.00000
    0.00000   49.90000    0.03780    4.00000
    0.00000   55.10000    0.03390    4.00000
    0.05000    7.40000    1.17000
    0.05000   13.10000    1.91000    4.00000
    0.05000   17.70000    3.29000    4.00000
    0.05000   22.80000    3.83000    4.00000
    0.05000   27.70000    2.71000    4.00000
    0.05000   32.70000    1.97000    4.00000
    0.05000   37.80000    2.29000    4.00000
    0.05000   42.30000    2.06000    4.00000
    0.05000   48.20000    1.31000    4.00000
    0.05000   52.70000    1.11000    4.00000
    0.12800    8.10000    0.18900
    0.12800   12.50000    0.30600
    0.12800   18.20000    0.59000
    0.12800   23.50000    0.63400
    0.12800   28.20000    0.46000
    0.12800   33.30000    0.30300
    0.12800   38.60000    0.40600
    0.12800   43.70000    0.32400
    0.12800   48.40000    0.21300
    0.12800   53.50000    0.18400
    0.19000    8.40000    0.00600   23.00000
    0.19000   12.90000    0.01200   15.00000
    0.19000   18.30000    0.02940    5.00000
    0.19000   24.10000    0.09280
    0.19000   29.00000    0.15500
    0.19000   33.60000    0.16900
    0.19000   38.90000    0.13400
    0.19000   43.40000    0.09130
    0.19000   49.20000    0.08050
    0.19000   53.70000    0.07200    8.00000
    0.21500    7.60000    0.37400    7.00000
    0.21500   13.00000    0.17200
    0.21500   17.80000    0.10340
    0.21500   22.50000    0.15900
    0.21500   28.10000    0.20600
    0.21500   32.60000    0.13900
    0.21500   38.10000    0.11130
    0.21500   43.10000    0.12080
    0.21500   47.80000    0.05000   10.00000
    0.21500   53.10000    0.05600    7.00000
    0.31500    7.60000    2.14000
    0.31500   12.40000    1.46000
    0.31500   17.50000    0.69500
    0.31500   22.80000    0.96700
    0.31500   28.00000    1.13100
    0.31500   32.80000    0.61900
    0.31500   38.20000    0.48700
    0.31500   43.10000    0.64700
    0.31500   48.20000    0.38900
    0.31500   53.70000    0.33200
    0.46300    7.80000    1.20700
    0.46300   12.80000    0.76000    8.00000
    0.46300   17.80000    0.32600
    0.46300   23.00000    0.55400
    0.46300   27.90000    0.65700
    0.46300   33.20000    0.39600
    0.46300   37.70000    0.35400
    0.46300   42.80000    0.35900
    0.46300   48.50000    0.29600    5.00000
    0.46300   53.30000    0.16800   10.00000
    0.51800    6.60000    0.06290
    0.51800   11.70000    0.09950
    0.51800   17.00000    0.18200
    0.51800   21.80000    0.25700
    0.51800   26.90000    0.20200
    0.51800   32.10000    0.13800
    0.51800   36.60000    0.17100
    0.51800   42.30000    0.15100
    0.51800   47.50000    0.09940
    0.51800   52.30000    0.06450
    0.57600    7.60000    0.13900
    0.57600   13.40000    0.29900
    0.57600   18.70000    0.46500
    0.57600   24.00000    0.70400
    0.57600   28.70000    0.62900
    0.57600   34.00000    0.39500
    0.57600   38.70000    0.53200
    0.57600   44.00000    0.48900
    0.57600   49.20000    0.29900
    0.57600   53.90000    0.25200
    0.60400    9.40000    0.48100    4.00000
    0.60400   14.30000    0.31300    4.00000
    0.60400   19.10000    0.19800    4.00000
    0.60400   24.90000    0.22500    4.00000
    0.60400   29.60000    0.30900    4.00000
    0.60400   35.00000    0.19600    4.00000
    0.60400   40.00000    0.14200    4.00000
    0.60400   44.70000    0.17000    4.00000
    0.60400   49.60000    0.11100    4.00000
    0.60400   55.10000    0.08700
    0.63200    6.80000    1.55000
    0.63200   12.00000    1.14000
    0.63200   17.10000    0.50100
    0.63200   22.30000    0.67400
    0.63200   26.90000    1.03300
    0.63200   31.80000    0.52400
    0.63200   37.20000    0.44400
    0.63200   41.80000    0.57000
    0.63200   47.00000    0.35600
    0.63200   52.20000    0.25300
    0.65600    8.10000    0.10900
    0.65600   13.80000    0.07190
    0.65600   18.60000    0.12100
    0.65600   23.10000    0.10300
    0.65600   28.40000    0.12000
    0.65600   34.00000    0.16000
    0.65600   38.50000    0.16200
    0.65600   43.00000    0.11800
    0.65600   48.30000    0.09850
    0.65600   53.90000    0.08570
    0.74900    8.00000    0.01940   13.00000
    0.74900   12.90000    0.01570   14.00000
    0.74900   18.60000    0.02270   12.00000
    0.74900   23.50000    0.02060   15.00000
    0.74900   28.30000    0.01650   15.00000
    0.74900   33.50000    0.01140   18.00000
    0.74900   38.60000    0.02540   11.00000
    0.74900   43.80000    0.01620   17.00000
    0.74900   48.20000    0.00270   40.00000
    0.74900   53.90000    0.01330   17.00000
    0.77000    6.50000    0.11900   11.00000
    0.77000   12.00000    0.18000
    0.77000   16.90000    0.23200
    0.77000   22.10000    0.15300
    0.77000   27.20000    0.13400
    0.77000   31.80000    0.16500
    0.77000   37.00000    0.16900
    0.77000   41.90000    0.10150
    0.77000   47.30000    0.08230
    0.77000   52.50000    0.08200    7.00000
    0.81400   12.50000    0.00770   22.00000
    0.81400   17.10000    0.01890   13.00000
    0.81400   22.50000    0.01590   18.00000
    0.81400   27.40000    0.01660   14.00000
    0.81400   32.90000    0.01860   15.00000
    0.81400   38.00000    0.00990   20.00000
    0.81400   47.90000    0.00710   24.00000
    0.83500    7.80000    0.00910   19.00000
    0.83500   22.80000    0.02230   12.00000
    0.83500   28.20000    0.01930   12.00000
    0.83500   32.30000    0.01250   16.00000
    0.83500   37.70000    0.01450   17.00000
    0.83500   43.10000    0.01200   16.00000
    0.85600    5.80000    0.02600   12.00000
    0.85600   11.10000    0.04500    9.00000
    0.85600   16.00000    0.02900   10.00000
    0.85600   20.70000    0.05190    6.00000
    0.85600   26.10000    0.04260    4.00000
    0.85600   31.50000    0.04010    4.00000
    0.85600   36.40000    0.03290    6.00000
    0.85600   41.80000    0.03400    9.00000
    0.85600   46.70000    0.02770    8.00000
    0.85600   52.80000    0.01310   17.00000
    0.93300   12.50000    0.01070   18.00000
    0.93300   22.90000    0.02200   14.00000
    0.93300   27.50000    0.03500    4.00000
    0.93300   31.70000    0.07470    4.00000
    0.93300   36.90000    0.08800
    0.93300   43.00000    0.06310    4.00000
    0.93300   48.00000    0.03800   11.00000
    0.93300   52.60000    0.03100   13.00000
    0.95800    6.00000    0.71800
    0.95800   11.10000    0.50100
    0.95800   16.50000    0.20900
    0.95800   21.60000    0.28300
    0.95800   26.50000    0.40200
    0.95800   31.30000    0.25900
    0.95800   36.40000    0.21300
    0.95800   41.50000    0.24100
    0.95800   46.90000    0.18300
    0.95800   51.70000    0.11590
    0.98300   12.40000    0.01890   12.00000
    0.98300   17.60000    0.07940
    0.98300   22.50000    0.07780
    0.98300   27.40000    0.06400
    0.98300   32.80000    0.05000    8.00000
    0.98300   38.10000    0.05000    8.00000
    0.98300   43.00000    0.04900    8.00000
    0.98300   47.20000    0.03600    8.00000
    0.98300   52.50000    0.02600   15.00000
    1.04100    8.00000    0.92800
    1.04100   13.10000    0.62000
    1.04100   18.50000    0.34600
    1.04100   23.60000    0.51800
    1.04100   28.30000    0.56200
    1.04100   33.70000    0.34600
    1.04100   38.20000    0.28500
    1.04100   43.80000    0.33500
    1.04100   49.00000    0.22000
    1.04100   54.10000    0.17000
    1.11200    6.00000    0.49800
    1.11200   11.10000    0.59600
    1.11200   16.00000    0.83900
    1.11200   20.90000    0.71500
    1.11200   26.40000    0.57100
    1.11200   30.90000    0.64100
    1.11200   36.10000    0.70700
    1.11200   41.00000    0.51300
    1.11200   46.80000    0.33700
    1.11200   51.60000    0.37800
    1.15100    7.20000    0.04600    9.00000
    1.15100   12.40000    0.04600    7.00000
    1.15100   16.90000    0.06400    8.00000
    1.15100   22.00000    0.10130
    1.15100   27.20000    0.05700    5.00000
    1.15100   32.10000    0.04800    8.00000
    1.15100   36.90000    0.05500    7.00000
    1.15100   42.30000    0.05210    5.00000
    1.15100   48.20000    0.02280    9.00000
    1.15100   52.70000    0.02600   12.00000
    1.20800    8.00000    0.04330    7.00000
    1.20800   12.90000    0.08590
    1.20800   18.00000    0.12170
    1.20800   23.10000    0.15200
    1.20800   27.60000    0.12700
    1.20800   32.90000    0.08490
    1.20800   38.00000    0.09630
    1.20800   43.30000    0.08860
    1.20800   48.00000    0.05300    8.00000
    1.20800   53.30000    0.02830    9.00000
    1.26100    8.00000    0.20300
    1.26100   13.80000    0.28500
    1.26100   18.10000    0.44600
    1.26100   23.40000    0.34100
    1.26100   28.20000    0.26100
    1.26100   33.50000    0.32200
    1.26100   38.80000    0.35700
    1.26100   43.60000    0.23900
    1.26100   48.40000    0.16500
    1.26100   53.20000    0.17800
    1.31100    6.80000    0.24200
    1.31100   10.80000    0.29000
    1.31100   15.90000    0.51800
    1.31100   21.00000    0.40600
    1.31100   27.10000    0.34400
    1.31100   31.20000    0.34300
    1.31100   36.80000    0.36000
    1.31100   41.40000    0.23400
    1.31100   47.00000    0.17400
    1.31100   52.10000    0.18700
    1.35000    6.60000    4.41000
    1.35000   11.80000    0.84500
    1.35000   17.10000    2.41000
    1.35000   22.30000    3.24000
    1.35000   27.20000    1.81000
    1.35000   32.10000    1.49000
    1.35000   37.30000    2.07000
    1.35000   42.90000    1.93000
    1.35000   48.10000    1.16500
    1.35000   52.30000    0.97700
    1.39800    6.10000    0.99000
    1.39800   10.10000    1.29000
    1.39800   15.30000    1.91000
    1.39800   20.70000    1.76000
    1.39800   26.20000    1.22000
    1.39800   31.10000    1.45000
    1.39800   36.00000    1.52000
    1.39800   41.50000    1.10000
    1.39800   46.20000    0.81600
    1.39800   51.50000    0.91200
    1.44400    6.00000    2.29000
    1.44400   11.90000    0.48400
    1.44400   16.20000    1.36000
    1.44400   21.40000    1.81000
    1.44400   26.40000    1.09100
    1.44400   31.90000    0.99300
    1.44400   36.20000    1.34000
    1.44400   41.40000    1.20400
    1.44400   47.00000    0.79700
    1.44400   51.90000    0.67000
    1.51500    8.10000    0.20800
    1.51500   12.30000    0.15800
    1.51500   17.70000    0.07580
    1.51500   22.60000    0.13400
    1.51500   27.80000    0.17500
    1.51500   32.60000    0.12690
    1.51500   37.80000    0.13300
    1.51500   43.00000    0.12200
    1.51500   48.10000    0.11050
    1.51500   52.90000    0.07880
    1.55900    7.10000    0.39600
    1.55900   11.70000    0.31700
    1.55900   17.50000    0.20000
    1.55900   22.40000    0.23800
    1.55900   27.60000    0.25700
    1.55900   32.50000    0.19000
    1.55900   37.70000    0.16200
    1.55900   42.30000    0.19600
    1.55900   47.80000    0.11990
    1.55900   52.70000    0.08860
    1.60200    8.50000    0.15100   11.00000
    1.60200   13.10000    0.22000
    1.60200   18.50000    0.32000
    1.60200   23.00000    0.33000
    1.60200   28.00000    0.24800
    1.60200   33.40000    0.29500
    1.60200   38.50000    0.29900
    1.60200   43.50000    0.20800
    1.60200   47.90000    0.13800
    1.60200   53.60000    0.15400
    1.62400    8.40000    0.03600   19.00000
    1.62400   13.10000    0.05760    4.00000
    1.62400   18.80000    0.11000    4.00000
    1.62400   23.50000    0.12200    4.00000
    1.62400   28.10000    0.07700    4.00000
    1.62400   32.80000    0.05130    4.00000
    1.62400   39.00000    0.07470    4.00000
    1.62400   43.70000    0.06010    4.00000
    1.62400   47.80000    0.03500   14.00000
    1.62400   53.00000    0.03580    8.00000
    1.64700    6.10000    0.09700    4.00000
    1.64700   11.30000    0.04820    4.00000
    1.64700   15.80000    0.08900
    1.64700   20.90000    0.10400    4.00000
    1.64700   26.00000    0.08600
    1.64700   31.10000    0.08500    4.00000
    1.64700   36.70000    0.08000    4.00000
    1.64700   41.30000    0.07800    4.00000
    1.64700   46.40000    0.05630    4.00000
    1.64700   51.50000    0.05450    4.00000
    1.67800    6.30000    1.22200
    1.67800   11.50000    0.32700
    1.67800   16.40000    0.73900
    1.67800   21.60000    1.06700
    1.67800   26.50000    0.62700
    1.67800   31.80000    0.49900
    1.67800   36.30000    0.64400
    1.67800   41.90000    0.64200
    1.67800   47.40000    0.35900
    1.67800   52.60000    0.32500
    1.71200    6.90000    0.10400
    1.71200   12.30000    0.08800
    1.71200   17.50000    0.09400
    1.71200   22.10000    0.07610
    1.71200   27.80000    0.09050
    1.71200   32.40000    0.06860
    1.71200   37.80000    0.05320
    1.71200   42.60000    0.06890
    1.71200   47.20000    0.05460
    1.71200   52.30000    0.04000    8.00000
    1.73300    7.00000    0.02000   40.00000
    1.73300   11.80000    0.04200   10.00000
    1.73300   16.90000    0.09120
    1.73300   21.80000    0.11060
    1.73300   26.70000    0.07150
    1.73300   31.70000    0.05430
    1.73300   36.80000    0.06700
    1.73300   41.70000    0.05980
    1.73300   47.30000    0.04700   11.00000
    1.73300   52.50000    0.04800    6.00000
    1.75900    8.10000    0.06000   10.00000
    1.75900   13.30000    0.06330
    1.75900   17.60000    0.11510
    1.75900   23.00000    0.11330
    1.75900   28.20000    0.09480
    1.75900   33.30000    0.08890
    1.75900   38.40000    0.09480
    1.75900   43.20000    0.07080
    1.75900   48.00000    0.04700    9.00000
    1.75900   53.10000    0.04290    7.00000
    1.75900   69.30000    0.09790
    1.82400    6.10000    0.04000   18.00000
    1.82400   11.40000    0.06000    8.00000
    1.82400   15.80000    0.10130
    1.82400   21.20000    0.11110
    1.82400   26.10000    0.07320
    1.82400   31.30000    0.06950
    1.82400   36.40000    0.07390
    1.82400   41.20000    0.06180
    1.82400   46.10000    0.04010    7.00000
    1.82400   51.50000    0.04000    8.00000
    1.84600    6.80000    0.18200
    1.84600   11.90000    0.20700
    1.84600   16.70000    0.34100
    1.84600   21.80000    0.29900
    1.84600   26.30000    0.17800
    1.84600   32.00000    0.18300
    1.84600   37.10000    0.23700
    1.84600   42.30000    0.20400
    1.84600   46.80000    0.13900
    1.84600   52.50000    0.12340
    1.94300   11.20000    0.04980
    1.94300   16.40000    0.05600
    1.94300   20.80000    0.08030
    1.94300   26.30000    0.06520
    1.94300   31.30000    0.03830
    1.94300   35.70000    0.06210
    1.94300   41.20000    0.05470
    1.94300   47.10000    0.03630
    1.94300   51.80000    0.02830
    1.98100    8.40000    0.02360
    1.98100   13.60000    0.01090
    1.98100   18.70000    0.02720
    1.98100   28.40000    0.01630
    1.98100   33.90000    0.01540
    1.98100   39.00000    0.03330
    1.98100   43.80000    0.01630
    1.98100   48.50000    0.01470
    2.01800    6.90000    0.12700
    2.01800   11.90000    0.03320
    2.01800   14.30000    0.02440
    2.01800   17.30000    0.04400
    2.01800   22.70000    0.07170
    2.01800   27.70000    0.03510
    2.01800   32.40000    0.04960
    2.01800   37.40000    0.06330
    2.01800   42.40000    0.04660
    2.01800   46.60000    0.03430
    2.01800   52.40000    0.02020
    2.03800    7.90000    0.03550
    2.03800   13.00000    0.05330
    2.03800   17.80000    0.06500
    2.03800   22.40000    0.06450
    2.03800   27.90000    0.06670
    2.03800   32.40000    0.03950
    2.03800   37.80000    0.03840
    2.03800   42.90000    0.03730
    2.03800   47.90000    0.02830
    2.03800   53.00000    0.03380
    2.06800    5.40000    0.05770
    2.06800   10.40000    0.02900
    2.06800   15.90000    0.03930
    2.06800   26.00000    0.02560
    2.06800   30.90000    0.01550
    2.06800   35.30000    0.05760
    2.06800   40.30000    0.02770
    2.06800   44.50000    0.03830
    2.08600    4.70000    0.15500
    2.08600   10.20000    0.08150
    2.08600   15.40000    0.07000
    2.08600   20.10000    0.06940
    2.08600   25.60000    0.08780
    2.08600   29.90000    0.06040
    2.08600   35.40000    0.05620
    2.08600   40.20000    0.04370
    2.08600   45.70000    0.03250
    2.08600   50.80000    0.02630
    2.14600   12.90000    0.04950
    2.14600   16.30000    0.03430
    2.14600   22.60000    0.05530
    2.14600   27.60000    0.04560
    2.14600   32.70000    0.04370
    2.14600   37.80000    0.05310
    2.14600   42.50000    0.02840
    2.14600   46.70000    0.03380
    2.14600   51.80000    0.02050
    2.17700   10.80000    0.04770
    2.17700   16.70000    0.07930
    2.17700   21.40000    0.11900
    2.17700   26.80000    0.07590
    2.17700   31.40000    0.06850
    2.17700   36.50000    0.09480
    2.17700   41.50000    0.07880
    2.17700   46.50000    0.04280
    2.17700   51.50000    0.03490
    2.20400    5.20000    0.03030
    2.20400   15.50000    0.04260
    2.20400   20.20000    0.07210
    2.20400   25.70000    0.04790
    2.20400   30.00000    0.03820
    2.20400   35.10000    0.05070
    2.20400   40.20000    0.04570
    2.20400   45.30000    0.03430
    2.20400   50.30000    0.02680
    2.23000    7.10000    0.10900
    2.23000   17.10000    0.06060
    2.23000   22.20000    0.06390
    2.23000   26.70000    0.04270
    2.23000   32.10000    0.03150
    2.23000   37.60000    0.04470
    2.23000   41.70000    0.07290
    2.23000   47.80000    0.04960
    2.23000   52.90000    0.01590
    2.25000    6.70000    0.08290
    2.25000   11.00000    0.10100
    2.25000   15.00000    0.12300
    2.25000   21.70000    0.12500
    2.25000   26.40000    0.09560
    2.25000   31.40000    0.06740
    2.25000   36.50000    0.04050
    2.25000   41.70000    0.06670
    2.25000   45.90000    0.03550
    2.25000   52.30000    0.06090
    2.29700    7.30000    0.09500
    2.29700   12.00000    0.09400
    2.29700   17.20000    0.11800
    2.29700   21.50000    0.11600
    2.29700   26.30000    0.11600
    2.29700   32.00000    0.12200
    2.29700   36.70000    0.12600
    2.29700   41.60000    0.10600
    2.29700   47.40000    0.06670
    2.29700   51.70000    0.07480
    2.33400    7.00000    0.09030
    2.33400   12.50000    0.07100
    2.33400   22.20000    0.05050
    2.33400   26.80000    0.16200
    2.33400   33.10000    0.06630
    2.33400   37.00000    0.04000
    2.33400   42.80000    0.03410
    2.33400   47.10000    0.08530
    2.33400   52.10000    0.03500
    2.35000    7.60000    0.10800
    2.35000   13.00000    0.09330
    2.35000   23.50000    0.18100
    2.35000   29.00000    0.08460
    2.35000   33.20000    0.17400
    2.35000   38.20000    0.17500
    2.35000   43.30000    0.17500
    2.35000   48.30000    0.05080
    2.35000   52.10000    0.12200
    2.37300    6.70000    0.06230
    2.37300   11.40000    0.04870
    2.37300   15.80000    0.10230
    2.37300   21.60000    0.05030
    2.37300   26.30000    0.05210
    2.37300   31.10000    0.07610
    2.37300   36.20000    0.10260
    2.37300   41.70000    0.09610
    2.37300   47.10000    0.02800
    2.37300   52.20000    0.04000
    2.39800    8.50000    0.28600
    2.39800   11.90000    0.17000
    2.39800   17.70000    0.34100
    2.39800   23.30000    0.32000
    2.39800   27.90000    0.22900
    2.39800   32.70000    0.24800
    2.39800   38.30000    0.27900
    2.39800   42.60000    0.25100
    2.39800   48.30000    0.12700
    2.39800   52.70000    0.13200
    2.42000    8.10000    0.25300
    2.42000   12.90000    0.07740
    2.42000   14.90000    0.06830
    2.42000   17.70000    0.14200
    2.42000   23.70000    0.19100
    2.42000   27.50000    0.11700
    2.42000   32.20000    0.13400
    2.42000   37.40000    0.16700
    2.42000   42.80000    0.13800
    2.42000   47.40000    0.06900
    2.42000   52.90000    0.07750
    2.43600   15.80000    0.08970
    2.43600   22.20000    0.12200
    2.43600   26.40000    0.07890
    2.43600   37.30000    0.04230
    2.43600   46.20000    0.02180
    2.44300    7.90000    0.06390
    2.44300   12.70000    0.07860
    2.44300   17.50000    0.08250
    2.44300   22.80000    0.04720
    2.44300   28.00000    0.06500
    2.44300   32.30000    0.11500
    2.44300   37.50000    0.14400
    2.44300   41.90000    0.11300
    2.44300   47.70000    0.08470
    2.44300   52.90000    0.06350
    2.48400    6.20000    0.05400
    2.48400   12.50000    0.07190
    2.48400   16.40000    0.11500
    2.48400   22.60000    0.10400
    2.48400   26.60000    0.11500
    2.48400   31.90000    0.07930
    2.48400   36.60000    0.08420
    2.48400   41.30000    0.07130
    2.48400   47.10000    0.07120
    2.48400   52.50000    0.04430
    2.51300   12.00000    0.06270
    2.51300   17.90000    0.08500
    2.51300   26.90000    0.11000
    2.51300   32.00000    0.09450
    2.51300   37.60000    0.10500
    2.51300   43.20000    0.11000
    2.51300   48.30000    0.07240
    2.51300   53.00000    0.04000
    2.53600    6.70000    0.02880
    2.53600   11.40000    0.02640
    2.53600   16.00000    0.03750
    2.53600   21.00000    0.06030
    2.53600   26.00000    0.06020
    2.53600   31.00000    0.05300
    2.53600   36.40000    0.04570
    2.53600   41.00000    0.04960
    2.53600   46.40000    0.03130
    2.53600   51.40000    0.03850
    2.56400    7.10000    0.06470
    2.56400   11.60000    0.10200
    2.56400   16.40000    0.19500
    2.56400   21.60000    0.22500
    2.56400   27.10000    0.12500
    2.56400   31.40000    0.15800
    2.56400   36.60000    0.15400
    2.56400   41.30000    0.13900
    2.56400   47.20000    0.08580
    2.56400   52.00000    0.10800
    2.59300    6.70000    0.14900
    2.59300   12.10000    0.04210
    2.59300   16.80000    0.08210
    2.59300   22.30000    0.10900
    2.59300   27.30000    0.06250
    2.59300   31.60000    0.06480
    2.59300   37.10000    0.08590
    2.59300   40.60000    0.06570
    2.59300   47.20000    0.04620
    2.59300   51.90000    0.04510
    2.62200    6.90000    0.04180
    2.62200   12.30000    0.03680
    2.62200   16.60000    0.06120
    2.62200   22.00000    0.07330
    2.62200   26.20000    0.05480
    2.62200   31.20000    0.04920
    2.62200   35.50000    0.05010
    2.62200   41.20000    0.04140
    2.62200   46.60000    0.03880
    2.62200   51.20000    0.03340
    2.65300    8.30000    0.05830
    2.65300   12.70000    0.03190
    2.65300   17.40000    0.08900
    2.65300   23.00000    0.10200
    2.65300   27.40000    0.07430
    2.65300   32.60000    0.07770
    2.65300   37.40000    0.07600
    2.65300   42.60000    0.06640
    2.65300   47.40000    0.04750
    2.68900    6.90000    0.19500
    2.68900   12.00000    0.19800
    2.68900   16.80000    0.39400
    2.68900   22.00000    0.45200
    2.68900   27.50000    0.42200
    2.68900   30.90000    0.31600
    2.68900   36.40000    0.33400
    2.68900   41.90000    0.28200
    2.68900   51.70000    0.22700
    2.72200    6.00000    0.05280
    2.72200   11.00000    0.06560
    2.72200   15.10000    0.11800
    2.72200   21.40000    0.13100
    2.72200   26.50000    0.10100
    2.72200   31.60000    0.09520
    2.72200   42.10000    0.08580
    2.72200   51.90000    0.05470
ENDDATA            653
ENDSUBENT          664
SUBENT        O1807005   20091208   20100809   20100806       O041
BIB                  2          2
REACTION   (60-ND-148(HE3,A)60-ND-147,PAR,DA) fig.8
EN-SEC     (E-LVL,60-ND-147)
ENDBIB               2
COMMON               5          3
EN         EN-RSL-FW  E-LVL-ERR  ANG-ERR-D  ERR-DIG
MEV        KEV        KEV        ADEG       PER-CENT
24.        30.        10.        0.5        2.
ENDCOMMON            3
DATA                 4        212
E-LVL      ANG-CM     DATA-CM    ERR-S
MEV        ADEG       MB/SR      PER-CENT
    0.05000   12.50000    0.00360   19.00000
    0.05000   22.00000    0.01550    7.00000
    0.05000   32.30000    0.02240    7.00000
    0.05000   37.50000    0.02580    8.00000
    0.05000   42.60000    0.04150    6.00000
    0.05000   48.00000    0.02610    7.00000
    0.05000   52.50000    0.02150   12.00000
    0.05000   57.30000    0.01990    8.00000
    0.05000   68.10000    0.01230   12.00000
    0.05000   78.00000    0.00930   11.00000
    0.05000   88.10000    0.00380   21.00000
    0.12800   13.00000    0.00100   40.00000
    0.12800   23.40000    0.00200   20.00000
    0.12800   33.40000    0.00180   30.00000
    0.12800   38.10000    0.00230   26.00000
    0.12800   43.10000    0.00310   29.00000
    0.12800   48.10000    0.00230   22.00000
    0.12800   52.70000    0.00170   50.00000
    0.12800   57.60000    0.00070   60.00000
    0.12800   67.80000    0.00070   60.00000
    0.12800   77.80000    0.00080   50.00000
    0.18900   12.00000    0.01320    9.00000
    0.18900   22.20000    0.01960    7.00000
    0.18900   26.80000    0.02190   10.00000
    0.18900   32.00000    0.02730    5.00000
    0.18900   37.20000    0.02630    6.00000
    0.18900   42.20000    0.02940    7.00000
    0.18900   47.40000    0.01830    7.00000
    0.18900   52.00000    0.01550   13.00000
    0.18900   57.50000    0.01010   11.00000
    0.18900   67.70000    0.00310   26.00000
    0.18900   77.50000    0.00250   24.00000
    0.50800    7.20000    0.03100   23.00000
    0.50800   12.10000    0.01800   22.00000
    0.50800   17.10000    0.01100   27.00000
    0.50800   22.00000    0.02900   21.00000
    0.50800   26.70000    0.03200   22.00000
    0.50800   31.40000    0.05000   16.00000
    0.50800   36.90000    0.04100   15.00000
    0.50800   41.90000    0.04600   20.00000
    0.50800   47.10000    0.03600   19.00000
    0.50800   52.00000    0.02100   50.00000
    0.50800   57.30000    0.02400   25.00000
    0.50800   67.20000    0.01000   50.00000
    0.50800   77.10000    0.00700   60.00000
    0.57300    7.60000    0.00240   25.00000
    0.57300   12.70000    0.00190   21.00000
    0.57300   17.60000    0.00110   40.00000
    0.57300   22.50000    0.00500   16.00000
    0.57300   27.00000    0.00760   13.00000
    0.57300   32.00000    0.01000   10.00000
    0.57300   36.60000    0.01010   11.00000
    0.57300   42.00000    0.01090   11.00000
    0.57300   47.10000    0.00950    9.00000
    0.57300   51.60000    0.01100   15.00000
    0.57300   56.80000    0.00650   14.00000
    0.57300   67.10000    0.00340   24.00000
    0.57300   77.00000    0.00280   21.00000
    0.57300   87.00000    0.00200   25.00000
    0.76300   11.80000    0.00020   50.00000
    0.76300   21.00000    0.00110   40.00000
    0.76300   26.00000    0.00070   60.00000
    0.76300   30.90000    0.00100   40.00000
    0.76300   41.00000    0.00160   40.00000
    0.76300   45.80000    0.00210   29.00000
    0.76300   56.10000    0.00100   40.00000
    0.76300   66.90000    0.00130   40.00000
    0.76300   76.80000    0.00090   30.00000
    0.93200    7.70000    0.04250    6.00000
    0.93200   13.10000    0.04400    7.00000
    0.93200   17.80000    0.04770
    0.93200   22.90000    0.06090
    0.93200   27.70000    0.06140    4.00000
    0.93200   33.00000    0.06830
    0.93200   37.40000    0.06130    5.00000
    0.93200   42.50000    0.06120
    0.93200   47.40000    0.03960    5.00000
    0.93200   52.20000    0.03100   10.00000
    0.93200   57.40000    0.02210    9.00000
    0.93200   67.10000    0.01030   13.00000
    0.93200   77.50000    0.00360   17.00000
    0.93200   87.50000    0.00170   29.00000
    1.23600    6.40000    0.00350   20.00000
    1.23600   11.30000    0.00370   22.00000
    1.23600   16.30000    0.00440   18.00000
    1.23600   21.30000    0.00330   18.00000
    1.23600   35.90000    0.00570   18.00000
    1.23600   41.50000    0.00610   40.00000
    1.23600   45.90000    0.00550   16.00000
    1.23600   51.20000    0.00460   26.00000
    1.23600   56.20000    0.00520   17.00000
    1.23600   66.00000    0.00310   23.00000
    1.23600   76.30000    0.00230   30.00000
    1.33100    8.20000    0.00230   26.00000
    1.33100   12.90000    0.00320   25.00000
    1.33100   17.60000    0.00090   60.00000
    1.33100   22.90000    0.00470   15.00000
    1.33100   28.30000    0.00360   19.00000
    1.33100   33.60000    0.00440   20.00000
    1.33100   38.00000    0.00600   18.00000
    1.33100   48.90000    0.00390   21.00000
    1.33100   53.80000    0.00750   19.00000
    1.33100   58.60000    0.00590   15.00000
    1.33100   69.00000    0.00620   15.00000
    1.33100   78.60000    0.00400   17.00000
    1.33100   89.00000    0.00370   24.00000
    1.39100    6.70000    0.00730   11.00000
    1.39100   12.60000    0.00310   26.00000
    1.39100   17.00000    0.00240   25.00000
    1.39100   22.20000    0.00440   14.00000
    1.39100   27.20000    0.00650   14.00000
    1.39100   31.80000    0.01290    9.00000
    1.39100   36.50000    0.01060   12.00000
    1.39100   41.70000    0.02020    7.00000
    1.39100   46.40000    0.01310    9.00000
    1.39100   51.70000    0.00980   19.00000
    1.39100   56.60000    0.01320    9.00000
    1.39100   66.90000    0.00950   13.00000
    1.39100   77.10000    0.00650   14.00000
    1.39100   87.10000    0.00390   18.00000
    1.45700    7.30000    0.08070
    1.45700   12.40000    0.06050
    1.45700   17.20000    0.06660    3.00000
    1.45700   22.20000    0.07890
    1.45700   27.40000    0.08590
    1.45700   32.00000    0.09250
    1.45700   37.40000    0.08950
    1.45700   42.30000    0.09240
    1.45700   47.30000    0.06700    4.00000
    1.45700   52.70000    0.06220    5.00000
    1.45700   57.40000    0.04720    5.00000
    1.45700   67.80000    0.02650    8.00000
    1.45700   77.80000    0.01410    9.00000
    1.50600    7.00000    0.02100    8.00000
    1.50600   12.20000    0.01760    9.00000
    1.50600   17.10000    0.01730   10.00000
    1.50600   22.30000    0.01970    4.00000
    1.50600   27.20000    0.02190    8.00000
    1.50600   31.80000    0.02360    5.00000
    1.50600   37.00000    0.02450    6.00000
    1.50600   42.30000    0.02760    6.00000
    1.50600   47.30000    0.01520    9.00000
    1.50600   52.60000    0.02380   11.00000
    1.50600   57.70000    0.01260   12.00000
    1.50600   67.60000    0.00650   17.00000
    1.50600   77.80000    0.00270   22.00000
    1.50600   87.60000    0.00260   27.00000
    1.67100    7.80000    0.00510   24.00000
    1.67100   12.60000    0.00680   12.00000
    1.67100   17.60000    0.00500   16.00000
    1.67100   22.30000    0.00520   15.00000
    1.67100   27.50000    0.00660   14.00000
    1.67100   32.10000    0.01090    9.00000
    1.67100   37.10000    0.01120   17.00000
    1.67100   41.90000    0.01080   10.00000
    1.67100   47.10000    0.00860   13.00000
    1.67100   52.10000    0.00660   20.00000
    1.67100   57.20000    0.00740   11.00000
    1.67100   67.80000    0.00210   24.00000
    1.67100   77.10000    0.00240   25.00000
    1.67100   86.80000    0.00180   28.00000
    2.43000    7.30000    0.01260   15.00000
    2.43000   12.60000    0.00970   10.00000
    2.43000   17.20000    0.00650   23.00000
    2.43000   22.30000    0.01390    9.00000
    2.43000   27.20000    0.00640   19.00000
    2.43000   31.90000    0.01410   10.00000
    2.43000   36.90000    0.01240   10.00000
    2.43000   41.60000    0.01950    9.00000
    2.43000   46.80000    0.01080   12.00000
    2.43000   51.90000    0.01610   14.00000
    2.43000   57.00000    0.00450   24.00000
    2.43000   66.70000    0.00330   24.00000
    2.48400    8.00000    0.00900   17.00000
    2.48400   12.90000    0.01010   10.00000
    2.48400   17.70000    0.00480   40.00000
    2.48400   22.70000    0.01260   10.00000
    2.48400   28.00000    0.00900   12.00000
    2.48400   32.70000    0.01310   10.00000
    2.48400   37.90000    0.00670   16.00000
    2.48400   48.20000    0.00720   14.00000
    2.48400   53.00000    0.01190   17.00000
    2.48400   57.50000    0.00300   30.00000
    2.48400   67.60000    0.00190   50.00000
    2.48400   77.90000    0.00190   30.00000
    2.48400   87.50000    0.00160   30.00000
    2.54100    6.90000    0.00620   21.00000
    2.54100   11.90000    0.00850   11.00000
    2.54100   16.60000    0.00880   19.00000
    2.54100   21.70000    0.01060   13.00000
    2.54100   31.70000    0.01520    7.00000
    2.54100   36.60000    0.01020   11.00000
    2.54100   41.60000    0.01510    9.00000
    2.54100   51.90000    0.01340   14.00000
    2.54100   56.90000    0.00380   26.00000
    2.54100   67.00000    0.00220   40.00000
    2.54100   77.40000    0.00120   30.00000
    2.54100   87.80000    0.00160   40.00000
    2.68200    6.70000    0.00930   24.00000
    2.68200   11.50000    0.00830   12.00000
    2.68200   17.00000    0.00340   30.00000
    2.68200   21.20000    0.01400    8.00000
    2.68200   26.10000    0.01900   16.00000
    2.68200   30.90000    0.02340    6.00000
    2.68200   36.10000    0.01990    6.00000
    2.68200   41.20000    0.02810    5.00000
    2.68200   46.40000    0.01470    9.00000
    2.68200   50.90000    0.02400   13.00000
    2.68200   56.40000    0.00900   13.00000
    2.68200   67.30000    0.00290   40.00000
    2.68200   77.30000    0.00320   19.00000
    2.68200   87.00000    0.00200   30.00000
ENDDATA            214
ENDSUBENT          225
SUBENT        O1807006   20091208   20100809   20100806       O041
BIB                  2          2
REACTION   (60-ND-146(HE3,A)60-ND-145,PAR,DA) fig.10
EN-SEC     (E-LVL,60-ND-145)
ENDBIB               2
COMMON               5          3
EN         EN-RSL-FW  E-LVL-ERR  ANG-ERR-D  ERR-DIG
MEV        KEV        KEV        ADEG       PER-CENT
24.        30.        10.        0.4        1.5
ENDCOMMON            3
DATA                 4         74
E-LVL      ANG-CM     DATA-CM    ERR-S
MEV        ADEG       MB/SR      PER-CENT
    0.00000    5.60000    0.01960   10.00000
    0.00000   10.90000    0.01500   20.00000
    0.00000   15.80000    0.01950   11.00000
    0.00000   25.20000    0.03690
    0.00000   30.50000    0.04010
    0.00000   35.20000    0.04700    5.00000
    0.00000   40.10000    0.05980    5.00000
    0.00000   45.20000    0.05860    4.00000
    0.00000   55.70000    0.03180    5.00000
    0.00000   66.60000    0.00770   29.00000
    0.74600    7.30000    0.01990    9.00000
    0.74600   12.30000    0.01630   14.00000
    0.74600   27.50000    0.02000   11.00000
    0.74600   37.40000    0.01700   18.00000
    0.74600   42.70000    0.01900   21.00000
    0.74600   47.70000    0.02000   15.00000
    0.74600   58.00000    0.00790   28.00000
    0.74600   67.40000    0.00390   40.00000
    1.11000    8.80000    0.04960    5.00000
    1.11000   13.80000    0.06650    3.00000
    1.11000   18.80000    0.05860    3.00000
    1.11000   28.80000    0.05600    7.00000
    1.11000   34.20000    0.06600    6.00000
    1.11000   38.80000    0.06400    8.00000
    1.11000   43.80000    0.05740    5.00000
    1.11000   49.10000    0.04400    7.00000
    1.11000   58.10000    0.02170    9.00000
    1.11000   68.40000    0.00650   30.00000
    1.53600   11.90000    0.01400   21.00000
    1.53600   17.20000    0.02580    9.00000
    1.53600   27.20000    0.03600    8.00000
    1.53600   31.60000    0.03640    8.00000
    1.53600   37.00000    0.03700   14.00000
    1.53600   41.90000    0.05940    4.00000
    1.53600   47.30000    0.04570    5.00000
    1.53600   56.90000    0.03330    8.00000
    1.53600   66.70000    0.01900   16.00000
    1.80300    7.30000    0.14570
    1.80300   12.20000    0.14440
    1.80300   17.50000    0.11670
    1.80300   27.70000    0.16030
    1.80300   32.30000    0.17240
    1.80300   37.60000    0.14510
    1.80300   41.90000    0.15130
    1.80300   47.50000    0.13000
    1.80300   57.70000    0.09410
    1.80300   67.50000    0.03100   13.00000
    2.71800   12.40000    0.01400   40.00000
    2.71800   17.40000    0.01300   50.00000
    2.71800   27.80000    0.01800   40.00000
    2.71800   32.30000    0.01600   40.00000
    2.71800   37.80000    0.03500   17.00000
    2.71800   42.90000    0.04700   17.00000
    2.71800   48.00000    0.03800   18.00000
    2.71800   57.50000    0.02000   30.00000
    2.71800   68.40000    0.01100   27.00000
    3.02600    6.60000    0.05300   17.00000
    3.02600   16.90000    0.04100   20.00000
    3.02600   26.40000    0.04600   17.00000
    3.02600   31.50000    0.04600   20.00000
    3.02600   35.80000    0.05500   15.00000
    3.02600   41.20000    0.06100   13.00000
    3.02600   46.70000    0.05300   15.00000
    3.02600   57.10000    0.02800   21.00000
    3.02600   67.20000    0.01300   23.00000
    3.15300    7.60000    0.02800   25.00000
    3.15300   17.50000    0.03700   16.00000
    3.15300   27.10000    0.03300   21.00000
    3.15300   32.70000    0.04000   20.00000
    3.15300   37.70000    0.04000   20.00000
    3.15300   43.20000    0.05700   14.00000
    3.15300   47.90000    0.03400   21.00000
    3.15300   57.90000    0.02200   23.00000
    3.15300   67.90000    0.01200   24.00000
ENDDATA             76
ENDSUBENT           87
ENDENTRY             6
