ENTRY            O1805   20091209   20100809   20100806       O041
SUBENT        O1805001   20091209   20100809   20100806       O041
BIB                 15         42
TITLE      Investigation of the S-34(d,p)S-35 reactions  at
           E(d)=10 MeV.
AUTHOR     (J.G.Van Der Baan, H.G.Leighton)
INSTITUTE  (2NEDUTR)
REFERENCE  (J,NP/A,170,607,1971)
FACILITY   (VDGT,2NEDUTR) the Utrecht 6 MV tandem accelerator
DETECTOR   (MAGSP) the Utrecht split-pole magnetic spectrograph by
           one 15 mm long and seven 30 mm long, 0.6 mm thick
           positive-sensitive detectors.
           (PS)
           (SIBAR) at 60 degree monitored elastically scattered
           deuterons.
COMMENT    *By authors*.By means of teflon absorber foils in front
           of the detectors the proton energy was reduced to below
            11 MeV, whereas in addition undesired reaction
           products such as deuterons and alpha-particles were
           stopped.
SAMPLE     Two different targets were used-
           one consisting of 100 mug/cm**2 PbS on carbon plus
           formvar foils, the other of 5 mug/cm**2 pure S-34
           embedded in aluminium foil. The PbS was prepared from
           lead nitrate, enriched to 99.9% in Pb-208 and
           elemental sulphur enriched to 85.6% in S-34. An
           isotopically pure target, produced by bombarding a
            70 mug/cm**2 aluminium foil with 60 keV S-34 ions from
           a mass separator, was used to measure the angular
           distribution of this group at small angles.
MONITOR    (16-S-34(D,EL)16-S-34,,DA,,RTH)
ADD-RES    (P-SPC) The proton spectrum, obtained with the PbS
           target is shown in fig.1
           (POT)
INC-SOURCE *E-RSL-FW*.Energy resolution.
ERR-ANALYS (E-LVL-ERR).The estimated uncertainties in excitation
           energies.
           (ANG-ERR-D) Angle digitizing error
           (ERR-DIG) Data digitizing error
           (ERR-S).Statistical  uncertainties.
           (MONIT-ERR).A systematic error of 8% is introduced by
           the normalization procedure.
METHOD     (SITA)
STATUS     (CURVE).By CAJAD.
HISTORY    (20091209C) SB
ENDBIB              42
COMMON               5          3
EN         E-RSL-FW   ANG-ERR-D  ERR-DIG    MONIT-ERR
MEV        KEV        ADEG       PER-CENT   PER-CENT
10.        10.        0.5        1.6        8.
ENDCOMMON            3
ENDSUBENT           49
SUBENT        O1805002   20091202   20100809   20100806       O041
BIB                  4          5
REACTION   (16-S-34(D,P)16-S-35,PAR,DA) fig.2
EN-SEC     (E-LVL,16-S-35)
FLAG       (1.).E-LVL and E-LVL-ERR are adopted from other
                reference. See Rel-Ref.
REL-REF    (A,,K.S.Burton+,J,NP/A,154,551,1970)
ENDBIB               5
NOCOMMON             0          0
DATA                 6        220
E-LVL      E-LVL-ERR  ANG-CM     DATA-CM    ERR-S      FLAG
MEV        KEV        ADEG       MB/SR      PER-CENT   NO-DIM
    0.00000               8.20000    1.55900
    0.00000              12.50000    1.45300
    0.00000              18.40000    1.58300
    0.00000              23.70000    2.01000
    0.00000              29.00000    2.47000
    0.00000              34.00000    2.39000
    0.00000              39.50000    1.79800
    0.00000              44.10000    1.30500
    0.00000              48.60000    0.83100
    0.00000              53.80000    0.56900
    0.00000              59.00000    0.47600
    0.00000              64.60000    0.41900
    0.00000              69.60000    0.41500
    0.00000              74.50000    0.34300
    0.00000              79.40000    0.30200
    0.00000              84.30000    0.25600
    0.00000              89.20000    0.20400
    0.00000              93.80000    0.17520
    1.58000    9.00000    3.90000   13.69000
    1.58000    9.00000    9.00000    9.76000
    1.58000    9.00000   14.00000    5.59000
    1.58000    9.00000   19.70000    2.31000
    1.58000    9.00000   25.10000    0.91000   12.00000
    1.58000    9.00000   30.20000    0.63000    8.00000
    1.58000    9.00000   35.80000    0.47000   11.00000
    1.58000    9.00000   41.50000    0.39000   13.00000
    1.58000    9.00000   46.30000    0.21200    9.00000
    1.58000    9.00000   51.90000    0.16500   12.00000
    1.58000    9.00000   56.60000    0.23600
    1.58000    9.00000   61.60000    0.31700
    1.58000    9.00000   66.60000    0.35300
    1.58000    9.00000   72.00000    0.34900
    1.58000    9.00000   77.00000    0.33800
    1.58000    9.00000   82.30000    0.25100
    1.58000    9.00000   86.80000    0.12780
    1.58000    9.00000   91.90000    0.06160
    1.99000    1.00000    4.80000    2.43000           1.
    1.99000    1.00000   10.80000    2.95000           1.
    1.99000    1.00000   15.80000    3.67000           1.
    1.99000    1.00000   20.10000    4.62000           1.
    1.99000    1.00000   26.10000    5.81000           1.
    1.99000    1.00000   31.00000    6.49000           1.
    1.99000    1.00000   35.60000    6.58000           1.
    1.99000    1.00000   41.50000    6.14000           1.
    1.99000    1.00000   46.40000    4.68000           1.
    1.99000    1.00000   52.00000    3.35000           1.
    1.99000    1.00000   56.50000    2.32000           1.
    1.99000    1.00000   61.10000    1.62100           1.
    1.99000    1.00000   66.30000    1.47700           1.
    1.99000    1.00000   71.90000    1.49900           1.
    1.99000    1.00000   76.90000    1.75500           1.
    1.99000    1.00000   81.50000    1.75900           1.
    1.99000    1.00000   86.70000    1.60200           1.
    1.99000    1.00000   91.70000    1.45900           1.
    2.34000   10.00000    4.90000   26.70000
    2.34000   10.00000   10.10000   35.90000
    2.34000   10.00000   15.10000   38.70000
    2.34000   10.00000   20.70000   30.90000
    2.34000   10.00000   25.30000   19.30000
    2.34000   10.00000   30.60000    9.59000
    2.34000   10.00000   40.90000    5.67000
    2.34000   10.00000   46.80000    6.59000
    2.34000   10.00000   51.70000    6.38000
    2.34000   10.00000   57.00000    4.78000
    2.34000   10.00000   61.70000    3.10000
    2.34000   10.00000   66.60000    1.94000
    2.34000   10.00000   72.30000    1.45600
    2.34000   10.00000   76.60000    1.17400
    2.34000   10.00000   82.20000    1.11000
    2.34000   10.00000   91.40000    1.05200
    2.73000    8.00000    5.80000    0.22400
    2.73000    8.00000   11.10000    0.23000
    2.73000    8.00000   16.40000    0.30200
    2.73000    8.00000   21.40000    0.34700
    2.73000    8.00000   27.30000    0.37700
    2.73000    8.00000   32.30000    0.38200
    2.73000    8.00000   37.20000    0.34300
    2.73000    8.00000   42.80000    0.29100
    2.73000    8.00000   47.70000    0.20200
    2.73000    8.00000   52.50000    0.15370
    2.73000    8.00000   63.00000    0.09140
    2.73000    8.00000   67.60000    0.09140
    2.73000    8.00000   73.20000    0.08710
    2.73000    8.00000   77.80000    0.08310
    2.73000    8.00000   82.70000    0.07930
    2.73000    8.00000   87.60000    0.07130
    2.73000    8.00000   92.60000    0.07470
    2.95000   10.00000    7.20000    0.06500    6.00000
    2.95000   10.00000   13.30000    0.06070
    2.95000   10.00000   17.60000    0.06080
    2.95000   10.00000   39.50000    0.03490    6.00000
    2.95000   10.00000   44.70000    0.02870    7.00000
    2.95000   10.00000   49.50000    0.02780    6.00000
    2.95000   10.00000   54.70000    0.02780    7.00000
    2.95000   10.00000   60.20000    0.02820    7.00000
    2.95000   10.00000   75.80000    0.02800
    2.95000   10.00000   80.60000    0.03260    7.00000
    2.95000   10.00000   86.50000    0.02780    9.00000
    2.95000   10.00000   91.30000    0.03280    5.00000
    2.95000   10.00000   95.90000    0.03170    8.00000
    3.41000   12.00000    6.70000    0.26000
    3.41000   12.00000   12.20000    0.18060
    3.41000   12.00000   17.10000    0.17400
    3.41000   12.00000   22.60000    0.23500
    3.41000   12.00000   28.10000    0.19900
    3.41000   12.00000   32.90000    0.18800
    3.41000   12.00000   38.80000    0.17260
    3.41000   12.00000   43.90000    0.13790
    3.41000   12.00000   49.40000    0.12670
    3.41000   12.00000   54.30000    0.10610
    3.41000   12.00000   59.40000    0.08480
    3.41000   12.00000   64.30000    0.07270
    3.41000   12.00000   75.20000    0.04640    4.00000
    3.41000   12.00000   80.10000    0.04790
    3.41000   12.00000   94.90000    0.02330
    3.59000    9.00000    5.20000    0.04660
    3.59000    9.00000   11.70000    0.04800   19.00000
    3.59000    9.00000   16.50000    0.03520    7.00000
    3.59000    9.00000   21.70000    0.03810    6.00000
    3.59000    9.00000   26.90000    0.04500    9.00000
    3.59000    9.00000   32.70000    0.03850
    3.59000    9.00000   38.20000    0.05380
    3.59000    9.00000   42.80000    0.05830
    3.59000    9.00000   48.30000    0.06540
    3.59000    9.00000   53.80000    0.05420
    3.59000    9.00000   59.00000    0.05050
    3.59000    9.00000   63.80000    0.03950    5.00000
    3.59000    9.00000   68.70000    0.04800    6.00000
    3.59000    9.00000   74.50000    0.04810
    3.68000   10.00000    4.10000    0.04300   28.00000
    3.68000   10.00000    9.40000    0.03100   16.00000
    3.68000   10.00000   15.00000    0.02300   17.00000
    3.68000   10.00000   20.30000    0.02300   13.00000
    3.68000   10.00000   25.30000    0.01300   23.00000
    3.68000   10.00000   35.90000    0.00600   70.00000
    3.68000   10.00000   41.80000    0.00600   40.00000
    3.80000   10.00000    4.70000    7.59000
    3.80000   10.00000    9.00000    7.87000
    3.80000   10.00000   14.90000    7.44000
    3.80000   10.00000   19.80000    6.47000
    3.80000   10.00000   25.50000    3.32000
    3.80000   10.00000   30.50000    1.85000
    3.80000   10.00000   35.80000    1.30500
    3.80000   10.00000   41.40000    1.24700
    3.80000   10.00000   47.00000    1.38800
    3.80000   10.00000   52.20000    1.28000
    3.80000   10.00000   56.90000    1.02600
    3.80000   10.00000   61.80000    0.72300
    3.80000   10.00000   67.40000    0.51600
    3.80000   10.00000   72.40000    0.43800
    3.80000   10.00000   77.30000    0.38600
    3.80000   10.00000   82.30000    0.35200
    3.80000   10.00000   87.50000    0.37300
    3.80000   10.00000   92.50000    0.38700
    3.91000   10.00000    5.40000    0.07980
    3.91000   10.00000   16.70000    0.09190
    3.91000   10.00000   21.60000    0.10300    4.00000
    3.91000   10.00000   27.50000    0.13100    8.00000
    3.91000   10.00000   37.80000    0.08290
    3.91000   10.00000   43.30000    0.09520
    3.91000   10.00000   48.50000    0.07620
    3.91000   10.00000   53.90000    0.03130    4.00000
    3.91000   10.00000   58.40000    0.04300    7.00000
    4.03000   10.00000    5.60000    0.35600
    4.03000   10.00000   10.80000    0.32900
    4.03000   10.00000   15.60000    0.29000
    4.03000   10.00000   21.40000    0.25900
    4.03000   10.00000   26.30000    0.24500
    4.03000   10.00000   31.50000    0.21900
    4.03000   10.00000   37.30000    0.17800
    4.03000   10.00000   43.10000    0.20000
    4.03000   10.00000   53.10000    0.14380
    4.03000   10.00000   58.60000    0.13290
    4.03000   10.00000   63.50000    0.11860
    4.03000   10.00000   68.70000    0.13610
    4.03000   10.00000   73.80000    0.12710
    4.03000   10.00000   79.00000    0.09900
    4.11000   10.00000    5.10000    0.08500    4.00000
    4.11000   10.00000   10.60000    0.08500    5.00000
    4.11000   10.00000   15.80000    0.08500    5.00000
    4.11000   10.00000   21.30000    0.08300    5.00000
    4.11000   10.00000   26.80000    0.07700    5.00000
    4.11000   10.00000   32.00000    0.07070
    4.11000   10.00000   37.20000    0.05250
    4.11000   10.00000   43.30000    0.03730
    4.11000   10.00000   47.80000    0.04400    7.00000
    4.11000   10.00000   53.30000    0.02560    7.00000
    4.11000   10.00000   58.10000    0.01840   10.00000
    4.11000   10.00000   63.30000    0.01990   10.00000
    4.20000   12.00000    5.30000    5.37000
    4.20000   12.00000   10.90000    5.80000    5.00000
    4.20000   12.00000   15.10000    5.39000
    4.20000   12.00000   21.10000    3.96000
    4.20000   12.00000   25.70000    2.41000
    4.20000   12.00000   31.40000    1.42700
    4.20000   12.00000   36.00000    1.01200
    4.20000   12.00000   41.90000    0.95500
    4.20000   12.00000   46.90000    0.90200
    4.20000   12.00000   52.20000    0.77400
    4.20000   12.00000   57.10000    0.55500
    4.20000   12.00000   62.10000    0.40300
    4.20000   12.00000   72.30000    0.33500    3.00000
    4.20000   12.00000   76.60000    0.30100
    4.20000   12.00000   81.90000    0.28800
    4.20000   12.00000   86.80000    0.25600
    4.20000   12.00000   92.10000    0.20700
    4.31000   12.00000    4.80000    0.09600
    4.31000   12.00000   10.30000    0.09800    4.00000
    4.31000   12.00000   14.80000    0.09000    4.00000
    4.31000   12.00000   20.40000    0.09120
    4.31000   12.00000   26.20000    0.08240
    4.31000   12.00000   31.10000    0.07200    7.00000
    4.31000   12.00000   36.60000    0.08360
    4.31000   12.00000   41.80000    0.07100    7.00000
    4.31000   12.00000   47.30000    0.07230
    4.31000   12.00000   52.20000    0.05000    8.00000
    4.31000   12.00000   72.40000    0.05050
    4.31000   12.00000   78.20000    0.06200   10.00000
    4.31000   12.00000   83.10000    0.06090
    4.31000   12.00000   87.90000    0.04790
ENDDATA            222
ENDSUBENT          232
ENDENTRY             2
