ENTRY            O1815   20100103   20100809   20100806       O041
SUBENT        O1815001   20100103   20100809   20100806       O041
BIB                 14         18
TITLE      Analysing powers of the Fe-54(He3,d)Co-55 and
           Fe-54(He3,a)Fe-53 reactions.
AUTHOR     (O.Karban, A.K.Basak, F.Entezami, P.M.Lewis, S.Roman)
INSTITUTE  (2UK BIR)
REFERENCE  (J,NP/A,369,38,1981)
FACILITY   (CYCLO,2UK BIR) the Radial Ridge cyclotron
SAMPLE     A 3 mg/cm**2 self-supporting Fe-54 target, 99.0%
           enrichment, was used.
INC-SOURCE (POLIS)
METHOD     (BCINT)
           (EDE)
MONITOR    (2-HE-3(D,EL)2-HE-3,,DA)
DETECTOR   (TELES,SIBAR,SIBAR)  silicon surface-barrier dE-E
           telescopes.
ADD-RES    (COMP).DWBA calculations.
ERR-ANALYS (ANG-ERR-D).Digitizing error of angle.
STATUS     (CURVE).By CAJAD.
HISTORY    (20100103C) SB
ENDBIB              18
COMMON               2          3
EN         ANG-ERR-D
MEV        ADEG
33.0       0.4
ENDCOMMON            3
ENDSUBENT           25
SUBENT        O1815002   20100103   20100809   20100806       O041
BIB                  4         18
REACTION   (26-FE-54(HE3,D)27-CO-55,PAR,DA) fig.2
EN-SEC     (E-LVL,27-CO-55)
LEVEL-PROP (27-CO-55,E-LVL=0.000,SPIN=3.5,PARITY=-1.)
           (27-CO-55,E-LVL=2.165,SPIN=1.5,PARITY=-1.)
           (27-CO-55,E-LVL=2.565,SPIN=1.5,PARITY=-1.)
           (27-CO-55,E-LVL=2.935,SPIN=0.5,PARITY=-1.)
           (27-CO-55,E-LVL=3.302,SPIN=2.5,PARITY=-1.)
           (27-CO-55,E-LVL=3.323,SPIN=0.5,PARITY=-1.)
           (27-CO-55,E-LVL=3.642,SPIN=1.5,PARITY=-1.)
           (27-CO-55,E-LVL=4.165,SPIN=0.5,PARITY=-1.)
           (27-CO-55,E-LVL=4.177,SPIN=2.5,PARITY=-1.)
           (27-CO-55,E-LVL=4.726,SPIN=1.5,PARITY=-1.)
           (27-CO-55,E-LVL=4.752,SPIN=1.5,PARITY=-1.)
           (27-CO-55,E-LVL=5.172,SPIN=0.5,PARITY=-1.)
           (27-CO-55,E-LVL=5.749,SPIN=2.5,PARITY=-1.)
           (27-CO-55,E-LVL=6.066,SPIN=4.5,PARITY=+1.)
           (27-CO-55,E-LVL=8.465,SPIN=4.5,PARITY=+1.)
ERR-ANALYS (ERR-DIG).Digitizing error of data.
ENDBIB              18
COMMON               1          3
ERR-DIG
PER-CENT
3.
ENDCOMMON            3
DATA                 4        215
E-LVL      E-LVL      ANG-CM     DATA-CM
MEV        MEV        ADEG       MB/SR
    0.00000              13.20000    2.48000
    0.00000              15.80000    2.59000
    0.00000              18.40000    1.99000
    0.00000              20.90000    1.26000
    0.00000              23.70000    0.60800
    0.00000              25.90000    0.36600
    0.00000              28.30000    0.38300
    0.00000              31.20000    0.51100
    0.00000              33.50000    0.43900
    0.00000              35.50000    0.34400
    0.00000              38.60000    0.20300
    0.00000              41.20000    0.14900
    0.00000              44.00000    0.13400
    0.00000              46.40000    0.16400
    0.00000              48.40000    0.17500
    0.00000              51.30000    0.14700
    0.00000              53.30000    0.08660
    0.00000              56.40000    0.06230
    0.00000              59.60000    0.07280
    2.16500              12.60000    3.40000
    2.16500              15.40000    1.87000
    2.16500              18.00000    2.35000
    2.16500              20.40000    2.83000
    2.16500              23.20000    2.35000
    2.16500              25.50000    1.29000
    2.16500              28.30000    0.66000
    2.16500              30.90000    0.58800
    2.16500              33.50000    0.69100
    2.16500              35.80000    0.72400
    2.16500              38.40000    0.54800
    2.16500              40.70000    0.35400
    2.16500              43.20000    0.23900
    2.16500              46.10000    0.20300
    2.16500              48.70000    0.17300
    2.16500              51.50000    0.14000
    2.16500              53.50000    0.09300
    2.16500              56.70000    0.07020
    2.56500              12.20000    1.91000
    2.56500              14.40000    1.20000
    2.56500              17.30000    1.29000
    2.56500              19.40000    1.73000
    2.56500              22.60000    1.46000
    2.56500              25.40000    0.77200
    2.56500              28.00000    0.43600
    2.56500              30.30000    0.41000
    2.56500              32.70000    0.51400
    2.56500              35.60000    0.50500
    2.56500              37.90000    0.41600
    2.56500              41.00000    0.23500
    2.56500              43.30000    0.16900
    2.56500              46.20000    0.13900
    2.56500              48.50000    0.12300
    2.56500              51.40000    0.09400
    2.56500              53.70000    0.06370
    2.56500              56.60000    0.04910
    2.93500              12.90000    0.85200
    2.93500              15.80000    0.64700
    2.93500              17.80000    0.72100
    2.93500              20.70000    0.82000
    2.93500              23.80000    0.49700
    2.93500              25.80000    0.33100
    2.93500              28.90000    0.22900
    2.93500              31.30000    0.22800
    2.93500              33.60000    0.24900
    2.93500              36.70000    0.19300
    2.93500              39.30000    0.14000
    2.93500              41.30000    0.09700
    2.93500              44.40000    0.07740
    2.93500              46.70000    0.07530
    2.93500              49.30000    0.05980
    2.93500              51.60000    0.05320
    2.93500              54.80000    0.03530
    2.93500              57.30000    0.02400
    3.30200    3.32300   12.80000    6.88000
    3.30200    3.32300   15.60000    5.52000
    3.30200    3.32300   18.20000    4.05000
    3.30200    3.32300   21.00000    2.90000
    3.30200    3.32300   23.30000    1.86000
    3.30200    3.32300   26.10000    1.25000
    3.30200    3.32300   28.40000    1.12000
    3.30200    3.32300   31.30000    1.17000
    3.30200    3.32300   33.90000    0.89900
    3.30200    3.32300   36.50000    0.70500
    3.30200    3.32300   39.00000    0.38700
    3.30200    3.32300   41.90000    0.27800
    3.30200    3.32300   44.10000    0.21800
    3.30200    3.32300   47.30000    0.23300
    3.30200    3.32300   51.60000    0.16000
    3.30200    3.32300   54.70000    0.09200
    3.30200    3.32300   57.30000    0.07380
    3.64200              12.10000    0.63700
    3.64200              15.30000    0.47600
    3.64200              17.90000    0.47400
    3.64200              20.50000    0.51700
    3.64200              23.30000    0.30300
    3.64200              26.20000    0.22600
    3.64200              28.40000    0.14800
    3.64200              31.60000    0.12900
    3.64200              33.90000    0.12900
    3.64200              36.50000    0.15000
    3.64200              39.40000    0.12200
    3.64200              42.00000    0.09200
    3.64200              44.20000    0.05610
    3.64200              46.80000    0.04580
    3.64200              49.70000    0.03910
    3.64200              52.20000    0.02680
    3.64200              54.50000    0.02240
    4.16500    4.17700   11.90000    3.58000
    4.16500    4.17700   14.40000    3.13000
    4.16500    4.17700   17.20000    2.33000
    4.16500    4.17700   20.30000    1.69000
    4.16500    4.17700   22.20000    1.05000
    4.16500    4.17700   25.00000    0.87600
    4.16500    4.17700   27.80000    0.74700
    4.16500    4.17700   30.30000    0.68200
    4.16500    4.17700   32.80000    0.62300
    4.16500    4.17700   35.30000    0.50800
    4.16500    4.17700   38.10000    0.30100
    4.16500    4.17700   40.30000    0.20900
    4.16500    4.17700   43.40000    0.17500
    4.16500    4.17700   46.20000    0.17500
    4.16500    4.17700   48.40000    0.14900
    4.16500    4.17700   50.90000    0.11600
    4.16500    4.17700   54.00000    0.07880
    4.16500    4.17700   56.20000    0.07530
    4.72600    4.75200   12.20000    3.71000
    4.72600    4.75200   15.00000    2.66000
    4.72600    4.75200   17.50000    2.68000
    4.72600    4.75200   20.00000    3.08000
    4.72600    4.75200   22.80000    2.36000
    4.72600    4.75200   25.60000    1.58000
    4.72600    4.75200   28.10000    0.97000
    4.72600    4.75200   30.30000    0.83100
    4.72600    4.75200   33.10000    0.79900
    4.72600    4.75200   35.30000    0.82000
    4.72600    4.75200   38.40000    0.70500
    4.72600    4.75200   40.90000    0.52800
    4.72600    4.75200   43.10000    0.40500
    4.72600    4.75200   46.60000    0.30400
    4.72600    4.75200   48.70000    0.22300
    4.72600    4.75200   52.20000    0.18300
    4.72600    4.75200   54.40000    0.12000
    4.72600    4.75200   56.90000    0.11000
    5.17200              13.00000    1.73000
    5.17200              15.80000    1.29000
    5.17200              18.60000    1.14000
    5.17200              21.40000    1.16000
    5.17200              23.30000    0.90400
    5.17200              26.10000    0.57500
    5.17200              28.20000    0.43800
    5.17200              31.00000    0.33300
    5.17200              34.20000    0.36100
    5.17200              37.00000    0.30700
    5.17200              39.10000    0.21400
    5.17200              42.20000    0.12400
    5.17200              44.70000    0.11800
    5.17200              47.20000    0.10500
    5.17200              49.70000    0.10400
    5.17200              52.20000    0.08880
    5.17200              55.00000    0.05530
    5.17200              58.10000    0.03930
    5.74900              13.10000    3.59000
    5.74900              15.60000    3.05000
    5.74900              18.40000    2.25000
    5.74900              20.90000    1.52000
    5.74900              23.40000    1.09000
    5.74900              25.90000    0.99000
    5.74900              28.10000    0.85900
    5.74900              30.90000    0.79600
    5.74900              33.70000    0.69300
    5.74900              36.20000    0.53100
    5.74900              38.70000    0.35100
    5.74900              41.60000    0.30500
    5.74900              44.10000    0.21100
    5.74900              46.20000    0.18300
    5.74900              49.40000    0.15900
    5.74900              52.20000    0.14800
    5.74900              54.70000    0.11300
    5.74900              57.80000    0.08680
    6.06600              12.80000    4.54000
    6.06600              15.60000    4.38000
    6.06600              17.80000    3.54000
    6.06600              20.30000    2.73000
    6.06600              23.10000    1.99000
    6.06600              26.20000    1.59000
    6.06600              28.70000    1.16000
    6.06600              30.90000    0.99400
    6.06600              33.70000    0.76800
    6.06600              36.20000    0.71300
    6.06600              39.10000    0.53900
    6.06600              42.20000    0.41600
    6.06600              44.70000    0.29000
    6.06600              47.20000    0.21600
    6.06600              49.70000    0.17700
    6.06600              51.90000    0.17200
    6.06600              55.00000    0.13000
    6.06600              57.50000    0.11800
    8.46500              15.60000    8.40000
    8.46500              19.40000    5.83000
    8.46500              21.60000    4.69000
    8.46500              23.40000    3.51000
    8.46500              26.20000    2.68000
    8.46500              29.40000    2.05000
    8.46500              31.60000    1.69000
    8.46500              34.40000    1.23000
    8.46500              36.90000    1.04000
    8.46500              39.40000    0.72200
    8.46500              42.20000    0.55200
    8.46500              44.70000    0.39400
    8.46500              47.50000    0.26700
    8.46500              50.00000    0.22000
    8.46500              52.80000    0.20400
    8.46500              55.00000    0.17600
    8.46500              57.80000    0.14400
    8.46500              60.60000    0.14000
ENDDATA            217
ENDSUBENT          244
SUBENT        O1815003   20100103   20100809   20100806       O041
BIB                  4         18
REACTION   (26-FE-54(HE3,D)27-CO-55,PAR,POL/DA,,ANA) fig.3
EN-SEC     (E-LVL,27-CO-55)
LEVEL-PROP (27-CO-55,E-LVL=0.000,SPIN=3.5,PARITY=-1.)
           (27-CO-55,E-LVL=2.165,SPIN=1.5,PARITY=-1.)
           (27-CO-55,E-LVL=2.565,SPIN=1.5,PARITY=-1.)
           (27-CO-55,E-LVL=2.935,SPIN=0.5,PARITY=-1.)
           (27-CO-55,E-LVL=3.302,SPIN=2.5,PARITY=-1.)
           (27-CO-55,E-LVL=3.323,SPIN=0.5,PARITY=-1.)
           (27-CO-55,E-LVL=3.642,SPIN=1.5,PARITY=-1.)
           (27-CO-55,E-LVL=4.165,SPIN=0.5,PARITY=-1.)
           (27-CO-55,E-LVL=4.177,SPIN=2.5,PARITY=-1.)
           (27-CO-55,E-LVL=4.726,SPIN=1.5,PARITY=-1.)
           (27-CO-55,E-LVL=4.752,SPIN=1.5,PARITY=-1.)
           (27-CO-55,E-LVL=5.172,SPIN=0.5,PARITY=-1.)
           (27-CO-55,E-LVL=5.749,SPIN=2.5,PARITY=-1.)
           (27-CO-55,E-LVL=6.066,SPIN=4.5,PARITY=+1.)
           (27-CO-55,E-LVL=8.465,SPIN=4.5,PARITY=+1.)
ERR-ANALYS (DATA-ERR).The uncertainties is reported on figure.
ENDBIB              18
NOCOMMON             0          0
DATA                 5        217
E-LVL      E-LVL      ANG-CM     DATA       DATA-ERR
MEV        MEV        ADEG       NO-DIM     NO-DIM
    0.00000              12.45000   -0.04500    0.01000
    0.00000              15.03000   -0.05500    0.01800
    0.00000              17.61000   -0.06500    0.02700
    0.00000              20.62000   -0.07200    0.02700
    0.00000              23.16000   -0.03000    0.00600
    0.00000              25.84000    0.13200    0.02900
    0.00000              28.40000    0.14000    0.03000
    0.00000              31.50000    0.00700    0.02200
    0.00000              34.11000   -0.04100    0.02900
    0.00000              36.48000   -0.06900    0.02900
    0.00000              39.36000   -0.20000    0.06000
    0.00000              41.89000   -0.14000    0.07000
    0.00000              44.83000   -0.36000    0.05000
    0.00000              47.40000   -0.36000    0.06000
    0.00000              50.38000   -0.31000    0.04000
    0.00000              53.15000   -0.29000    0.06000
    0.00000              55.60000   -0.12000    0.06000
    0.00000              58.22000    0.12000    0.09000
    0.00000              60.70000   -0.05000    0.08000
    0.00000              63.73000   -0.10000    0.06000
    0.00000              66.65000   -0.29000    0.05000
    0.00000              69.22000   -0.27000    0.06000
    0.00000              71.84000   -0.35000    0.06000
    2.16500              13.12000    0.10200    0.02500
    2.16500              16.10000    0.15400    0.02300
    2.16500              18.47000    0.06400    0.02700
    2.16500              21.47000    0.03800    0.01800
    2.16500              24.25000    0.02000    0.04000
    2.16500              26.58000    0.07000    0.02500
    2.16500              29.36000    0.07000    0.04000
    2.16500              31.95000   -0.03000    0.04000
    2.16500              34.95000   -0.07000    0.04000
    2.16500              37.73000   -0.07000    0.03000
    2.16500              39.85000   -0.01000    0.04000
    2.16500              42.59000    0.11000    0.04000
    2.16500              45.37000    0.10000    0.04000
    2.16500              48.00000   -0.15000    0.04000
    2.16500              50.54000   -0.05000    0.03000
    2.16500              53.34000   -0.13000    0.05000
    2.16500              56.10000   -0.07000    0.05000
    2.16500              58.43000   -0.01000    0.08000
    2.56500              13.03000    0.05900    0.02800
    2.56500              16.00000    0.14100    0.02800
    2.56500              18.16000    0.05000    0.03000
    2.56500              21.38000   -0.00100    0.02800
    2.56500              24.15000    0.02000    0.03000
    2.56500              26.50000    0.03000    0.03000
    2.56500              29.29000   -0.03000    0.04000
    2.56500              32.07000   -0.06000    0.04000
    2.56500              34.86000   -0.09000    0.04000
    2.56500              37.64000   -0.10000    0.02600
    2.56500              39.96000   -0.02000    0.05000
    2.56500              42.95000    0.02000    0.05000
    2.56500              45.52000   -0.03000    0.05000
    2.56500              47.90000   -0.13000    0.06000
    2.56500              50.89000   -0.14000    0.04000
    2.56500              53.66000   -0.12000    0.04000
    2.56500              56.01000   -0.12000    0.07000
    2.93500              12.59000   -0.21000    0.04000
    2.93500              15.17000   -0.27000    0.04000
    2.93500              17.91000   -0.13000    0.04000
    2.93500              20.89000   -0.10000    0.04000
    2.93500              23.27000   -0.21300    0.02800
    2.93500              25.82000   -0.17000    0.04000
    2.93500              28.64000   -0.31000    0.04000
    2.93500              31.16000   -0.16000    0.03000
    2.93500              34.10000    0.02700    0.02800
    2.93500              36.89000   -0.02000    0.04000
    2.93500              39.31000   -0.27000    0.05000
    2.93500              42.29000   -0.26000    0.06000
    2.93500              44.65000   -0.29000    0.05000
    2.93500              47.20000   -0.23000    0.05000
    2.93500              50.38000   -0.14000    0.07000
    2.93500              52.71000   -0.10000    0.08000
    2.93500              55.29000   -0.15000    0.08000
    2.93500              57.43000   -0.17000    0.08000
    3.30200    3.32300   12.58000   -0.06600    0.02400
    3.30200    3.32300   15.63000   -0.12500    0.02000
    3.30200    3.32300   18.21000   -0.13600    0.01800
    3.30200    3.32300   21.00000   -0.13500    0.01400
    3.30200    3.32300   24.04000   -0.18900    0.02000
    3.30200    3.32300   26.24000   -0.26000    0.03000
    3.30200    3.32300   29.49000   -0.31000    0.02400
    3.30200    3.32300   32.01000   -0.22000    0.03000
    3.30200    3.32300   34.75000   -0.16000    0.03000
    3.30200    3.32300   37.33000   -0.16000    0.03000
    3.30200    3.32300   40.17000   -0.24000    0.05000
    3.30200    3.32300   42.80000   -0.32000    0.04000
    3.30200    3.32300   46.00000   -0.29000    0.04000
    3.30200    3.32300   48.08000   -0.20000    0.04000
    3.30200    3.32300   50.77000   -0.06000    0.05000
    3.30200    3.32300   53.82000   -0.13000    0.06000
    3.30200    3.32300   56.34000   -0.04000    0.06000
    3.64200              12.93000    0.10000    0.05000
    3.64200              15.91000    0.14000    0.04000
    3.64200              18.49000    0.05000    0.04000
    3.64200              21.08000   -0.05000    0.04000
    3.64200              23.66000   -0.09000    0.07000
    3.64200              26.41000    0.01000    0.05000
    3.64200              28.97000    0.01000    0.06000
    3.64200              31.75000    0.00000    0.07000
    3.64200              34.31000    0.00000    0.07000
    3.64200              36.90000   -0.09000    0.06000
    3.64200              39.86000    0.02000    0.09000
    3.64200              42.60000    0.16000    0.07000
    3.64200              45.17000    0.14000    0.08000
    3.64200              47.38000   -0.16000    0.09000
    3.64200              50.11000    0.03000    0.09000
    3.64200              55.05000   -0.10000    0.10000
    3.64200              57.59000    0.00000    0.10000
    4.16400    4.17700   12.45000   -0.05200    0.02300
    4.16400    4.17700   15.50000   -0.11700    0.02700
    4.16400    4.17700   18.09000   -0.14300    0.02700
    4.16400    4.17700   20.88000   -0.14800    0.02300
    4.16400    4.17700   23.95000   -0.23500    0.02700
    4.16400    4.17700   26.32000   -0.26000    0.03000
    4.16400    4.17700   28.96000   -0.35000    0.04000
    4.16400    4.17700   31.67000   -0.23000    0.04000
    4.16400    4.17700   34.46000   -0.23000    0.04000
    4.16400    4.17700   37.06000   -0.28000    0.04000
    4.16400    4.17700   39.79000   -0.18000    0.05000
    4.16400    4.17700   43.16000   -0.41000    0.05000
    4.16400    4.17700   45.54000   -0.44000    0.04000
    4.16400    4.17700   48.13000   -0.15000    0.06000
    4.16400    4.17700   50.99000   -0.26000    0.07000
    4.16400    4.17700   53.64000   -0.06000    0.08000
    4.16400    4.17700   56.09000   -0.19000    0.09000
    4.16400    4.17700   58.83000   -0.11000    0.10000
    4.72600    4.75200   13.27000    0.05100    0.02100
    4.72600    4.75200   16.03000    0.13500    0.02700
    4.72600    4.75200   19.01000    0.14400    0.02700
    4.72600    4.75200   21.38000    0.07200    0.02100
    4.72600    4.75200   24.16000    0.05300    0.03000
    4.72600    4.75200   26.74000   -0.01400    0.03000
    4.72600    4.75200   29.52000   -0.01500    0.02700
    4.72600    4.75200   32.08000    0.00700    0.02700
    4.72600    4.75200   34.45000   -0.07000    0.04000
    4.72600    4.75200   37.23000   -0.10100    0.01900
    4.72600    4.75200   39.78000   -0.06000    0.03000
    4.72600    4.75200   42.53000    0.05800    0.02500
    4.72600    4.75200   45.51000    0.08400    0.02500
    4.72600    4.75200   48.07000    0.11000    0.05000
    4.72600    4.75200   50.88000   -0.02000    0.05000
    4.72600    4.75200   53.45000   -0.07000    0.04000
    4.72600    4.75200   56.02000   -0.08000    0.06000
    4.72600    4.75200   58.58000   -0.06000    0.07000
    5.17200              12.70000   -0.13000    0.04000
    5.17200              15.50000   -0.22900    0.02300
    5.17200              18.03000   -0.10000    0.04000
    5.17200              21.04000   -0.16000    0.03000
    5.17200              23.63000   -0.26000    0.05000
    5.17200              26.42000   -0.34000    0.04000
    5.17200              28.77000   -0.35000    0.04000
    5.17200              31.34000   -0.34000    0.04000
    5.17200              34.27000   -0.15000    0.05000
    5.17200              37.46000   -0.09000    0.04000
    5.17200              39.85000   -0.23000    0.07000
    5.17200              42.65000   -0.31000    0.07000
    5.17200              45.01000   -0.37000    0.05000
    5.17200              47.34000   -0.31000    0.06000
    5.17200              50.10000   -0.21000    0.07000
    5.17200              53.08000   -0.18000    0.08000
    5.17200              55.22000   -0.19000    0.09000
    5.17200              57.82000   -0.33000    0.12000
    5.74900              11.99000   -0.06700    0.02200
    5.74900              15.00000   -0.07000    0.02400
    5.74900              17.61000   -0.11600    0.02400
    5.74900              20.46000   -0.19600    0.01600
    5.74900              23.09000   -0.26900    0.02400
    5.74900              25.65000   -0.25000    0.03000
    5.74900              27.98000   -0.21000    0.04000
    5.74900              30.73000   -0.16400    0.02900
    5.74900              33.26000   -0.11300    0.02500
    5.74900              36.02000   -0.07100    0.02200
    5.74900              39.13000   -0.21000    0.04000
    5.74900              41.98000   -0.28000    0.03000
    5.74900              44.13000   -0.29000    0.04000
    5.74900              46.39000   -0.16000    0.05000
    5.74900              49.33000   -0.09000    0.05000
    5.74900              51.89000   -0.07000    0.04000
    5.74900              54.96000   -0.15000    0.06000
    5.74900              57.47000   -0.34000    0.08000
    6.06600              12.41000    0.04700    0.02100
    6.06600              15.19000    0.04400    0.02100
    6.06600              17.54000    0.03200    0.01400
    6.06600              20.52000    0.03300    0.01200
    6.06600              23.27000    0.05600    0.01900
    6.06600              25.83000    0.05300    0.02500
    6.06600              28.40000    0.04600    0.02500
    6.06600              31.17000    0.04700    0.02500
    6.06600              33.68000    0.10100    0.02900
    6.06600              36.47000    0.07600    0.01400
    6.06600              39.00000    0.10000    0.04000
    6.06600              42.21000    0.09600    0.02100
    6.06600              44.34000    0.10000    0.03000
    6.06600              46.67000    0.11000    0.04000
    6.06600              49.76000   -0.02000    0.04000
    6.06600              52.33000   -0.04000    0.05000
    6.06600              55.29000   -0.01000    0.06000
    6.06600              57.88000   -0.04000    0.06000
    8.46500              12.51000    0.05400    0.01500
    8.46500              15.51000    0.03200    0.02600
    8.46500              17.87000    0.01900    0.02100
    8.46500              20.62000    0.03800    0.02100
    8.46500              23.16000    0.05700    0.02400
    8.46500              25.93000    0.05700    0.02100
    8.46500              28.72000    0.03500    0.02400
    8.46500              31.27000    0.04500    0.02800
    8.46500              34.04000    0.05000    0.02800
    8.46500              39.58000    0.04700    0.02800
    8.46500              42.33000    0.08000    0.03000
    8.46500              44.87000    0.09000    0.03000
    8.46500              47.23000    0.08000    0.04000
    8.46500              50.39000    0.11000    0.03000
    8.46500              52.77000    0.07000    0.04000
    8.46500              55.42000   -0.05000    0.05000
    8.46500              57.80000   -0.10000    0.06000
ENDDATA            219
ENDSUBENT          242
SUBENT        O1815004   20100103   20100809   20100806       O041
BIB                  4         10
REACTION   (26-FE-54(HE3,A)26-FE-53,PAR,DA) fig.4
EN-SEC     (E-LVL,26-FE-54)
LEVEL-PROP (26-FE-53,E-LVL=0.000,SPIN=3.5,PARITY=-1.)
           (26-FE-53,E-LVL=2.968,SPIN=0.5,PARITY=+1.)
           (26-FE-53,E-LVL=3.330,SPIN=3.5,PARITY=-1.)
           (26-FE-53,E-LVL=3.396,SPIN=1.5,PARITY=+1.)
           (26-FE-53,E-LVL=4.264,SPIN=3.5,PARITY=-1.)
           (26-FE-53,E-LVL=7.042,SPIN=0.5,PARITY=+1.)
           (26-FE-53,E-LVL=7.273,SPIN=1.5,PARITY=+1.)
ERR-ANALYS (ERR-DIG).Digitizing error of data.
ENDBIB              10
COMMON               1          3
ERR-DIG
PER-CENT
3.
ENDCOMMON            3
DATA                 4         95
E-LVL      E-LVL      ANG-CM     DATA-CM
MEV        MEV        ADEG       MB/SR
    0.00000              12.50000    7.33000
    0.00000              15.20000    5.85000
    0.00000              17.90000    3.21000
    0.00000              20.30000    2.14000
    0.00000              23.50000    1.67000
    0.00000              25.80000    1.42000
    0.00000              28.50000    1.18000
    0.00000              30.90000    0.75600
    0.00000              33.00000    0.64200
    0.00000              36.20000    0.55400
    0.00000              38.80000    0.53900
    0.00000              42.00000    0.39700
    0.00000              44.40000    0.33600
    0.00000              47.00000    0.30200
    0.00000              49.60000    0.25600
    0.00000              52.00000    0.19600
    0.00000              54.40000    0.14500
    0.00000              57.30000    0.09860
    2.96800              12.10000    1.92000
    2.96800              15.00000    1.33000
    2.96800              18.00000    0.66600
    2.96800              20.40000    0.47900
    2.96800              23.00000    0.58700
    2.96800              25.60000    0.62900
    2.96800              28.80000    0.40300
    2.96800              31.30000    0.13900
    2.96800              33.70000    0.13800
    2.96800              36.50000    0.15000
    2.96800              38.90000    0.14100
    2.96800              41.60000    0.09590
    2.96800              44.20000    0.07740
    2.96800              46.80000    0.06480
    2.96800              49.50000    0.05530
    2.96800              52.20000    0.03760
    2.96800              54.50000    0.03600
    2.96800              57.10000    0.03440
    3.33000    3.39600   12.40000    2.93000
    3.33000    3.39600   14.90000    1.75000
    3.33000    3.39600   18.10000    1.11000
    3.33000    3.39600   20.70000    0.81300
    3.33000    3.39600   23.60000    0.79800
    3.33000    3.39600   26.00000    0.58200
    3.33000    3.39600   28.70000    0.41700
    3.33000    3.39600   31.10000    0.24400
    3.33000    3.39600   34.20000    0.26500
    3.33000    3.39600   36.60000    0.28200
    3.33000    3.39600   39.50000    0.24100
    3.33000    3.39600   42.20000    0.15600
    3.33000    3.39600   47.20000    0.08140
    3.33000    3.39600   49.50000    0.09940
    3.33000    3.39600   52.40000    0.08170
    3.33000    3.39600   55.10000    0.06990
    3.33000    3.39600   57.50000    0.05000
    4.26400              13.50000    5.97000
    4.26400              16.30000    4.21000
    4.26400              18.80000    2.59000
    4.26400              21.10000    1.53000
    4.26400              23.80000    1.19000
    4.26400              26.80000    1.32000
    4.26400              29.80000    1.06600
    4.26400              32.10000    0.57100
    4.26400              33.80000    0.35800
    4.26400              36.80000    0.35900
    4.26400              39.30000    0.37500
    4.26400              42.10000    0.30300
    4.26400              44.30000    0.22700
    4.26400              46.80000    0.19800
    4.26400              49.80000    0.19500
    4.26400              52.10000    0.17700
    4.26400              54.60000    0.15200
    4.26400              57.30000    0.12300
    7.04200              14.10000    1.79000
    7.04200              16.10000    1.31000
    7.04200              18.20000    0.44400
    7.04200              21.00000    0.27100
    7.04200              23.90000    0.74900
    7.04200              26.60000    0.85400
    7.04200              28.70000    0.44900
    7.04200              31.00000    0.12000
    7.04200              33.70000    0.10750
    7.04200              36.90000    0.19100
    7.04200              39.40000    0.22600
    7.04200              41.50000    0.08850
    7.27300              13.50000    1.65000
    7.27300              15.50000    1.23000
    7.27300              18.30000    0.39700
    7.27300              21.30000    0.42300
    7.27300              23.30000    0.49600
    7.27300              26.00000    0.42600
    7.27300              28.50000    0.26800
    7.27300              31.30000    0.13300
    7.27300              33.60000    0.12300
    7.27300              36.30000    0.22300
    7.27300              38.80000    0.21900
    7.27300              41.30000    0.10250
ENDDATA             97
ENDSUBENT          116
SUBENT        O1815005   20100103   20100809   20100806       O041
BIB                  4         10
REACTION   (26-FE-54(HE3,A)26-FE-53,PAR,POL/DA,,ANA) fig.5
EN-SEC     (E-LVL,26-FE-53)
LEVEL-PROP (26-FE-53,E-LVL=0.000,SPIN=3.5,PARITY=-1.)
           (26-FE-53,E-LVL=2.968,SPIN=0.5,PARITY=+1.)
           (26-FE-53,E-LVL=3.330,SPIN=3.5,PARITY=-1.)
           (26-FE-53,E-LVL=3.396,SPIN=1.5,PARITY=+1.)
           (26-FE-53,E-LVL=4.264,SPIN=3.5,PARITY=-1.)
           (26-FE-53,E-LVL=7.042,SPIN=0.5,PARITY=+1.)
           (26-FE-53,E-LVL=7.273,SPIN=1.5,PARITY=+1.)
ERR-ANALYS (DATA-ERR).The uncertainties is reported on figure.
ENDBIB              10
NOCOMMON             0          0
DATA                 5        120
E-LVL      E-LVL      ANG-CM     DATA       DATA-ERR
MEV        MEV        ADEG       NO-DIM     NO-DIM
    0.00000              12.60000   -0.06000    0.01000
    0.00000              15.10000   -0.11200    0.01900
    0.00000              17.60000   -0.13700    0.01500
    0.00000              19.80000   -0.06500    0.02200
    0.00000              23.00000    0.02900    0.01300
    0.00000              25.80000    0.09600    0.00900
    0.00000              28.50000    0.11700    0.02700
    0.00000              31.00000    0.02400    0.01700
    0.00000              33.80000   -0.14700    0.02700
    0.00000              36.40000   -0.35400    0.01300
    0.00000              38.70000   -0.48900    0.02200
    0.00000              41.70000   -0.44200    0.02400
    0.00000              44.40000   -0.43700    0.02400
    0.00000              47.10000   -0.33000    0.03000
    0.00000              49.70000   -0.45000    0.03000
    0.00000              51.90000   -0.51000    0.04000
    0.00000              54.70000   -0.49000    0.05000
    0.00000              57.30000   -0.34000    0.07000
    0.00000              59.60000   -0.33000    0.05000
    0.00000              62.30000   -0.18000    0.05000
    0.00000              64.80000   -0.26000    0.04000
    0.00000              67.30000   -0.30000    0.06000
    0.00000              69.60000   -0.30000    0.05000
    0.00000              72.40000   -0.52000    0.06000
    0.00000              74.80000   -0.44000    0.12000
    0.00000              80.10000   -0.56000    0.09000
    2.96800              11.00000    0.00000    0.03000
    2.96800              14.00000   -0.05700    0.02100
    2.96800              16.90000   -0.35000    0.05000
    2.96800              18.90000    0.07000    0.04000
    2.96800              21.30000    0.08000    0.03000
    2.96800              24.70000    0.06000    0.03000
    2.96800              27.00000   -0.09000    0.05000
    2.96800              29.60000    0.01000    0.05000
    2.96800              32.20000    0.05000    0.09000
    2.96800              35.00000    0.11000    0.06000
    2.96800              37.80000    0.01000    0.08000
    2.96800              40.60000   -0.14000    0.08000
    2.96800              43.00000   -0.20000    0.07000
    2.96800              45.40000    0.03000    0.09000
    2.96800              48.20000   -0.15000    0.08000
    2.96800              50.90000   -0.14000    0.09000
    2.96800              53.60000   -0.16000    0.11000
    2.96800              55.30000   -0.07000    0.10000
    3.33000    3.39600   12.10000    0.07100    0.02300
    3.33000    3.39600   15.30000   -0.22600    0.02000
    3.33000    3.39600   18.20000   -0.25300    0.02500
    3.33000    3.39600   20.40000    0.00400    0.02800
    3.33000    3.39600   22.90000    0.14000    0.03000
    3.33000    3.39600   25.90000    0.07000    0.03000
    3.33000    3.39600   28.70000   -0.09000    0.06000
    3.33000    3.39600   33.70000    0.25000    0.08000
    3.33000    3.39600   36.00000    0.31000    0.05000
    3.33000    3.39600   38.80000    0.18000    0.07000
    3.33000    3.39600   41.70000   -0.15000    0.07000
    3.33000    3.39600   43.80000   -0.15000    0.06000
    3.33000    3.39600   46.90000   -0.01000    0.07000
    3.33000    3.39600   48.90000    0.13000    0.08000
    3.33000    3.39600   51.60000    0.08000    0.07000
    3.33000    3.39600   54.10000   -0.34000    0.08000
    4.26400              13.20000   -0.08200    0.02200
    4.26400              15.50000   -0.18900    0.01900
    4.26400              18.50000   -0.22000    0.01700
    4.26400              21.00000   -0.23100    0.01500
    4.26400              23.50000   -0.11400    0.02200
    4.26400              26.20000   -0.12400    0.02200
    4.26400              29.20000   -0.16500    0.02200
    4.26400              31.70000   -0.20100    0.01500
    4.26400              34.50000   -0.29300    0.02600
    4.26400              37.00000   -0.32000    0.03000
    4.26400              40.00000   -0.42100    0.02400
    4.26400              43.00000   -0.44000    0.03000
    4.26400              45.80000   -0.38000    0.03000
    4.26400              48.20000   -0.30000    0.04000
    4.26400              51.30000   -0.48000    0.05000
    4.26400              53.80000   -0.50000    0.04000
    4.26400              56.30000   -0.47000    0.05000
    4.26400              58.80000   -0.52000    0.05000
    4.26400              61.30000   -0.53000    0.05000
    4.26400              64.20000   -0.34000    0.05000
    4.26400              66.20000   -0.32000    0.03000
    4.26400              69.00000   -0.41000    0.05000
    4.26400              71.70000   -0.38000    0.05000
    4.26400              73.70000   -0.38000    0.05000
    4.26400              76.70000   -0.52000    0.07000
    7.04200              12.00000   -0.06400    0.03000
    7.04200              14.90000    0.00000    0.02000
    7.04200              18.00000   -0.14000    0.04000
    7.04200              20.00000   -0.01500    0.02700
    7.04200              22.80000    0.07600    0.02500
    7.04200              25.50000    0.01300    0.02700
    7.04200              27.60000    0.01000    0.04000
    7.04200              31.30000   -0.23000    0.05000
    7.04200              32.50000    0.20000    0.06000
    7.04200              35.90000    0.24000    0.04000
    7.04200              37.80000    0.18000    0.05000
    7.04200              40.90000    0.21000    0.07000
    7.04200              42.60000    0.10000    0.08000
    7.04200              45.60000    0.10000    0.10000
    7.04200              48.30000   -0.01000    0.10000
    7.04200              51.30000    0.24000    0.10000
    7.04200              53.70000    0.22000    0.10000
    7.04200              56.50000    0.06000    0.13000
    7.27300              13.30000    0.14200    0.03000
    7.27300              15.50000    0.01000    0.02200
    7.27300              18.90000   -0.20000    0.03000
    7.27300              20.70000   -0.14000    0.04000
    7.27300              23.60000    0.13000    0.04000
    7.27300              26.20000    0.19000    0.04000
    7.27300              28.70000    0.12500    0.03000
    7.27300              31.90000   -0.21000    0.08000
    7.27300              34.00000    0.16000    0.08000
    7.27300              36.70000    0.30000    0.06000
    7.27300              39.40000    0.33000    0.05000
    7.27300              41.70000    0.35000    0.06000
    7.27300              44.30000    0.13000    0.08000
    7.27300              46.70000    0.39000    0.11000
    7.27300              49.00000    0.23000    0.08000
    7.27300              52.10000    0.35000    0.08000
    7.27300              54.40000    0.42000    0.10000
ENDDATA            122
ENDSUBENT          137
ENDENTRY             5
