ENTRY            O1827   20100127   20100809   20100806       O041
SUBENT        O1827001   20100127   20100809   20100806       O041
BIB                 13         20
TITLE      Octupole-strength concentration observed in alpha-
           scattering on Al-27.
AUTHOR     (C.Mayer-Boericke,  W.Oelert, A.Kiss, M.Rogge, P.Turek,
           S.Wiktor)
REFERENCE  (J,NP/A,293,189,1977)
INSTITUTE  (2GERJUL)
SAMPLE     The target was a 15 mg/cm**2 thick Al-27 foil.
FACILITY   (ISOCY,2GERJUL) The Julich isochronous cyclotron JULIC
DETECTOR   (TELES,SIBAR,GELI) Charged reaction products were
           detected by two delta-E-E telescopes, each telescope
           consist of a 2 mm Si surface-barrier delta-E detector
           and a 28 mm Ge(Li) E-detector.
INC-SOURCE *EN-RSL-FW*.The energy resolution was typically 250 keV
            FWHM.
METHOD     (EDE)
ADD-RES    (COMP).DWBA analysis.
ERR-ANALYS (ERR-DIG).Digitizing error of data.
           (ANG-ERR-D).Digitizing error of angle.
STATUS     (CURVE) By CAJAD
HISTORY    (20081126C) SB
ENDBIB              20
COMMON               2          3
EN         EN-RSL-FW
MEV        KEV
145.       250.
ENDCOMMON            3
ENDSUBENT           27
SUBENT        O1827002   20100127   20100809   20100806       O041
BIB                  3          5
REACTION   (13-AL-27(A,INL)13-AL-27,PAR,DA) fig 3
EN-SEC     (E-LVL,13-AL-27)
ERR-ANALYS (E-LVL-ERR).Level Energy Error
           (ERR-S).Only statistical errors due to counting rate
           are included.
ENDBIB               5
COMMON               2          3
ANG-ERR-D  ERR-DIG
ADEG       PER-CENT
0.22       5.
ENDCOMMON            3
DATA                 5        186
E-LVL      E-LVL-ERR  ANG-CM     DATA-CM    ERR-S
MEV        MEV        ADEG       MB/SR      PER-CENT
    2.20000    0.20000    6.72000   49.00000    8.00000
    2.20000    0.20000    7.85000   28.00000   11.00000
    2.20000    0.20000    8.96000   22.00000   14.00000
    2.20000    0.20000    9.13000   16.10000
    2.20000    0.20000    9.45000   11.10000
    2.20000    0.20000    9.93000    5.90000
    2.20000    0.20000   10.89000    5.70000    9.00000
    2.20000    0.20000   11.21000    7.30000
    2.20000    0.20000   12.00000    7.90000
    2.20000    0.20000   12.48000   10.60000   11.00000
    2.20000    0.20000   13.59000   14.30000
    2.20000    0.20000   14.55000   11.00000
    2.20000    0.20000   14.71000    8.80000   17.00000
    2.20000    0.20000   15.83000    8.80000
    2.20000    0.20000   17.11000    4.82000
    2.20000    0.20000   18.06000    4.30000   12.00000
    2.20000    0.20000   19.50000    4.62000
    2.20000    0.20000   20.61000    5.50000
    2.20000    0.20000   21.73000    4.95000
    2.20000    0.20000   23.00000    4.25000
    2.20000    0.20000   24.28000    3.03000
    2.20000    0.20000   25.08000    2.61000
    2.20000    0.20000   26.36000    2.33000
    2.20000    0.20000   28.75000    2.32000
    2.20000    0.20000   32.26000    1.47000
    2.20000    0.20000   35.77000    1.12000
    2.20000    0.20000   37.68000    0.69000
    2.20000    0.20000   41.19000    0.44000   11.00000
    2.20000    0.20000   44.55000    0.24000
    2.20000    0.20000   48.22000    0.15200
    5.40000    0.60000    6.29000    8.80000   24.00000
    5.40000    0.60000    6.77000    7.30000   27.00000
    5.40000    0.60000    7.25000    5.80000   24.00000
    5.40000    0.60000    8.05000    4.60000   13.00000
    5.40000    0.60000    8.37000    3.58000    8.00000
    5.40000    0.60000    9.16000    3.80000    8.00000
    5.40000    0.60000    9.96000    3.83000
    5.40000    0.60000   10.44000    3.60000   11.00000
    5.40000    0.60000   10.76000    2.95000    9.00000
    5.40000    0.60000   11.40000    2.90000   10.00000
    5.40000    0.60000   11.88000    2.80000   11.00000
    5.40000    0.60000   12.51000    2.93000
    5.40000    0.60000   13.63000    2.81000
    5.40000    0.60000   14.75000    2.01000   11.00000
    5.40000    0.60000   14.91000    1.67000
    5.40000    0.60000   16.19000    1.43000
    5.40000    0.60000   16.98000    1.43000
    5.40000    0.60000   18.26000    1.06000   11.00000
    5.40000    0.60000   19.53000    1.31000   10.00000
    5.40000    0.60000   20.81000    1.13000
    5.40000    0.60000   21.77000    1.04000
    5.40000    0.60000   23.04000    0.89000
    5.40000    0.60000   24.32000    0.74000
    5.40000    0.60000   25.28000    0.79000
    5.40000    0.60000   26.55000    0.73000
    5.40000    0.60000   28.78000    0.73000
    5.40000    0.60000   32.29000    0.46000
    5.40000    0.60000   35.64000    0.45000    9.00000
    5.40000    0.60000   37.87000    0.33500
    5.40000    0.60000   41.39000    0.18300    7.00000
    5.40000    0.60000   44.74000    0.11200
    5.40000    0.60000   48.40000    0.08500
    6.50000    0.50000    6.18000    9.40000   23.00000
    6.50000    0.50000    6.97000    9.60000   12.00000
    6.50000    0.50000    7.61000    6.80000
    6.50000    0.50000    8.41000    7.30000
    6.50000    0.50000    9.20000    8.10000
    6.50000    0.50000    9.68000    7.00000
    6.50000    0.50000   10.48000    7.30000
    6.50000    0.50000   10.96000    4.70000
    6.50000    0.50000   11.28000    3.64000
    6.50000    0.50000   12.09000    2.62000
    6.50000    0.50000   12.57000    1.82000
    6.50000    0.50000   14.16000    1.82000
    6.50000    0.50000   15.11000    2.43000
    6.50000    0.50000   16.23000    2.43000
    6.50000    0.50000   17.35000    2.25000
    6.50000    0.50000   18.47000    1.40000
    6.50000    0.50000   19.74000    1.09000
    6.50000    0.50000   20.86000    0.81000
    6.50000    0.50000   22.13000    1.01000
    6.50000    0.50000   23.09000    1.08000
    6.50000    0.50000   24.21000    0.93000    9.00000
    6.50000    0.50000   25.33000    0.65000
    6.50000    0.50000   26.60000    0.67000
    6.50000    0.50000   28.84000    0.43300
    6.50000    0.50000   32.34000    0.44800
    6.50000    0.50000   35.70000    0.24000   10.00000
    6.50000    0.50000   38.25000    0.21500
    6.50000    0.50000   41.44000    0.16600
    6.50000    0.50000   44.95000    0.08600
    6.50000    0.50000   48.30000    0.06900    7.00000
    7.40000    0.40000    6.54000   15.20000   11.00000
    7.40000    0.40000    6.86000   13.10000   11.00000
    7.40000    0.40000    8.45000   13.50000
    7.40000    0.40000    9.73000   11.70000
    7.40000    0.40000   10.37000    9.00000
    7.40000    0.40000   10.85000    7.50000
    7.40000    0.40000   11.33000    5.60000
    7.40000    0.40000   12.13000    4.49000
    7.40000    0.40000   12.93000    3.35000
    7.40000    0.40000   14.04000    2.89000
    7.40000    0.40000   15.00000    3.30000   12.00000
    7.40000    0.40000   16.27000    3.45000
    7.40000    0.40000   17.39000    3.08000
    7.40000    0.40000   18.51000    2.30000   12.00000
    7.40000    0.40000   19.63000    1.77000
    7.40000    0.40000   20.90000    1.59000
    7.40000    0.40000   22.02000    1.58000
    7.40000    0.40000   23.29000    1.70000
    7.40000    0.40000   24.41000    1.41000
    7.40000    0.40000   25.37000    1.31000
    7.40000    0.40000   26.48000    1.09000
    7.40000    0.40000   28.88000    0.81000
    7.40000    0.40000   32.54000    0.72000
    7.40000    0.40000   35.90000    0.42800
    7.40000    0.40000   38.13000    0.28500
    7.40000    0.40000   41.64000    0.19600
    7.40000    0.40000   45.15000    0.13100
    7.40000    0.40000   48.34000    0.08400
    9.30000    0.40000    6.53000    7.30000   12.00000
    9.30000    0.40000    7.01000    5.00000    8.00000
    9.30000    0.40000    7.80000    3.63000
    9.30000    0.40000    8.43000    3.62000
    9.30000    0.40000    8.43000    4.35000
    9.30000    0.40000    8.91000    4.34000
    9.30000    0.40000    9.38000    3.89000
    9.30000    0.40000    9.85000    4.50000
    9.30000    0.40000   10.49000    3.88000
    9.30000    0.40000   11.28000    2.79000
    9.30000    0.40000   11.76000    1.87000   10.00000
    9.30000    0.40000   12.24000    1.61000    9.00000
    9.30000    0.40000   12.71000    1.25000
    9.30000    0.40000   13.82000    1.24000
    9.30000    0.40000   15.08000    1.29000
    9.30000    0.40000   15.25000    1.00000    7.00000
    9.30000    0.40000   16.35000    1.07000
    9.30000    0.40000   17.61000    1.28000
    9.30000    0.40000   18.73000    0.89000   10.00000
    9.30000    0.40000   19.83000    0.76000
    9.30000    0.40000   21.10000    0.68000
    9.30000    0.40000   22.21000    0.50900
    9.30000    0.40000   23.16000    0.63000   10.00000
    9.30000    0.40000   24.58000    0.63000
    9.30000    0.40000   25.37000    0.59000
    9.30000    0.40000   26.95000    0.50400
    9.30000    0.40000   28.85000    0.33600
    9.30000    0.40000   32.49000    0.27800
    9.30000    0.40000   35.97000    0.19900
    9.30000    0.40000   38.19000    0.20500    9.00000
    9.30000    0.40000   41.51000    0.14700
    9.30000    0.40000   44.84000    0.08100    9.00000
    9.30000    0.40000   48.32000    0.04340
   10.20000    0.50000    6.58000    9.50000   12.00000
   10.20000    0.50000    7.22000    5.30000    9.00000
   10.20000    0.50000    7.85000    4.10000
   10.20000    0.50000    8.49000    3.81000
   10.20000    0.50000    8.80000    4.25000
   10.20000    0.50000    9.43000    5.10000
   10.20000    0.50000    9.43000    5.90000
   10.20000    0.50000   10.06000    5.69000
   10.20000    0.50000   10.70000    5.10000
   10.20000    0.50000   11.17000    3.67000
   10.20000    0.50000   11.81000    2.46000
   10.20000    0.50000   12.60000    2.37000
   10.20000    0.50000   13.08000    1.71000   11.00000
   10.20000    0.50000   14.19000    1.43000   10.00000
   10.20000    0.50000   14.19000    1.11000    9.00000
   10.20000    0.50000   15.29000    1.71000    8.00000
   10.20000    0.50000   16.56000    1.53000
   10.20000    0.50000   17.82000    1.53000
   10.20000    0.50000   18.62000    1.48000
   10.20000    0.50000   20.04000    1.23000
   10.20000    0.50000   20.99000    0.99000
   10.20000    0.50000   22.26000    0.71000
   10.20000    0.50000   23.36000    0.92000
   10.20000    0.50000   24.47000    0.66000
   10.20000    0.50000   25.58000    0.86000
   10.20000    0.50000   26.84000    0.77000
   10.20000    0.50000   29.22000    0.44000    9.00000
   10.20000    0.50000   32.54000    0.39900
   10.20000    0.50000   34.92000    0.24000    8.00000
   10.20000    0.50000   38.08000    0.18600
   10.20000    0.50000   41.72000    0.15500
   10.20000    0.50000   45.05000    0.09300    8.00000
   10.20000    0.50000   48.37000    0.06500
ENDDATA            188
ENDSUBENT          202
SUBENT        O1827003   20100127   20100809   20100806       O041
BIB                  2          3
REACTION   (13-AL-27(A,INL)13-AL-27,,DA/DE) fig 4
EN-SEC     (E-EXC-MIN,13-AL-27)
           (E-EXC-MAX,13-AL-27)
ENDBIB               3
COMMON               4          3
E-EXC-MIN  E-EXC-MAX  ANG-ERR-D  ERR-DIG
MEV        MEV        ADEG       PER-CENT
4.         14.        0.17       4.
ENDCOMMON            3
DATA                 2         30
ANG-CM     DATA-CM
ADEG       MB/SR/MEV
       6.19       106.
       6.68        76.
       7.29       58.7
       7.89        51.
       8.74        62.
       9.59       55.4
      10.19       55.4
      10.68        43.
      11.05       31.5
      11.89       29.8
      12.51       20.1
      13.71       21.2
      14.81       17.4
      16.02       16.5
      16.99       16.5
      18.56       11.1
      19.53       11.4
      20.75        9.1
      21.96        8.6
       22.8        8.6
      24.01        7.7
      25.35       7.04
      26.44       6.84
      28.62       4.74
      32.13       3.99
      35.64       3.18
      38.07       2.26
      41.22       1.52
      44.62       0.89
      48.25      0.567
ENDDATA             32
ENDSUBENT           44
ENDENTRY             3
