ENTRY            O1829   20100216   20100809   20100806       O041
SUBENT        O1829001   20100216   20100809   20100806       O041
BIB                 11         23
TITLE      Microscopic and macroscopic DWBA analysis of the
           reactions  Si-28(a,d)P-30, S-32(d,a)P-30 and
           S-32(a,d)Cl-34 studied at E(a)=50 MeV and
           E(d)=40 MeV.
AUTHOR     (R.J.De Meijer, L.W.Put, J.J.Akkerman, J.C.Vermeulen,
           C.R.Bingham)
INSTITUTE  (2NEDKVI)
           (1USATEN)
REFERENCE  (J,NP/A,386,200,1982)
           (J,PL/B,107,14,1981) theory
FACILITY   (CYCLO,2NEDKVI)
ADD-RES    (COMP).Microscopic, macroscopic DWBA calculations.
DETECTOR   (TELES) delta-E-E silicon counter telescopes.
METHOD     (EDE)
           (BCINT)
STATUS     (CURVE) By CAJAD.
ERR-ANALYS (ERR-SYS).The error in the absolute cross sections is
           estimated to be about 25%, due to the uncertainties in
           the target thickness and the solid angles.
           (ANG-ERR-D).Digitizing error of angle.
           (ERR-DIG).Digitizing error of data.
           (DATA-ERR).The error is reported by authors on fig.
HISTORY    (20100216C) S.B
ENDBIB              23
COMMON               3          3
ANG-ERR-D  ERR-SYS    ERR-DIG
ADEG       PER-CENT   PER-CENT
0.28       25.        2.
ENDCOMMON            3
ENDSUBENT           30
SUBENT        O1829002   20100217   20100809   20100806       O041
BIB                  5         27
REACTION   (14-SI-28(A,D)15-P-30,PAR,DA) Fig 11-14
SAMPLE     A self-supporting Si-nat foil, enriched to 92% Si-28,
           thickness of 85-mug/cm**2 thick were used.
CORRECTION Correction for oxygen contamination by using the known
           cross section for the O-16(a,d)F-18 reaction
EN-SEC     (E-LVL,15-P-30)
LEVEL-PROP (15-P-30,E-LVL=0.000,SPIN=1.,PARITY=+1.)
           (15-P-30,E-LVL=0.710,SPIN=1.,PARITY=+1.)
           (15-P-30,E-LVL=1.970,SPIN=3.,PARITY=+1.)
           (15-P-30,E-LVL=2.540,SPIN=3.,PARITY=+1.)
           (15-P-30,E-LVL=2.720,SPIN=2.,PARITY=+1.)
           (15-P-30,E-LVL=2.840,SPIN=3.,PARITY=+1.)
           (15-P-30,E-LVL=3.020,SPIN=1.,PARITY=+1.)
           (15-P-30,E-LVL=3.920,SPIN=3.,PARITY=+1.)
           (15-P-30,E-LVL=4.130,SPIN=2.,PARITY=-1.)
           (15-P-30,E-LVL=4.230,SPIN=4.,PARITY=-1.)
           (15-P-30,E-LVL=4.340,SPIN=5.,PARITY=+1.)
           (15-P-30,E-LVL=4.620,SPIN=3.,PARITY=-1.)
           (15-P-30,E-LVL=4.930,SPIN=3.,PARITY=-1.)
           (15-P-30,E-LVL=5.020,SPIN=3.,PARITY=-1.)
           (15-P-30,E-LVL=5.810,SPIN=3.,PARITY=+1.)
           (15-P-30,E-LVL=6.010,SPIN=1.,PARITY=+1.)
           (15-P-30,E-LVL=6.480,SPIN=6.,PARITY=-1.)
           (15-P-30,E-LVL=6.800,SPIN=7.,PARITY=+1.)
           (15-P-30,E-LVL=6.890,SPIN=2.,PARITY=-1.)
           (15-P-30,E-LVL=7.200,SPIN=7.,PARITY=+1.)
           (15-P-30,E-LVL=7.370,SPIN=5.,PARITY=+1.)
ENDBIB              27
COMMON               1          3
EN
MEV
50.
ENDCOMMON            3
DATA                 4        393
E-LVL      ANG-CM     DATA-CM    DATA-ERR
MEV        ADEG       MB/SR      PER-CENT
    0.00000    6.43000  464.00000
    0.00000    8.64000  368.00000
    0.00000   10.89000  208.00000
    0.00000   13.69000  179.00000   15.00000
    0.00000   16.55000   79.00000   14.00000
    0.00000   18.97000   62.00000   15.00000
    0.00000   21.91000  110.00000   11.00000
    0.00000   25.50000  108.30000
    0.00000   32.92000   69.00000   13.00000
    0.00000   38.53000   52.00000   13.00000
    0.00000   44.11000   51.30000
    0.00000   49.53000   36.00000   14.00000
    0.00000   54.93000   28.00000   21.00000
    0.00000   60.18000   13.00000   23.00000
    0.71000    6.32000  507.00000
    0.71000    8.54000  384.00000
    0.71000   10.74000  344.00000
    0.71000   13.80000  160.00000   25.00000
    0.71000   16.64000   93.00000   11.00000
    0.71000   19.53000   27.00000   22.00000
    0.71000   21.94000   24.00000   25.00000
    0.71000   25.25000   55.00000
    0.71000   33.03000   56.00000   16.00000
    0.71000   38.41000   61.00000
    0.71000   44.03000   39.00000   15.00000
    0.71000   49.41000   41.50000
    0.71000   54.80000   38.00000   21.00000
    0.71000   60.41000   27.00000   19.00000
    1.45000    6.91000  210.00000   14.00000
    1.45000    8.75000  127.50000
    1.45000   11.15000  115.00000    9.00000
    1.45000   14.21000   54.00000   15.00000
    1.45000   16.63000   40.00000   18.00000
    1.45000   19.47000   24.00000   25.00000
    1.45000   22.24000   28.00000   29.00000
    1.45000   25.43000   30.00000   13.00000
    1.45000   33.60000   32.00000   16.00000
    1.45000   38.56000   41.00000   12.00000
    1.45000   44.37000   29.00000   14.00000
    1.45000   49.56000   29.00000   14.00000
    1.45000   55.23000   10.50000   27.00000
    1.45000   60.63000    8.90000   30.00000
    1.97000    4.91000  380.00000   16.00000
    1.97000    6.85000  549.00000
    1.97000    9.22000  644.00000
    1.97000   12.03000  652.00000
    1.97000   14.87000  533.00000
    1.97000   17.92000  424.00000
    1.97000   20.58000  299.00000
    1.97000   24.09000  167.00000
    1.97000   31.62000   91.30000
    1.97000   37.28000   68.00000   12.00000
    1.97000   42.72000   56.90000
    1.97000   48.37000   46.40000
    1.97000   53.62000   37.00000   14.00000
    1.97000   59.05000   33.00000   12.00000
    2.54000    5.27000  479.00000
    2.54000    7.67000  490.00000   10.00000
    2.54000    9.88000  480.00000
    2.54000   12.53000  384.00000
    2.54000   15.37000  311.00000
    2.54000   18.25000  194.00000
    2.54000   21.31000  147.00000
    2.54000   24.43000   76.00000   12.00000
    2.54000   32.44000   76.00000   16.00000
    2.54000   37.91000   54.00000   13.00000
    2.54000   43.50000   61.90000
    2.54000   48.90000   67.30000
    2.54000   54.49000   23.00000   26.00000
    2.54000   59.70000   23.00000   13.00000
    2.72000    6.41000   90.00000   30.00000
    2.72000    8.42000   92.00000   18.00000
    2.72000   10.85000   74.00000   20.00000
    2.72000   13.70000   61.00000   20.00000
    2.72000   16.44000   29.00000   17.00000
    2.72000   19.42000   11.00000   40.00000
    2.72000   22.04000   30.00000   23.00000
    2.72000   25.63000   11.00000   27.00000
    2.72000   33.34000   19.00000   21.00000
    2.72000   38.86000   10.60000   25.00000
    2.84000    4.78000  230.00000   13.00000
    2.84000    7.09000  211.00000
    2.84000    9.43000  168.00000
    2.84000   12.35000  162.00000
    2.84000   15.28000  158.00000
    2.84000   18.00000  146.00000
    2.84000   20.75000  123.00000   13.00000
    2.84000   24.16000   83.00000   10.00000
    2.84000   31.82000   37.00000   16.00000
    2.84000   37.44000   39.00000   15.00000
    2.84000   43.37000   24.00000   12.00000
    2.84000   48.61000   21.00000   14.00000
    2.84000   54.04000   20.00000   20.00000
    2.84000   59.46000   20.00000   15.00000
    3.02000    6.11000  120.00000   25.00000
    3.02000   13.43000   70.00000   24.00000
    3.02000   16.35000   58.00000   16.00000
    3.02000   18.92000   31.00000   19.00000
    3.02000   21.80000   37.00000   19.00000
    3.02000   25.20000   20.00000   20.00000
    3.02000   32.63000   24.00000   17.00000
    3.02000   38.33000   11.10000   16.00000
    3.02000   49.04000   19.00000   16.00000
    3.02000   54.49000   11.00000   27.00000
    3.02000   60.17000    6.30000   25.00000
    3.82000   10.63000   57.00000   25.00000
    3.82000   13.45000   24.00000   29.00000
    3.82000   16.26000   45.00000   13.00000
    3.82000   19.46000   24.00000   25.00000
    3.82000   21.93000   28.00000   21.00000
    3.82000   25.25000   26.00000   15.00000
    3.82000   33.00000   15.00000   27.00000
    3.82000   44.28000    7.90000   30.00000
    3.82000   49.49000    6.30000   21.00000
    3.92000    4.53000   75.00000   21.00000
    3.92000    6.74000  120.00000   13.00000
    3.92000    8.91000  102.00000   14.00000
    3.92000   11.88000   82.00000   16.00000
    3.92000   14.85000   74.00000   18.00000
    3.92000   17.40000   38.00000   18.00000
    3.92000   20.40000   58.00000   16.00000
    3.92000   23.73000   21.00000   19.00000
    3.92000   31.27000   22.00000   23.00000
    3.92000   36.61000   16.00000   25.00000
    3.92000   42.34000    7.50000   40.00000
    3.92000   47.65000    2.90000   40.00000
    3.92000   53.05000    7.40000   40.00000
    3.92000   58.61000    8.60000   30.00000
    4.13000    4.73000  400.00000   13.00000
    4.13000    6.91000  375.00000
    4.13000    9.49000  374.00000
    4.13000   12.07000  349.00000
    4.13000   15.04000  304.00000
    4.13000   17.63000  368.00000
    4.13000   20.60000  299.00000
    4.13000   23.75000  173.00000
    4.13000   31.84000   70.40000
    4.13000   37.01000   82.00000   15.00000
    4.13000   42.78000  112.60000
    4.13000   48.11000   67.00000
    4.13000   53.67000   63.00000   16.00000
    4.13000   59.03000   62.20000
    4.23000    5.53000 1022.00000
    4.23000    8.30000  774.00000
    4.23000   10.49000  912.00000
    4.23000   13.06000  761.00000
    4.23000   15.84000  709.00000
    4.23000   18.80000  488.00000
    4.23000   21.77000  480.00000
    4.23000   24.94000  364.00000
    4.23000   32.66000  256.00000
    4.23000   38.58000  108.60000
    4.23000   44.11000   67.70000
    4.23000   49.29000   93.90000
    4.23000   55.02000   53.00000   17.00000
    4.23000   60.19000   66.10000    1.80000
    4.34000    4.37000  210.00000   14.00000
    4.34000    6.38000  256.00000
    4.34000    8.38000  214.00000
    4.34000   11.18000  184.00000
    4.34000   14.18000  200.00000
    4.34000   16.98000  170.00000
    4.34000   19.98000  179.00000
    4.34000   23.18000  115.70000
    4.34000   30.77000   57.00000   14.00000
    4.34000   36.17000   37.00000   14.00000
    4.34000   41.77000   24.00000   17.00000
    4.34000   47.17000   26.80000
    4.34000   52.38000   29.00000   21.00000
    4.62000    4.93000  270.00000   15.00000
    4.62000    7.13000  212.00000   14.00000
    4.62000    9.73000  224.00000
    4.62000   12.33000  164.00000
    4.62000   15.13000  151.10000
    4.62000   18.12000   88.00000   14.00000
    4.62000   20.92000   63.00000   16.00000
    4.62000   24.32000   42.00000   12.00000
    4.62000   31.92000   24.00000   21.00000
    4.62000   37.73000   59.00000   12.00000
    4.62000   43.12000   22.00000   23.00000
    4.62000   48.33000   28.90000
    4.62000   54.32000   16.00000   30.00000
    4.62000   59.14000   29.00000   17.00000
    4.93000    5.87000  822.00000
    4.93000    8.27000  690.00000
    4.93000   10.26000  587.00000
    4.93000   13.06000  499.00000
    4.93000   16.06000  413.00000
    4.93000   18.66000  316.00000
    4.93000   21.66000  334.00000
    4.93000   25.06000  262.00000
    4.93000   33.07000  214.00000
    4.93000   38.66000  115.10000
    4.93000   44.06000   92.90000
    4.93000   49.46000   71.00000
    4.93000   55.06000   52.00000   19.00000
    4.93000   60.66000   40.00000   13.00000
    5.02000    6.24000   50.00000   20.00000
    5.02000    8.62000   79.00000   13.00000
    5.02000   10.59000   70.80000
    5.02000   13.53000   56.00000   14.00000
    5.02000   16.09000   47.00000   15.00000
    5.02000   19.04000   51.00000   10.00000
    5.02000   21.61000   60.00000   13.00000
    5.02000   24.94000   29.00000   14.00000
    5.02000   32.81000   26.00000   15.00000
    5.02000   38.48000    6.90000   30.00000
    5.60000    8.30000  135.10000
    5.60000   10.45000   85.00000   15.00000
    5.60000   13.22000  123.00000   17.00000
    5.60000   15.96000   80.00000   15.00000
    5.60000   18.71000   55.00000   20.00000
    5.60000   21.86000   56.00000   18.00000
    5.60000   32.67000   24.00000   25.00000
    5.60000   49.02000   39.00000   13.00000
    5.60000   59.61000    9.00000   30.00000
    5.81000    8.37000  122.00000   13.00000
    5.81000   10.93000  140.00000    8.00000
    5.81000   13.49000  115.00000   16.00000
    5.81000   16.23000   82.00000   15.00000
    5.81000   19.19000   91.00000   11.00000
    5.81000   21.94000   79.00000   13.00000
    5.81000   25.28000   52.00000   17.00000
    5.81000   32.94000   30.00000   17.00000
    5.81000   38.64000   17.90000   13.00000
    5.81000   43.94000   10.50000   27.00000
    5.81000   49.47000   18.30000   16.00000
    5.81000   54.77000   10.60000   27.00000
    5.81000   59.71000   21.00000   14.00000
    5.91000    6.50000  239.00000
    5.91000    8.50000  134.00000
    5.91000   11.10000  123.00000
    5.91000   13.90000   76.30000
    5.91000   17.00000   66.20000
    5.91000   19.60000   57.50000
    5.91000   22.60000   53.50000
    5.91000   25.70000   30.50000
    5.91000   39.00000   27.80000
    5.91000   44.60000   33.60000
    5.91000   50.00000   18.20000
    5.91000   60.90000   12.30000
    6.01000    8.20000  120.00000
    6.01000   10.50000   60.50000
    6.01000   13.30000   64.90000
    6.01000   16.10000   52.50000
    6.01000   19.00000   47.20000
    6.01000   21.50000   35.00000
    6.01000   24.80000   36.20000
    6.01000   32.50000   18.80000
    6.01000   43.70000   35.40000
    6.01000   49.00000   26.70000
    6.01000   59.80000    6.86000
    6.20000   17.00000  381.00000
    6.20000   20.10000  314.00000
    6.20000   22.60000  258.00000
    6.20000   26.00000  185.00000
    6.20000   33.70000   99.70000
    6.20000   44.70000   54.80000
    6.20000   50.50000   57.80000
    6.20000   55.90000   57.00000   14.00000
    6.20000   61.30000   28.00000   21.00000
    6.48000    7.16000 1500.00000
    6.48000    9.57000  953.00000
    6.48000   20.32000  530.00000
    6.48000   26.05000  450.00000
    6.48000   33.93000  299.00000
    6.48000   39.19000  216.00000
    6.48000   44.68000  190.00000
    6.48000   50.20000   75.10000
    6.48000   55.69000   75.00000   13.00000
    6.48000   61.18000   66.80000
    6.60000    6.60000  537.00000
    6.60000    8.77000  344.00000
    6.60000   11.39000  344.00000
    6.60000   14.02000  256.00000
    6.60000   32.91000   68.00000   12.00000
    6.60000   38.64000   63.00000
    6.60000   44.14000   43.90000
    6.60000   49.86000   42.50000
    6.60000   54.89000   26.00000   19.00000
    6.68000    7.50000  210.00000   14.00000
    6.68000    9.62000  384.00000
    6.68000   11.53000  355.00000
    6.68000   14.63000  338.00000
    6.68000   17.26000  344.00000
    6.68000   20.39000  141.00000
    6.68000   34.01000   63.00000   13.00000
    6.68000   39.75000   49.00000   12.00000
    6.68000   44.78000   26.00000   15.00000
    6.68000   55.77000   14.00000   29.00000
    6.80000    8.60000  180.00000   17.00000
    6.80000   10.60000  135.00000    7.00000
    6.80000   12.90000  130.00000
    6.80000   15.50000  111.00000   13.00000
    6.80000   18.30000   86.40000
    6.80000   21.10000  116.90000
    6.80000   24.20000  112.80000
    6.80000   34.60000   18.00000   22.00000
    6.80000   40.50000   24.00000   17.00000
    6.80000   45.90000   23.00000   22.00000
    6.80000   51.30000   17.70000   15.00000
    6.80000   56.70000   15.00000   27.00000
    6.89000    6.50000  147.00000   19.00000
    6.89000    9.40000  230.00000   13.00000
    6.89000   11.10000  166.00000
    6.89000   13.90000  134.00000
    6.89000   17.00000  152.00000
    6.89000   19.80000   91.00000   11.00000
    6.89000   22.40000   65.00000   14.00000
    6.89000   25.70000   43.00000   16.00000
    6.89000   38.70000   27.70000   10.00000
    6.89000   49.40000   15.20000   16.00000
    6.89000   55.30000   15.00000   27.00000
    6.89000   60.70000    9.20000   28.00000
    7.05000    7.00000  340.00000   12.00000
    7.05000    9.30000  331.00000
    7.05000   11.90000  293.00000
    7.05000   14.40000  241.00000
    7.05000   17.30000  232.00000
    7.05000   20.00000  163.00000
    7.05000   23.10000  113.00000   11.00000
    7.05000   26.20000   78.00000   14.00000
    7.05000   39.50000   50.80000
    7.05000   44.80000   36.30000
    7.05000   50.50000   35.00000   11.00000
    7.05000   61.20000   15.80000   15.00000
    7.20000    5.75000 2410.00000
    7.20000    8.20000 2560.00000
    7.20000   10.45000 2780.00000
    7.20000   13.32000 2710.00000
    7.20000   16.00000 2220.00000
    7.20000   18.69000 1820.00000
    7.20000   21.99000 1500.00000
    7.20000   24.90000 1052.00000
    7.20000   33.15000  680.00000
    7.20000   38.29000  574.00000
    7.20000   44.27000  398.00000
    7.20000   49.82000  346.00000
    7.20000   54.99000  230.00000
    7.20000   60.35000  168.00000
    7.37000    6.11000 2800.00000
    7.37000    8.19000 2240.00000
    7.37000   10.25000 2090.00000
    7.37000   12.95000 1504.00000
    7.37000   16.44000 1366.00000
    7.37000   19.13000 1110.00000
    7.37000   22.02000  967.00000
    7.37000   25.33000  714.00000
    7.37000   33.42000  316.00000
    7.37000   50.29000  170.00000
    7.37000   55.68000  100.70000
    8.66000    6.38000  300.00000   13.00000
    8.66000    8.48000  190.00000   11.00000
    8.66000   10.90000  261.00000   10.00000
    8.66000   13.59000  201.00000   10.00000
    8.66000   16.65000  222.00000
    8.66000   19.57000  145.10000
    8.66000   22.42000  171.00000
    8.66000   26.01000   72.00000   18.00000
    8.66000   33.62000   56.00000   13.00000
    8.66000   39.38000   44.00000   14.00000
    8.66000   45.08000   58.00000    9.00000
    8.66000   50.25000   40.00000   10.00000
    8.66000   56.00000   34.00000   15.00000
    8.66000   61.55000   31.00000   13.00000
    8.98000    7.34000  496.00000
    8.98000    9.77000  466.00000
    8.98000   11.97000  473.00000
    8.98000   14.84000  407.00000
    8.98000   17.70000  377.00000
    8.98000   20.35000  319.00000
    8.98000   22.99000  255.00000
    8.98000   26.31000  165.00000
    8.98000   34.24000  111.30000
    8.98000   40.19000   84.80000
    8.98000   45.48000   77.30000
    8.98000   50.99000   68.40000
    8.98000   56.72000   53.00000   11.00000
    8.98000   61.80000   36.00000   14.00000
    9.58000    7.20000  860.00000   10.00000
    9.58000    8.96000  790.00000    8.00000
    9.58000   11.60000  860.00000    6.00000
    9.58000   14.69000  845.00000
    9.58000   16.89000  673.00000
    9.58000   19.76000  521.00000
    9.58000   22.63000  385.00000
    9.58000   26.16000  276.00000
    9.58000   34.09000  231.00000
    9.58000   39.60000  173.00000
    9.58000   45.34000  132.20000
    9.58000   50.63000   99.30000
    9.58000   56.15000   53.00000   11.00000
    9.58000   61.43000   54.00000   13.00000
ENDDATA            395
ENDSUBENT          431
SUBENT        O1829003   20100217   20100809   20100806       O041
BIB                  4         20
REACTION   (16-S-32(A,D)17-CL-34,PAR,DA) Fig 17-18
SAMPLE     A solid and gas target were used. The solid target,
           consisted of 350 mug/cm**2 sulphur evaporated on carbon
           foil, 10 mug/cm**2 thick.
           For absolute cross section measurements a 70 mm
           diameter gas cell was used with 12 mum thick Kapton
           windows.
EN-SEC     (E-LVL,17-CL-34)
LEVEL-PROP (17-CL-34,E-LVL=0.000,SPIN=3.,PARITY=+1.)
           (17-CL-34,E-LVL=0.460,SPIN=1.,PARITY=+1.)
           (17-CL-34,E-LVL=1.230,SPIN=2.,PARITY=+1.)
           (17-CL-34,E-LVL=2.180,SPIN=3.,PARITY=+1.)
           (17-CL-34,E-LVL=2.720,SPIN=2.,PARITY=-1.)
           (17-CL-34,E-LVL=3.600,SPIN=4.,PARITY=-1.)
           (17-CL-34,E-LVL=4.060,SPIN=4.,PARITY=-1.)
           (17-CL-34,E-LVL=4.650,SPIN=2.,PARITY=-1.)
           (17-CL-34,E-LVL=4.950,SPIN=1.,PARITY=+1.)
           (17-CL-34,E-LVL=5.220,SPIN=3.,PARITY=+1.)
           (17-CL-34,E-LVL=5.790,SPIN=3.,PARITY=+1.)
           (17-CL-34,E-LVL=6.300,SPIN=3.,PARITY=+1.)
ENDBIB              20
COMMON               1          3
EN
MEV
50.
ENDCOMMON            3
DATA                 4        166
E-LVL      ANG-CM     DATA-CM    DATA-ERR
MEV        ADEG       MB/SR      PER-CENT
    0.15000    6.40000   87.00000   14.00000
    0.15000    8.30000  132.00000   14.00000
    0.15000   10.70000  147.00000   14.00000
    0.15000   13.60000  131.00000   11.00000
    0.15000   16.00000  109.00000   15.00000
    0.15000   18.90000   80.00000   14.00000
    0.15000   21.60000   48.00000   13.00000
    0.15000   27.00000   22.00000   18.00000
    0.15000   32.60000   17.00000   29.00000
    0.15000   43.00000    7.40000   30.00000
    0.15000   53.60000    3.60000   28.00000
    0.15000   64.30000    1.80000   50.00000
    0.46000    6.20000  117.00000    7.00000
    0.46000    8.40000   90.00000   10.00000
    0.46000   10.00000   77.00000   13.00000
    0.46000   13.40000   49.00000   18.00000
    0.46000   16.10000   37.00000   14.00000
    0.46000   18.50000   18.50000   15.00000
    0.46000   20.70000   16.90000   16.00000
    0.46000   26.80000   21.00000   14.00000
    0.46000   32.10000   10.00000   40.00000
    0.46000   42.50000    2.00000   50.00000
    0.46000   54.00000    1.90000   50.00000
    0.46000   64.10000    0.90000   70.00000
    1.23000    6.10000   26.00000   19.00000
    1.23000    8.20000   31.00000   16.00000
    1.23000   10.60000   17.00000   24.00000
    1.23000   13.00000   21.00000   19.00000
    1.23000   15.90000    7.10000   25.00000
    1.23000   18.60000   12.00000   25.00000
    1.23000   21.30000    8.20000   16.00000
    1.23000   27.20000    3.00000   30.00000
    1.23000   32.50000    9.00000   40.00000
    1.23000   43.40000    2.00000   50.00000
    2.18000    8.87000   43.00000   16.00000
    2.18000   11.11000   40.00000   13.00000
    2.18000   12.99000   39.00000   15.00000
    2.18000   15.55000   29.00000   17.00000
    2.18000   18.59000   32.00000   16.00000
    2.18000   21.17000   13.90000   21.00000
    2.18000   23.93000   11.00000    8.00000
    2.18000   29.02000    3.00000   30.00000
    2.18000   34.49000    3.00000   60.00000
    2.18000   45.30000    1.00000   60.00000
    2.18000   55.68000    1.00000   60.00000
    2.18000   66.63000    1.00000   60.00000
    2.72000    5.55000   52.00000   15.00000
    2.72000    8.01000   72.00000   14.00000
    2.72000    9.81000   67.00000   13.00000
    2.72000   12.51000   68.00000   15.00000
    2.72000   15.44000   71.00000   15.00000
    2.72000   18.16000   46.00000   13.00000
    2.72000   21.09000   31.00000   16.00000
    2.72000   26.28000   20.00000   15.00000
    2.72000   31.50000    6.10000   40.00000
    2.72000   42.52000    7.90000   29.00000
    2.72000   52.92000    2.00000   50.00000
    2.72000   63.07000    1.00000   70.00000
    3.60000    5.24000  370.00000   14.00000
    3.60000    7.72000  350.00000   11.00000
    3.60000    9.97000  300.00000   13.00000
    3.60000   12.68000  260.00000   15.00000
    3.60000   15.38000  233.00000   12.00000
    3.60000   18.09000  172.00000   13.00000
    3.60000   21.04000  109.00000   17.00000
    3.60000   26.45000   79.00000   18.00000
    3.60000   31.85000   89.00000   13.00000
    3.60000   43.17000   11.80000   17.00000
    3.60000   53.97000   10.60000   15.00000
    3.60000   64.58000    5.30000   21.00000
    4.06000    7.45000  136.00000   15.00000
    4.06000    9.57000  128.00000   15.00000
    4.06000   11.92000  128.00000   14.00000
    4.06000   14.50000  121.00000   15.00000
    4.06000   17.32000  114.00000   14.00000
    4.06000   20.11000   65.00000   18.00000
    4.06000   22.91000   51.00000   18.00000
    4.06000   28.31000   41.00000   15.00000
    4.06000   33.63000   11.00000   40.00000
    4.06000   44.15000    3.90000   26.00000
    4.06000   55.21000    4.00000   23.00000
    4.06000   65.31000    2.90000   30.00000
    4.42000    6.95000   53.00000   11.00000
    4.42000   11.42000   56.00000   14.00000
    4.42000   14.24000   54.00000   17.00000
    4.42000   17.07000   58.00000   19.00000
    4.42000   19.59000   21.00000   24.00000
    4.42000   22.65000   21.00000   14.00000
    4.42000   27.81000   16.00000   25.00000
    4.42000   33.37000    5.00000   60.00000
    4.42000   44.13000    1.90000   50.00000
    4.42000   55.00000    4.00000   25.00000
    4.42000   65.31000    1.90000   50.00000
    4.65000    6.66000  127.00000   15.00000
    4.65000    9.01000  119.00000   15.00000
    4.65000   11.59000  103.00000   15.00000
    4.65000   14.16000   81.00000   17.00000
    4.65000   17.00000  103.00000   14.00000
    4.65000   19.31000   58.00000   14.00000
    4.65000   22.34000   35.00000   17.00000
    4.65000   27.74000   28.00000   21.00000
    4.65000   33.39000   31.00000   26.00000
    4.65000   43.84000    4.10000   24.00000
    4.65000   54.95000    9.20000   21.00000
    4.79000    5.10000  468.00000
    4.79000    7.76000  442.00000
    4.79000    9.79000  344.00000
    4.79000   12.63000  233.00000
    4.79000   15.71000  239.00000
    4.79000   18.55000  162.00000
    4.79000   20.99000  119.00000   11.00000
    4.79000   26.70000   80.00000    9.00000
    4.79000   32.42000   60.00000   18.00000
    4.79000   43.35000   10.10000   22.00000
    4.79000   54.12000    2.90000   30.00000
    4.79000   64.37000    3.00000   30.00000
    4.93000    8.00000   55.00000   15.00000
    4.93000   10.25000   57.00000   14.00000
    4.93000   12.92000   59.00000   16.00000
    4.93000   15.84000  104.70000    1.80000
    4.93000   18.64000   44.00000   11.00000
    4.93000   21.30000   41.00000   10.00000
    4.93000   26.99000   21.00000   19.00000
    4.93000   32.51000   19.00000   30.00000
    4.93000   43.29000    6.00000   17.00000
    4.93000   54.51000    3.00000   30.00000
    4.93000   64.68000    1.00000   70.00000
    5.28000    6.14000  682.00000
    5.28000    7.99000  751.00000
    5.28000   10.65000  749.00000
    5.28000   13.31000  679.00000
    5.28000   16.39000  716.00000
    5.28000   18.81000  400.00000
    5.28000   21.45000  291.00000
    5.28000   27.35000  167.00000
    5.28000   32.68000  173.00000   13.00000
    5.28000   43.85000   44.00000   16.00000
    5.28000   54.86000   20.00000   20.00000
    5.28000   65.25000    9.00000   40.00000
    7.35000    6.67000  234.00000
    7.35000    8.87000  206.00000
    7.35000   11.11000  233.00000
    7.35000   13.89000  169.00000
    7.35000   16.75000  216.00000
    7.35000   19.31000  140.40000
    7.35000   22.30000  110.50000
    7.35000   27.68000   69.50000
    7.35000   33.44000   38.00000   26.00000
    7.84000    6.75000  184.00000
    7.84000    9.18000  185.00000
    7.84000   11.15000  139.40000
    7.84000   13.93000  104.00000
    7.84000   16.82000  153.00000
    7.84000   19.55000   80.80000
    7.84000   22.16000   71.30000
    7.84000   27.77000   55.00000   15.00000
    7.84000   33.27000   21.00000   40.00000
    8.39000    6.62000  298.00000
    8.39000    8.82000  260.00000
    8.39000   11.05000  266.00000
    8.39000   13.85000  222.00000
    8.39000   16.67000  213.00000
    8.39000   19.42000  131.30000
    8.39000   21.99000   98.20000
    8.39000   27.57000   60.00000   13.00000
    8.39000   33.21000   53.00000   23.00000
ENDDATA            168
ENDSUBENT          197
SUBENT        O1829004   20100217   20100809   20100806       O041
BIB                  4         23
REACTION   (16-S-32(D,A)15-P-30,PAR,DA) Fig 15-16
SAMPLE     A solid and gas target were used. The solid target,
           consisted of 350 mug/cm**2 sulphur evaporated on carbon
           foil, 10 mug/cm**2 thick.
           For absolute cross section measurements a 70 mm
           diameter gas cell was used with 12 mum thick Kapton
           windows.
EN-SEC     (E-LVL,15-P-30)
LEVEL-PROP (15-P-30,E-LVL=0.000,SPIN=1.,PARITY=+1.)
           (15-P-30,E-LVL=0.710,SPIN=1.,PARITY=+1.)
           (15-P-30,E-LVL=1.450,SPIN=2.,PARITY=+1.)
           (15-P-30,E-LVL=1.970,SPIN=3.,PARITY=+1.)
           (15-P-30,E-LVL=2.540,SPIN=3.,PARITY=+1.)
           (15-P-30,E-LVL=2.720,SPIN=2.,PARITY=+1.)
           (15-P-30,E-LVL=2.840,SPIN=3.,PARITY=+1.)
           (15-P-30,E-LVL=3.020,SPIN=1.,PARITY=+1.)
           (15-P-30,E-LVL=4.340,SPIN=5.,PARITY=+1.)
           (15-P-30,E-LVL=4.620,SPIN=3.,PARITY=-1.)
           (15-P-30,E-LVL=4.950,SPIN=1.,PARITY=-1.)
           (15-P-30,E-LVL=5.220,SPIN=3.,PARITY=+1.)
           (15-P-30,E-LVL=5.790,SPIN=3.,PARITY=+1.)
           (15-P-30,E-LVL=5.920,SPIN=2.,PARITY=-1.)
           (15-P-30,E-LVL=6.300,SPIN=3.,PARITY=+1.)
ENDBIB              23
COMMON               1          3
EN
MEV
40.
ENDCOMMON            3
DATA                 4        230
E-LVL      ANG-CM     DATA-CM    DATA-ERR
MEV        ADEG       MB/SR      PER-CENT
    0.00000    7.57000   56.00000   23.00000
    0.00000    9.78000   68.00000   16.00000
    0.00000   11.89000   42.00000   17.00000
    0.00000   14.73000   18.00000   22.00000
    0.00000   17.46000   13.00000   30.00000
    0.00000   20.48000   19.00000   30.00000
    0.00000   22.72000   29.00000   14.00000
    0.00000   28.06000   28.00000   18.00000
    0.00000   33.40000   25.00000   16.00000
    0.00000   38.46000   14.20000   20.00000
    0.00000   43.59000   12.90000   20.00000
    0.00000   48.93000    3.00000   30.00000
    0.00000   53.88000    3.00000   30.00000
    0.00000   64.41000    3.90000   50.00000
    0.71000    6.94000   66.00000   20.00000
    0.71000    9.33000   72.00000   15.00000
    0.71000   11.33000   83.30000
    0.71000   13.99000   38.00000   16.00000
    0.71000   16.47000   20.00000   25.00000
    0.71000   19.32000    9.00000   30.00000
    0.71000   22.00000   18.40000   11.00000
    0.71000   27.35000   18.60000   16.00000
    0.71000   32.24000    3.20000   60.00000
    0.71000   37.38000    3.10000   60.00000
    0.71000   42.73000    3.10000   60.00000
    0.71000   48.02000    2.10000   50.00000
    0.71000   53.54000    7.20000   15.00000
    0.71000   64.11000    3.10000   30.00000
    1.45000    6.51000   13.00000   50.00000
    1.45000    8.67000   46.00000   17.00000
    1.45000   11.07000   53.00000   15.00000
    1.45000   13.68000   17.00000   24.00000
    1.45000   16.10000    6.00000   50.00000
    1.45000   19.17000    3.00000   80.00000
    1.45000   21.67000    7.00000   16.00000
    1.45000   32.24000    3.00000   60.00000
    1.45000   37.78000    3.00000   60.00000
    1.45000   42.87000    2.00000   80.00000
    1.45000   53.36000    2.00000   25.00000
    1.97000    6.73000  181.00000   13.00000
    1.97000    9.15000  188.00000
    1.97000   10.97000  234.00000
    1.97000   13.78000  240.00000
    1.97000   16.59000  218.00000
    1.97000   19.19000  188.00000
    1.97000   21.96000  109.40000
    1.97000   27.10000   39.00000   13.00000
    1.97000   32.54000   52.00000   12.00000
    1.97000   37.72000   27.00000   19.00000
    1.97000   43.35000   33.00000   15.00000
    1.97000   48.52000   15.90000   18.00000
    1.97000   63.92000    6.90000   28.00000
    2.54000    6.42000  178.00000   14.00000
    2.54000    8.44000  215.00000
    2.54000   10.66000  243.00000
    2.54000   13.26000  221.00000
    2.54000   16.29000  260.00000
    2.54000   18.88000  197.00000
    2.54000   21.64000  107.80000
    2.54000   26.80000   43.50000
    2.54000   32.24000   59.50000
    2.54000   37.64000   42.20000
    2.54000   43.07000   45.00000
    2.54000   48.23000   21.00000   14.00000
    2.54000   53.66000   23.20000
    2.54000   64.24000    9.20000   30.00000
    2.72000    6.45000   23.00000   40.00000
    2.72000    8.89000   32.00000   19.00000
    2.72000   10.71000   38.00000   16.00000
    2.72000   16.13000   36.00000   19.00000
    2.72000   18.92000   29.00000   24.00000
    2.72000   21.70000   17.10000   15.00000
    2.72000   27.32000   17.00000   18.00000
    2.72000   32.32000   14.00000   21.00000
    2.72000   37.69000    7.00000   40.00000
    2.72000   43.37000   13.90000   22.00000
    2.72000   48.56000    9.00000   22.00000
    2.72000   53.72000    4.00000   25.00000
    2.72000   64.14000    3.00000   40.00000
    2.84000    7.70000   44.00000   25.00000
    2.84000    9.76000   25.00000   24.00000
    2.84000   12.18000   34.00000   18.00000
    2.84000   14.77000   38.00000   13.00000
    2.84000   17.51000   28.00000   21.00000
    2.84000   20.09000   28.00000   25.00000
    2.84000   22.80000   17.40000   14.00000
    2.84000   28.17000   17.40000   16.00000
    2.84000   33.36000    6.00000   50.00000
    2.84000   38.87000   13.30000   21.00000
    2.84000   44.25000    4.00000   70.00000
    2.84000   49.57000    3.10000   29.00000
    2.84000   54.94000    3.00000   30.00000
    3.02000    7.30000   98.00000   20.00000
    3.02000    9.33000   49.00000   18.00000
    3.02000   11.65000   38.00000   16.00000
    3.02000   14.36000   23.00000   22.00000
    3.02000   16.98000   30.00000   20.00000
    3.02000   20.03000   38.00000   21.00000
    3.02000   22.15000    9.40000   19.00000
    3.02000   28.03000   14.40000   20.00000
    3.02000   33.23000   18.70000   14.00000
    3.02000   38.46000    8.20000   40.00000
    3.02000   43.93000   15.00000   20.00000
    3.02000   49.06000   12.00000   25.00000
    3.02000   54.41000    3.20000   30.00000
    3.02000   64.99000    4.30000   40.00000
    4.34000    7.00000  320.00000   13.00000
    4.34000    9.16000  352.00000
    4.34000   11.49000  287.00000
    4.34000   14.02000  218.00000
    4.34000   17.04000  231.00000
    4.34000   19.65000  275.00000
    4.34000   22.44000  284.00000
    4.34000   27.56000  225.00000
    4.34000   33.11000  181.00000
    4.34000   38.57000   90.00000
    4.34000   43.66000   61.00000   16.00000
    4.34000   48.69000   30.00000   13.00000
    4.34000   54.53000   36.10000
    4.34000   64.79000   27.00000   15.00000
    4.95000    4.73000   85.00000   20.00000
    4.95000    7.11000   22.00000   27.00000
    4.95000    9.49000   31.00000   19.00000
    4.95000   12.10000   24.00000   17.00000
    4.95000   14.72000   27.00000   22.00000
    4.95000   17.57000   19.00000   26.00000
    4.95000   20.42000   17.40000   13.00000
    4.95000   25.65000   18.80000   15.00000
    4.95000   31.36000    8.10000   40.00000
    4.95000   36.59000    4.10000   50.00000
    4.95000   42.29000    6.10000   50.00000
    4.95000   47.52000    3.00000   30.00000
    4.95000   52.99000    5.00000   20.00000
    5.22000    5.69000   96.00000   17.00000
    5.22000    8.07000   82.00000   13.00000
    5.22000    9.97000  120.00000   10.00000
    5.22000   12.58000  107.20000
    5.22000   15.20000   97.20000
    5.22000   18.29000  104.00000   13.00000
    5.22000   21.14000   88.00000
    5.22000   26.61000   56.00000   13.00000
    5.22000   32.07000   48.00000   13.00000
    5.22000   37.54000   25.00000   16.00000
    5.22000   42.77000   27.00000   15.00000
    5.22000   48.48000    9.00000   20.00000
    5.22000   53.70000   12.40000   16.00000
    5.22000   64.40000    7.00000   30.00000
    5.42000    5.93000  169.00000   12.00000
    5.42000    8.07000  104.00000   13.00000
    5.42000   10.45000  135.00000   11.00000
    5.42000   13.06000  102.00000    6.00000
    5.42000   15.92000  103.00000   14.00000
    5.42000   18.77000   92.00000   16.00000
    5.42000   21.62000   99.90000
    5.42000   26.85000   86.10000
    5.42000   32.08000   96.20000
    5.42000   37.78000   32.00000   16.00000
    5.42000   43.25000   27.00000   15.00000
    5.42000   48.72000   13.80000   20.00000
    5.42000   53.95000   10.76000
    5.42000   64.40000   12.60000   23.00000
    5.51000    6.41000   76.00000   21.00000
    5.51000    8.55000   97.00000   12.00000
    5.51000   10.69000   61.00000   18.00000
    5.51000   13.54000   44.00000   16.00000
    5.51000   16.16000   42.00000   21.00000
    5.51000   19.01000   48.00000   15.00000
    5.51000   21.63000   20.00000   20.00000
    5.51000   26.85000   32.00000   13.00000
    5.51000   33.03000   23.00000   17.00000
    5.51000   38.26000   21.00000   14.00000
    5.51000   43.49000   21.00000   13.00000
    5.51000   48.96000   18.00000   17.00000
    5.51000   54.19000   10.08000
    5.51000   64.89000    7.00000   27.00000
    5.79000    8.96000  106.00000   19.00000
    5.79000   10.77000   42.00000   21.00000
    5.79000   13.03000   48.00000   15.00000
    5.79000   15.63000   34.00000   18.00000
    5.79000   18.53000   34.00000   21.00000
    5.79000   21.27000   46.00000   15.00000
    5.79000   24.09000   31.00000
    5.79000   29.15000   22.00000   18.00000
    5.79000   34.78000   10.20000   28.00000
    5.79000   40.17000   12.00000   22.00000
    5.79000   45.73000   11.00000   27.00000
    5.79000   51.26000    8.80000   22.00000
    5.79000   56.57000    7.00000   16.00000
    5.79000   67.15000   10.80000   28.00000
    5.92000    8.11000  133.00000   17.00000
    5.92000   10.34000  129.00000    8.00000
    5.92000   12.33000  119.00000    8.00000
    5.92000   15.18000   94.50000
    5.92000   17.80000   73.00000   18.00000
    5.92000   20.63000   50.00000   14.00000
    5.92000   23.50000   44.60000
    5.92000   29.05000   39.00000   15.00000
    5.92000   34.09000   26.00000   15.00000
    5.92000   39.58000   16.90000   17.00000
    5.92000   45.20000   20.00000   15.00000
    5.92000   50.23000   13.00000   20.00000
    5.92000   55.75000    9.70000   21.00000
    6.30000    7.58000   55.00000   27.00000
    6.30000    9.71000   35.00000   20.00000
    6.30000   11.73000   37.00000   16.00000
    6.30000   14.31000   23.00000   26.00000
    6.30000   17.48000   29.00000   21.00000
    6.30000   19.90000   25.00000   30.00000
    6.30000   23.03000   26.00000   15.00000
    6.30000   28.40000   28.00000   14.00000
    6.30000   33.44000   19.00000   16.00000
    6.30000   39.29000    8.00000   40.00000
    6.30000   44.43000    8.40000   30.00000
    6.30000   50.08000    4.20000   50.00000
    6.30000   55.51000    6.20000   30.00000
    6.30000   66.06000    1.00000   80.00000
    6.47000    6.67000   40.00000   23.00000
    6.47000    8.79000   24.00000   25.00000
    6.47000   11.15000   44.00000   16.00000
    6.47000   13.90000   21.00000   24.00000
    6.47000   16.83000   24.00000   21.00000
    6.47000   19.33000   31.00000   19.00000
    6.47000   22.00000   29.90000    8.00000
    6.47000   27.79000   28.00000   18.00000
    6.47000   33.15000   30.00000   17.00000
    6.47000   38.58000   15.00000   20.00000
    6.47000   43.88000   11.60000   23.00000
    6.47000   49.40000    8.90000   20.00000
    6.47000   54.58000    3.90000   50.00000
    6.47000   65.36000    2.00000   50.00000
ENDDATA            232
ENDSUBENT          264
ENDENTRY             4
