ENTRY            O1832   20100223   20100809   20100806       O041
SUBENT        O1832001   20100223   20100809   20100806       O041
BIB                 15         27
TITLE      Investigation of the Al-27(d,p)AL-28 reaction at
           E(d)=12 MeV.
AUTHOR     (T.P.G.Carola, J.G.van der Baan)
INSTITUTE  (2NEDUTR)
REFERENCE  (J,NP/A,173,414,1971)
REL-REF    (R,O1805001,J.G.van der Baan+,J,NP/A,170,607,1971)
            More details of experiment
FACILITY   (VDGT,2NEDUTR) the Utrecht 6 MV tandem accelerator
DETECTOR   (MAGSP) the Utrecht split-pole magnetic spectrograph by
           one 15 mm long and seven 30 mm long, 0.6 mm thick
           positive-sensitive detectors.
           (PS)
           (SIBAR) at 60 degree monitored elastically scattered
           deuterons.
SAMPLE     A self-supporting target of natural aluminum of
           approximate thickness 50 mug/cm**2.
ADD-RES    (P-SPC) The proton spectrum  is shown on fig.1
           (POT)
INC-SOURCE *E-RSL-FW*.Energy resolution.
MONITOR    (13-AL-27(D,EL)13-AL-27,,DA)
ERR-ANALYS (ANG-ERR-D).Angle digitizing error
           (ERR-DIG).Data digitizing error
           (ERR-S). Statistical  errors.
           (MONIT-ERR).Error in normalization procedure.
METHOD     (SITA)
STATUS     (CURVE).By CAJAD.
HISTORY    (20091209C) SB
ENDBIB              27
COMMON               5          3
EN         E-RSL-FW   MONIT-ERR  ANG-ERR-D  ERR-DIG
MEV        KEV        PER-CENT   ADEG       PER-CENT
12.        11.        5.         0.4        3.
ENDCOMMON            3
ENDSUBENT           34
SUBENT        O1832002   20100224   20100809   20100806       O041
BIB                  2          2
REACTION   (13-AL-27(D,P)13-AL-28,PAR,DA) fig.2-7
EN-SEC     (E-LVL,13-AL-28)
ENDBIB               2
NOCOMMON             0          0
DATA                 4        686
E-LVL      ANG-CM     DATA-CM    ERR-S
MEV        ADEG       MB/SR      PER-CENT
    0.00000    4.29000   32.30000    2.50000
    0.00000    9.19000   17.70000    2.80000
    0.00000   14.73000    6.08000    2.60000
    0.00000   20.51000    2.09000    2.40000
    0.00000   26.18000    1.76000    2.80000
    0.00000   30.27000    3.05000    2.60000
    0.00000   36.40000    2.47000    2.40000
    0.00000   41.54000    1.36000    2.20000
    0.00000   46.36000    0.42600    2.60000
    0.00000   51.24000    0.20600    2.40000
    0.00000   57.03000    0.45700    2.60000
    0.00000   61.85000    0.88100    2.60000
    0.00000   67.09000    1.06400    2.50000
    0.00000   72.06000    1.11300    2.60000
    0.00000   76.99000    0.78400    2.60000
    0.03000    3.52000   13.90000    9.00000
    0.03000   10.29000    7.10000    8.00000
    0.03000   14.91000    2.90000    9.00000
    0.03000   20.97000    1.45000    2.10000
    0.03000   26.42000    1.47000    2.00000
    0.03000   31.66000    1.83000    2.20000
    0.03000   36.13000    1.49000    2.00000
    0.03000   38.25000    1.32000    2.30000
    0.03000   41.27000    0.84100    2.40000
    0.03000   47.26000    0.25300    2.40000
    0.03000   52.18000    0.17000   11.00000
    0.03000   56.99000    0.29200    2.40000
    0.03000   62.04000    0.50300    2.40000
    0.03000   67.02000    0.55400    2.30000
    0.03000   72.00000    0.57100    2.30000
    0.03000   77.87000    0.39700    2.30000
    0.03000   83.03000    0.26600    2.30000
    0.03000   87.69000    0.15300    2.60000
    0.03000   92.85000    0.11040    2.40000
    0.97000    5.20000    0.06900   30.00000
    0.97000   10.90000    0.05800    7.00000
    0.97000   16.20000    0.06420
    0.97000   21.60000    0.07290
    0.97000   26.30000    0.07270
    0.97000   31.40000    0.06500
    0.97000   37.10000    0.06340
    0.97000   41.60000    0.04180
    0.97000   47.20000    0.03820    6.00000
    0.97000   52.90000    0.02520
    0.97000   57.40000    0.02110
    0.97000   63.00000    0.02110    9.00000
    0.97000   68.10000    0.01690   10.00000
    0.97000   72.90000    0.01650    7.00000
    0.97000   78.00000    0.01320
    0.97000   83.30000    0.01020   11.00000
    0.97000   88.40000    0.00870    8.00000
    0.97000   93.80000    0.00930   13.00000
    1.01000    1.80000    4.75000
    1.01000    4.80000    3.97000
    1.01000   10.30000    2.55000
    1.01000   14.80000    1.95000
    1.01000   20.60000    1.98000
    1.01000   26.40000    2.05000
    1.01000   30.90000    1.79000
    1.01000   36.70000    1.25000
    1.01000   41.20000    0.73400
    1.01000   47.30000    0.34500
    1.01000   51.80000    0.24700
    1.01000   57.60000    0.25700
    1.01000   61.90000    0.30400
    1.01000   67.60000    0.28300
    1.01000   73.10000    0.26300
    1.01000   77.30000    0.20600
    1.01000   83.10000    0.15400
    1.01000   87.70000    0.12600
    1.01000   92.50000    0.14600
    1.37000    2.26000    0.15000   20.00000
    1.37000    7.66000    0.17000    2.40000
    1.37000   10.47000    0.18800    2.70000
    1.37000   18.20000    0.24200    2.50000
    1.37000   23.61000    0.24900    2.40000
    1.37000   28.58000    0.19500    2.60000
    1.37000   34.06000    0.12400    2.40000
    1.37000   39.29000    0.08050    2.60000
    1.37000   44.29000    0.05130    2.50000
    1.37000   49.71000    0.04850    2.50000
    1.37000   54.89000    0.05000    2.60000
    1.37000   60.05000    0.05420    2.60000
    1.37000   65.27000    0.04030    2.50000
    1.37000   70.48000    0.03210    2.50000
    1.37000   75.46000    0.02430    2.50000
    1.37000   80.43000    0.01970    2.50000
    1.37000   85.62000    0.01830    2.70000
    1.37000   90.52000    0.02350    2.60000
    1.62000    4.90000    1.26000    7.00000
    1.62000   10.70000    0.86000
    1.62000   15.20000    0.63000    5.00000
    1.62000   21.00000    0.54700
    1.62000   26.20000    0.58000    7.00000
    1.62000   31.00000    0.49600
    1.62000   36.20000    0.39200
    1.62000   41.90000    0.29000
    1.62000   47.10000    0.17300
    1.62000   51.90000    0.14900
    1.62000   56.80000    0.14700
    1.62000   62.00000    0.15700
    1.62000   66.80000    0.13900    6.00000
    1.62000   72.30000    0.11700   10.00000
    1.62000   77.20000    0.09700   14.00000
    1.62000   82.30000    0.08900    9.00000
    1.62000   86.60000    0.08600    9.00000
    1.62000   92.30000    0.08100    7.00000
    2.14000    5.00000    7.88000
    2.14000   10.50000    4.53000
    2.14000   15.60000    2.34000
    2.14000   20.80000    1.26000
    2.14000   25.60000    1.43000
    2.14000   30.80000    1.43000
    2.14000   36.00000    1.12000
    2.14000   41.10000    0.68600
    2.14000   46.50000    0.31000
    2.14000   51.10000    0.19100
    2.14000   57.20000    0.23700
    2.14000   61.70000    0.35100
    2.14000   67.20000    0.39900
    2.14000   72.10000    0.41500
    2.14000   77.30000    0.30400
    2.14000   83.00000    0.24400
    2.14000   87.90000    0.14000    4.00000
    2.14000   92.70000    0.10300
    2.20000    4.50000    1.27000   15.00000
    2.20000    8.70000    1.30000
    2.20000   10.10000    1.40000    9.00000
    2.20000   20.00000    1.80000
    2.20000   25.70000    1.81000
    2.20000   29.00000    1.55000
    2.20000   41.30000    0.60900
    2.20000   46.10000    0.30900    5.00000
    2.20000   51.20000    0.25500
    2.20000   55.70000    0.22900
    2.20000   62.00000    0.26300
    2.20000   65.60000    0.24700
    2.20000   72.20000    0.21300
    2.20000   77.00000    0.14700
    2.20000   82.40000    0.11900
    2.20000   87.50000    0.08030
    2.27000    5.10000    1.07000    9.00000
    2.27000   10.10000    1.20000    8.00000
    2.27000   15.50000    1.43000    8.00000
    2.27000   20.50000    1.71000
    2.27000   25.60000    1.68000
    2.27000   31.00000    1.45000
    2.27000   35.20000    1.04000
    2.27000   40.90000    0.67000    4.00000
    2.27000   46.40000    0.40000    6.00000
    2.27000   51.50000    0.33200
    2.27000   56.30000    0.32000
    2.27000   61.90000    0.30800    7.00000
    2.27000   66.40000    0.25500    7.00000
    2.27000   71.80000    0.20700    6.00000
    2.27000   77.20000    0.15500    5.00000
    2.27000   82.00000    0.13700    6.00000
    2.27000   87.10000    0.11600    4.00000
    2.27000   91.60000    0.13800    6.00000
    2.48000    5.40000    0.67000   12.00000
    2.48000   10.00000    0.50200
    2.48000   15.70000    0.28900
    2.48000   20.90000    0.22600
    2.48000   26.40000    0.21700
    2.48000   31.50000    0.20700    5.00000
    2.48000   36.40000    0.17000
    2.48000   41.50000    0.11700
    2.48000   46.70000    0.07180
    2.48000   52.10000    0.04040
    2.48000   57.30000    0.04610
    2.48000   62.50000    0.05510
    2.48000   67.30000    0.05270
    2.48000   72.50000    0.05390
    2.48000   77.70000    0.04700    6.00000
    2.48000   82.80000    0.04420
    2.48000   88.30000    0.04100   10.00000
    2.48000   93.50000    0.03950
    2.58000    5.50000    0.05900    8.00000
    2.58000   10.90000    0.05400
    2.58000   15.90000    0.05330
    2.58000   21.60000    0.05600    7.00000
    2.58000   26.40000    0.05410
    2.58000   31.70000    0.04780
    2.58000   36.50000    0.03960
    2.58000   41.90000    0.03350    5.00000
    2.58000   46.90000    0.02190
    2.58000   52.30000    0.02070
    2.58000   57.40000    0.01910
    2.58000   62.40000    0.01840
    2.58000   66.90000    0.01460
    2.58000   72.90000    0.01320
    2.58000   78.00000    0.01120
    2.58000   82.70000    0.00885
    2.58000   88.40000    0.00818
    2.58000   93.80000    0.00772
    2.66000    5.30000    1.17000    6.00000
    2.66000   11.00000    1.42000    4.00000
    2.66000   16.30000    1.80000
    2.66000   20.80000    2.34000
    2.66000   25.90000    1.95000
    2.66000   31.00000    1.59000
    2.66000   36.40000    1.06000
    2.66000   41.20000    0.55600
    2.66000   47.00000    0.35500    5.00000
    2.66000   57.10000    0.28800    8.00000
    2.66000   67.30000    0.25500
    2.99000    5.40000    0.09000   40.00000
    2.99000   11.30000    0.09400    9.00000
    2.99000   16.10000    0.10100    7.00000
    2.99000   21.80000    0.09520
    2.99000   32.20000    0.07800    8.00000
    2.99000   37.60000    0.07300    8.00000
    2.99000   42.30000    0.06400    8.00000
    2.99000   47.70000    0.05900    8.00000
    2.99000   52.80000    0.06000    7.00000
    2.99000   57.80000    0.07000    7.00000
    2.99000   63.20000    0.06800    7.00000
    2.99000   68.00000    0.07700    6.00000
    2.99000   73.30000    0.06200    6.00000
    2.99000   78.40000    0.04900    8.00000
    2.99000   83.50000    0.04800    8.00000
    2.99000   88.80000    0.03400    9.00000
    2.99000   94.20000    0.02940    8.00000
    3.01000   10.70000    0.06100    7.00000
    3.01000   16.10000    0.06970
    3.01000   20.90000    0.08900
    3.01000   26.30000    0.10700
    3.01000   36.30000    0.06520
    3.01000   41.50000    0.05380
    3.01000   47.20000    0.03700    8.00000
    3.01000   51.80000    0.02800   11.00000
    3.01000   56.90000    0.02950    7.00000
    3.01000   61.70000    0.02430    6.00000
    3.01000   67.40000    0.02860
    3.01000   72.60000    0.02210    9.00000
    3.01000   77.40000    0.01530   15.00000
    3.01000   82.90000    0.01470   14.00000
    3.01000   88.30000    0.01040   18.00000
    3.01000   92.80000    0.01240   15.00000
    3.10000    5.60000    0.17200
    3.10000   11.00000    0.19600
    3.10000   16.30000    0.21000    6.00000
    3.10000   21.40000    0.23900
    3.10000   26.50000    0.21400
    3.10000   31.60000    0.16500
    3.10000   41.90000    0.05800    9.00000
    3.10000   47.30000    0.03320    8.00000
    3.10000   52.40000    0.02910    8.00000
    3.10000   57.40000    0.03200    9.00000
    3.10000   62.80000    0.03550    7.00000
    3.10000   67.60000    0.03630    6.00000
    3.10000   73.30000    0.02920    9.00000
    3.10000   78.10000    0.02700   11.00000
    3.10000   83.50000    0.01580   18.00000
    3.10000   88.60000    0.01880   13.00000
    3.10000   93.90000    0.01930   12.00000
    3.30000    5.80000    0.97000   11.00000
    3.30000   15.70000    0.42000    7.00000
    3.30000   18.30000    0.32400
    3.30000   26.10000    0.21800
    3.30000   31.80000    0.21200
    3.30000   36.60000    0.17000
    3.30000   42.00000    0.13000
    3.30000   51.80000    0.08570
    3.30000   57.20000    0.07000
    3.30000   62.40000    0.09460
    3.30000   67.70000    0.07260
    3.30000   72.80000    0.07070
    3.30000   77.90000    0.06180
    3.30000   83.00000    0.04740    5.00000
    3.30000   88.10000    0.05260
    3.30000   93.20000    0.04410
    3.35000    4.29000   32.30000    2.50000
    3.35000    9.19000   17.70000    2.80000
    3.35000   14.73000    6.08000    2.60000
    3.35000   20.51000    2.09000    2.40000
    3.35000   26.18000    1.76000    2.80000
    3.35000   30.27000    3.05000    2.60000
    3.35000   36.40000    2.47000    2.40000
    3.35000   41.54000    1.36000    2.20000
    3.35000   46.36000    0.42600    2.60000
    3.35000   51.24000    0.20600    2.40000
    3.35000   57.03000    0.45700    2.60000
    3.35000   61.85000    0.88100    2.60000
    3.35000   67.09000    1.06400    2.50000
    3.35000   72.06000    1.11300    2.60000
    3.35000   76.99000    0.78400    2.60000
    3.46000    4.90000    4.36000
    3.46000   10.00000    5.08000
    3.46000   15.20000    4.61000
    3.46000   20.50000    3.65000
    3.46000   25.70000    2.53000
    3.46000   30.60000    1.83000
    3.46000   36.10000    1.70000
    3.46000   40.40000    1.54000
    3.46000   46.00000    1.22000
    3.46000   51.20000    1.01000
    3.46000   61.10000    0.50600
    3.46000   66.30000    0.42000
    3.46000   71.80000    0.34800
    3.46000   76.70000    0.41500
    3.46000   81.60000    0.38600
    3.46000   87.10000    0.35000
    3.46000   92.90000    0.31000
    3.54000   10.60000    0.05700   11.00000
    3.54000   15.40000    0.05800   10.00000
    3.54000   26.00000    0.06790
    3.54000   31.10000    0.06830
    3.54000   36.60000    0.04850
    3.54000   41.40000    0.03920
    3.54000   46.50000    0.03000   10.00000
    3.54000   52.30000    0.03710
    3.54000   57.40000    0.02810    8.00000
    3.54000   62.50000    0.03220    9.00000
    3.54000   67.60000    0.04490    3.00000
    3.54000   72.50000    0.03550    3.00000
    3.54000   78.20000    0.02630    8.00000
    3.54000   83.30000    0.02650
    3.54000   88.50000    0.01880   12.00000
    3.54000   93.30000    0.02670
    3.59000    4.90000    5.64000
    3.59000   10.40000    5.65000
    3.59000   15.30000    5.29000
    3.59000   21.10000    4.13000
    3.59000   26.10000    2.29000
    3.59000   31.00000    1.49000
    3.59000   36.20000    1.33000
    3.59000   40.50000    1.33000
    3.59000   46.60000    1.14000
    3.59000   51.90000    0.95000
    3.59000   56.80000    0.67900
    3.59000   67.00000    0.36100
    3.59000   71.90000    0.36100
    3.59000   77.10000    0.35400
    3.59000   81.60000    0.35500
    3.59000   87.50000    0.29600
    3.59000   92.70000    0.28400
    3.67000    4.42000    3.60000   11.00000
    3.67000    9.74000    2.36000    2.10000
    3.67000   25.94000    0.74100    2.30000
    3.67000   31.04000    0.62400    2.40000
    3.67000   35.94000    0.70100    2.30000
    3.67000   41.03000    0.48200    2.30000
    3.67000   46.84000    0.38500    2.30000
    3.67000   51.71000    0.33600    2.40000
    3.67000   56.83000    0.30300    8.00000
    3.67000   61.76000    0.46000    7.00000
    3.67000   67.33000    0.36000    8.00000
    3.67000   71.77000    0.43000    7.00000
    3.67000   77.11000    0.38000    7.00000
    3.67000   82.01000    0.41200    6.00000
    3.67000   86.89000    0.37200    7.00000
    3.67000   92.48000    0.36500    7.00000
    3.71000    5.95000    1.67000    2.40000
    3.71000   10.98000    1.04400    2.30000
    3.71000   15.51000    0.52500    2.30000
    3.71000   21.69000    0.30200    2.30000
    3.71000   26.81000    0.32600    2.50000
    3.71000   31.44000    0.29200    2.40000
    3.71000   36.77000    0.27100    2.20000
    3.71000   42.29000    0.20000    2.50000
    3.71000   47.30000    0.11290    2.30000
    3.71000   51.94000    0.10470    2.30000
    3.71000   57.93000    0.08240    2.30000
    3.71000   72.41000    0.13800    2.20000
    3.71000   77.05000    0.13000    2.30000
    3.71000   82.62000    0.13200    2.30000
    3.71000   87.96000    0.12620    2.30000
    3.71000   93.75000    0.11920    2.30000
    3.76000    9.10000    0.02400   13.00000
    3.76000   14.20000    0.04400   11.00000
    3.76000   19.80000    0.03200    9.00000
    3.76000   25.10000    0.03400    9.00000
    3.76000   30.00000    0.04700   11.00000
    3.76000   40.90000    0.02400   17.00000
    3.76000   46.20000    0.01270   15.00000
    3.76000   51.50000    0.00980   17.00000
    3.76000   56.20000    0.00770   12.00000
    3.76000   61.60000    0.01700   40.00000
    3.76000   72.00000    0.00690   26.00000
    3.76000   76.60000    0.00680   12.00000
    3.76000   81.80000    0.00890   21.00000
    3.76000   87.00000    0.00980   10.00000
    3.76000   92.30000    0.00960   11.00000
    3.88000    3.90000    1.72000
    3.88000    9.40000    1.69000
    3.88000   14.30000    1.56000
    3.88000   19.30000    1.15000
    3.88000   24.80000    1.24000
    3.88000   30.20000    0.48500
    3.88000   35.10000    0.43700
    3.88000   40.60000    0.44900
    3.88000   51.10000    0.29300
    3.88000   56.10000    0.20800
    3.88000   61.70000    0.17100
    3.88000   66.90000    0.14200
    3.88000   72.20000    0.13000
    3.88000   77.40000    0.14300
    3.88000   82.30000    0.14100
    3.88000   87.50000    0.14200
    3.88000   92.70000    0.14200
    3.90000   10.40000    0.10000
    3.90000   15.10000    0.15100
    3.90000   20.40000    0.09400
    3.90000   26.40000    0.08560
    3.90000   36.40000    0.06000    8.00000
    3.90000   41.80000    0.04600    9.00000
    3.90000   46.80000    0.03530    6.00000
    3.90000   57.10000    0.02510    9.00000
    3.90000   62.10000    0.03500   14.00000
    3.90000   69.40000    0.02190
    3.90000   72.50000    0.02140
    3.90000   72.80000    0.03530
    3.90000   77.80000    0.03220
    3.90000   83.10000    0.02630   10.00000
    3.90000   88.40000    0.02940    5.00000
    3.90000   93.40000    0.03400   15.00000
    3.94000    5.00000    0.45000   29.00000
    3.94000   10.70000    0.39600
    3.94000   16.00000    0.22600
    3.94000   20.80000    0.15400
    3.94000   26.50000    0.13500
    3.94000   31.60000    0.12400
    3.94000   36.10000    0.10400
    3.94000   41.70000    0.07730
    3.94000   46.80000    0.04920
    3.94000   57.00000    0.04140
    3.94000   62.40000    0.05840
    3.94000   67.50000    0.05600
    3.94000   72.60000    0.05480
    3.94000   83.10000    0.03600   11.00000
    3.94000   88.20000    0.02750    7.00000
    3.94000   93.60000    0.03000    5.00000
    4.03000    4.30000    0.68200   12.00000
    4.03000   10.00000    1.18000
    4.03000   16.10000    1.61000
    4.03000   20.60000    2.05000
    4.03000   26.40000    2.35000
    4.03000   31.00000    2.46000
    4.03000   36.50000    2.26000
    4.03000   41.50000    1.78000
    4.03000   46.80000    1.10000
    4.03000   52.00000    0.76200
    4.03000   57.30000    0.48300
    4.03000   67.40000    0.43500
    4.03000   72.60000    0.50800
    4.03000   77.50000    0.49800
    4.03000   88.20000    0.39400
    4.03000   94.00000    0.39500
    4.11000   10.60000    0.08000    9.00000
    4.11000   15.30000    0.09400
    4.11000   21.00000    0.09200    9.00000
    4.11000   25.30000    0.08980
    4.11000   31.00000    0.07160
    4.11000   36.00000    0.06500    6.00000
    4.11000   41.70000    0.05100
    4.11000   47.00000    0.03240    9.00000
    4.11000   52.00000    0.03390    3.00000
    4.11000   57.00000    0.03100    3.00000
    4.11000   62.30000    0.03470    7.00000
    4.11000   72.70000    0.03240    8.00000
    4.11000   78.00000    0.02470    6.00000
    4.11000   83.70000    0.01920
    4.11000   94.30000    0.01610    7.00000
    4.24000    6.22000    1.04600    2.60000
    4.24000   11.21000    0.49000    2.70000
    4.24000   15.73000    0.22900    2.60000
    4.24000   21.67000    0.11700    2.60000
    4.24000   26.78000    0.11900    2.50000
    4.24000   31.93000    0.15700    2.50000
    4.24000   37.00000    0.12100    2.50000
    4.24000   42.08000    0.10190    2.60000
    4.24000   47.79000    0.05470    2.60000
    4.24000   52.38000    0.03900    8.00000
    4.24000   57.47000    0.03320    7.00000
    4.24000   62.62000    0.04220    2.60000
    4.24000   67.51000    0.04850    2.70000
    4.24000   72.87000    0.05190    2.50000
    4.24000   77.72000    0.04440    2.50000
    4.24000   82.59000    0.04150    2.70000
    4.24000   87.45000    0.03870    2.60000
    4.24000   94.19000    0.03940    2.50000
    4.31000    4.90000    0.04300   23.00000
    4.31000   10.50000    0.04380
    4.31000   15.20000    0.04380
    4.31000   20.20000    0.04380
    4.31000   26.20000    0.04300   19.00000
    4.31000   31.20000    0.03390
    4.31000   35.90000    0.02950
    4.31000   41.60000    0.02180
    4.31000   46.60000    0.01610
    4.31000   51.90000    0.01300
    4.31000   56.90000    0.01050    7.00000
    4.31000   62.30000    0.01110    4.00000
    4.31000   67.30000    0.01060
    4.31000   72.30000    0.00940
    4.31000   77.60000    0.00856
    4.31000   83.60000    0.00818
    4.31000   88.60000    0.00663
    4.38000    9.80000    0.01790   15.00000
    4.38000   14.90000    0.03800    8.00000
    4.38000   20.20000    0.03500   11.00000
    4.38000   25.40000    0.04390
    4.38000   41.10000    0.04400
    4.38000   51.30000    0.04400    7.00000
    4.38000   61.50000    0.04200   10.00000
    4.38000   66.50000    0.04200   10.00000
    4.38000   72.00000    0.04500    9.00000
    4.38000   76.60000    0.04300    7.00000
    4.38000   82.20000    0.04600    9.00000
    4.38000   87.10000    0.05460    5.00000
    4.47000    4.50000    0.28000   18.00000
    4.47000   10.10000    0.26700
    4.47000   15.40000    0.26000
    4.47000   20.80000    0.25800
    4.47000   25.80000    0.22400
    4.47000   31.10000    0.17800
    4.47000   36.10000    0.12600
    4.47000   41.20000    0.10000
    4.47000   47.20000    0.05800
    4.47000   51.90000    0.05770
    4.47000   62.80000    0.06670
    4.47000   67.80000    0.06490
    4.47000   72.80000    0.05640
    4.47000   77.90000    0.03340
    4.47000   82.60000    0.03110
    4.47000   88.20000    0.02950
    4.52000   11.40000    0.04800   13.00000
    4.52000   15.70000    0.04000   13.00000
    4.52000   21.00000    0.03800   13.00000
    4.52000   26.20000    0.04980
    4.52000   31.50000    0.04200   10.00000
    4.52000   36.70000    0.04300    7.00000
    4.52000   41.90000    0.06300   10.00000
    4.52000   46.90000    0.03910    8.00000
    4.52000   51.80000    0.03180    8.00000
    4.52000   57.10000    0.03800   13.00000
    4.52000   62.30000    0.03200    9.00000
    4.52000   67.60000    0.02900   14.00000
    4.52000   72.50000    0.03200   16.00000
    4.52000   77.40000    0.03300   12.00000
    4.52000   83.00000    0.03600    8.00000
    4.52000   87.90000    0.03250    7.00000
    4.52000   93.20000    0.03000   10.00000
    4.60000   10.90000    0.06600    6.00000
    4.60000   15.60000    0.05500    7.00000
    4.60000   21.10000    0.04200   14.00000
    4.60000   26.10000    0.03600   17.00000
    4.60000   36.90000    0.04190
    4.60000   41.80000    0.03820
    4.60000   47.40000    0.03900   10.00000
    4.60000   52.30000    0.03900   10.00000
    4.60000   56.90000    0.04550
    4.60000   62.80000    0.04140
    4.60000   67.70000    0.04200    7.00000
    4.60000   72.30000    0.04260    6.00000
    4.60000   77.90000    0.03120    8.00000
    4.60000   82.50000    0.02840    8.00000
    4.60000   88.10000    0.02590    8.00000
    4.60000   94.00000    0.02590   11.00000
    4.69000    4.10000   10.70000
    4.69000    9.60000   10.10000
    4.69000   14.60000    8.35000
    4.69000   20.50000    5.43000
    4.69000   25.60000    2.60000
    4.69000   31.20000    1.25000
    4.69000   34.90000    1.08000
    4.69000   46.30000    1.26000
    4.69000   51.80000    1.09000
    4.69000   57.10000    0.72500
    4.69000   62.10000    0.52600
    4.69000   67.40000    0.34900
    4.69000   72.60000    0.32200
    4.69000   77.80000    0.30900
    4.69000   82.70000    0.32500
    4.69000   87.30000    0.33300
    4.69000   93.20000    0.28100
    4.74000    5.40000    0.69000    7.00000
    4.74000   10.50000    0.63300
    4.74000   15.60000    0.59200
    4.74000   21.00000    0.56600
    4.74000   26.10000    0.48500
    4.74000   31.40000    0.37200
    4.74000   36.80000    0.23400
    4.74000   40.70000    0.12700    6.00000
    4.74000   51.70000    0.10400
    4.74000   57.10000    0.10100
    4.74000   62.20000    0.10300
    4.74000   67.60000    0.09900
    4.74000   72.70000    0.08850
    4.74000   77.80000    0.05700
    4.74000   82.90000    0.05690
    4.74000   88.30000    0.05690
    4.74000   93.70000    0.06070
    4.77000    6.30000    9.40000
    4.77000   10.80000    9.20000
    4.77000   16.00000    7.34000
    4.77000   21.60000    4.90000
    4.77000   26.20000    2.49000
    4.77000   32.10000    1.27000
    4.77000   36.40000    1.04000
    4.77000   41.90000    1.11000
    4.77000   46.70000    1.09000
    4.77000   51.90000    1.00000
    4.77000   57.10000    0.66500
    4.77000   62.10000    0.45400
    4.77000   67.00000    0.32400
    4.77000   72.20000    0.29000
    4.77000   77.70000    0.28400
    4.77000   81.90000    0.30500
    4.77000   87.40000    0.29800
    4.77000   92.60000    0.25500
    4.83000    5.40000    0.45000    9.00000
    4.83000   10.50000    0.34200
    4.83000   15.00000    0.33400
    4.83000   21.30000    0.32600
    4.83000   36.80000    0.13600    7.00000
    4.83000   42.20000    0.07960
    4.83000   47.00000    0.05950
    4.83000   52.10000    0.05200
    4.83000   62.30000    0.05810
    4.83000   67.40000    0.04350
    4.83000   72.80000    0.04250
    4.83000   78.10000    0.02900    9.00000
    4.83000   82.90000    0.02430    9.00000
    4.83000   88.00000    0.02370    8.00000
    4.83000   93.10000    0.02220    9.00000
    4.90000    4.70000    6.36000
    4.90000    9.90000    5.84000
    4.90000   14.80000    4.90000
    4.90000   20.40000    3.30000
    4.90000   25.20000    1.45000
    4.90000   31.10000    0.71400
    4.90000   36.00000    0.56100
    4.90000   41.50000    0.65700
    4.90000   46.70000    0.64500
    4.90000   51.30000    0.66100
    4.90000   57.20000    0.50800
    4.90000   62.10000    0.41700
    4.90000   67.70000    0.25100
    4.90000   72.00000    0.19700
    4.90000   77.90000    0.17700
    4.90000   82.10000    0.16200
    4.90000   88.00000    0.15600
    4.90000   93.20000    0.14300
    4.93000    5.40000    0.20000   25.00000
    4.93000   10.30000    0.14700
    4.93000   15.40000    0.12300
    4.93000   20.50000    0.12500
    4.93000   26.30000    0.12000
    4.93000   31.70000    0.09600
    4.93000   36.50000    0.08180
    4.93000   41.70000    0.07310
    4.93000   47.40000    0.04800    6.00000
    4.93000   52.30000    0.04000    7.00000
    4.93000   57.40000    0.04880
    4.93000   62.50000    0.04990
    4.93000   67.60000    0.04260
    4.93000   72.80000    0.04550
    4.93000   77.90000    0.04300   12.00000
    4.93000   83.00000    0.04300    9.00000
    4.93000   88.10000    0.04300    7.00000
    5.00000    5.00000    0.58000   12.00000
    5.00000   10.30000    0.56300
    5.00000   15.60000    0.58900
    5.00000   20.30000    0.56300
    5.00000   26.00000    0.46900
    5.00000   31.00000    0.34900
    5.00000   36.30000    0.32600
    5.00000   41.40000    0.22200
    5.00000   46.40000    0.15100
    5.00000   51.40000    0.13400
    5.00000   57.10000    0.11000
    5.00000   62.40000    0.12600
    5.00000   67.10000    0.10700
    5.02000    5.60000    0.32000   19.00000
    5.02000   11.00000    0.17900
    5.02000   15.80000    0.10600
    5.02000   21.20000    0.07650
    5.02000   26.00000    0.06630
    5.02000   31.20000    0.06550
    5.02000   36.60000    0.06480
    5.02000   41.70000    0.06130
    5.02000   46.80000    0.03320    5.00000
    5.02000   51.70000    0.03760
    5.02000   56.80000    0.02400   13.00000
ENDDATA            688
ENDSUBENT          695
ENDENTRY             2
