ENTRY            F0306   20030611   20031024
SUBENT        F0306001   20030611   20031024
BIB                 10         18
TITLE      The 16O(a,p)19F reaction at Ea=40 MeV
AUTHOR     (K.Van der Borg,R.J.De Meijer,A.Van der Woude)
INSTITUTE  (2NEDGRN)
REFERENCE  (J,NP/A,273,172,1976)
FACILITY   (CYCLO) KVI
METHOD     (EDE)
DETECTOR   (TELES) Surface barrier detectors with detector
           thicknesses of 0.5 and 5 mm, respectively. A separate
           run with thicknesses of 2 and 5 mm was carried out for
           angles < 25 degr. in order to measure the transitions
           to lower excited states in 19F.
SAMPLE     A 70 mm diameter gas cell with windows consisting
           of 12 mu-m thick kapton foil filled with gas pressures
           between 200 and 400 Torr.
ERR-ANALYS EN-RSL - The energy resolution of 80-150 keV was
           mainly due to kinematic effects and straggling in the
           gas target.
HISTORY    (20030305C)
ENDBIB              18
COMMON               2          3
EN         EN-RSL
MEV        MEV
  40.0      0.15
ENDCOMMON            3
ENDSUBENT           25
SUBENT        F0306002   20030611   20031024
BIB                  3          5
REACTION   (8-O-16(A,P)9-F-19,PAR,DA)
ERR-ANALYS (ANG-ERR) Digitizing error
           (DATA-ERR) Digitizing error
           (DATA-ERR1) Experimenetal error from the graphic bars
STATUS     (CURVE)Fig.2-6
ENDBIB               5
COMMON               2          3
ANG-ERR    DATA-ERR
ADEG       PER-CENT
 0.3        0.1
ENDCOMMON            3
DATA                 4        329
E-LVL      ANG        DATA       DATA-ERR1
MEV        ADEG       MB/SR      MB/SR
  0.000      8.557     0.2492
  0.000      15.31     0.1330     0.1880E-01
  0.000      17.81     0.1162     0.1122E-01
  0.000      23.59     0.1307     0.1655E-01
  0.000      26.35     0.1547     0.1959E-01
  0.000      34.63     0.1396     0.2372E-01
  0.000      45.88     0.4482E-01 0.1005E-01
  0.000      51.37     0.2090E-01 0.9346E-02
  0.000      56.85     0.6949E-02 0.5870E-02
  0.000      62.19     0.5478E-01 0.1007E-01
  0.000      67.96     0.7056E-01 0.1489E-01
  0.000      77.98     0.4537E-01 0.1463E-01
 0.2000      8.121     0.1734     0.1428E-01
 0.2000      14.39     0.3959
 0.2000      16.90     0.4544
 0.2000      22.92     0.4787
 0.2000      25.94     0.4548
 0.2000      34.25     0.2101     0.3316E-01
 0.2000      45.30     0.2139     0.1762E-01
 0.2000      50.83     0.1931     0.1590E-01
 0.2000      56.36     0.1572     0.1781E-01
 0.2000      61.89     0.1519     0.1951E-01
 0.2000      67.17     0.1175     0.2024E-01
 0.2000      77.74     0.3983E-01 0.1300E-01
  1.350      8.774     0.7020E-01 0.8967E-02
  1.350      12.30     0.8549E-01 0.1013E-01
  1.350      14.99     0.9679E-01 0.7818E-02
  1.350      18.12     0.8160E-01 0.8124E-02
  1.350      20.74     0.6600E-01 0.1682E-01
  1.350      23.76     0.7549E-01 0.1496E-01
  1.350      26.41     0.7454E-01 0.1086E-01
  1.350      34.95     0.4110E-01 0.1143E-01
  1.350      46.22     0.3480E-01 0.4755E-02
  1.350      51.22     0.1495E-01 0.6112E-02
  1.350      67.71     0.7453E-02 0.6179E-02
  1.350      78.33     0.1527E-01 0.1031E-01
  1.560      9.094     0.1185     0.1343E-01
  1.560      12.62     0.1291     0.1264E-01
  1.560      15.14     0.1105     0.9099E-02
  1.560      18.17     0.1312     0.1486E-01
  1.560      20.69     0.1380     0.2180E-01
  1.560      23.97     0.1667     0.1632E-01
  1.560      26.74     0.1694     0.1394E-01
  1.560      35.07     0.2305     0.2611E-01
  1.560      46.13     0.1603     0.1571E-01
  1.560      51.91     0.1079     0.1222E-01
  1.560      57.15     0.3588E-01 0.1043E-01
  1.560      62.71     0.5413E-01 0.1301E-01
  1.560      68.22     0.2719E-01 0.8877E-02
  1.560      78.83     0.5304E-01 0.1205E-01
  2.780      7.333     0.7217
  2.780      10.37     0.6184
  2.780      13.66     0.5675
  2.780      16.45     0.4780
  2.780      19.49     0.4026     0.5180E-01
  2.780      22.53     0.3391     0.4355E-01
  2.780      25.31     0.3391
  2.780      33.92     0.3826     0.4336E-01
  2.780      45.06     0.3512
  2.780      50.63     0.3224
  2.780      55.95     0.2408     0.2358E-01
  2.780      61.77     0.1829     0.9192E-02
  2.780      67.34     0.1151     0.1648E-01
  2.780      78.23     0.7491E-01 0.1602E-01
  4.030      9.123     0.2739     0.3660E-01
  4.030      12.62     0.2599     0.3474E-01
  4.030      18.49     0.1635     0.1931E-01
  4.030      20.83     0.1457     0.2610E-01
  4.030      23.95     0.1264     0.1591E-01
  4.030      26.56     0.1068     0.1258E-01
  4.030      35.10     0.1062     0.1822E-01
  4.030      46.33     0.3983E-01 0.1072E-01
  4.030      51.79     0.2997E-01 0.9030E-02
  4.030      57.07     0.4338E-01 0.1196E-01
  4.030      62.77     0.4310E-01 0.9863E-02
  4.030      68.07     0.4683E-01 0.1136E-01
  4.030      78.44     0.3794E-01 0.1046E-01
  4.370      9.198     0.5534E-01 0.1758E-01
  4.370      15.65     0.7377E-01 0.1925E-01
  4.370      24.18     0.2736E-01 0.1428E-01
  4.370      27.13     0.3740E-01 0.1049E-01
  4.370      35.28     0.1072E-01 0.7252E-02
  4.370      46.56     0.1126E-01 0.7840E-02
  4.370      52.21     0.5351E-02 0.3651E-02
  4.370      57.54     0.1703E-01 0.1009E-01
  4.370      62.94     0.2616E-01 0.9830E-02
  4.370      68.26     0.2554E-01 0.1015E-01
  4.370      78.88     0.2780E-01 0.9329E-02
  4.650      8.715      1.086
  4.650      12.48      1.201
  4.650      15.48      1.180
  4.650      17.97      1.082
  4.650      20.97      1.063
  4.650      23.71     0.8953
  4.650      26.71     0.8793
  4.650      35.20     0.6450
  4.650      46.66     0.3477
  4.650      52.42     0.3844
  4.650      58.18     0.3969
  4.650      63.45     0.4946
  4.650      69.21     0.5107
  4.650      79.95     0.4291
  5.460      6.759     0.2743     0.3902E-01
  5.460      10.80     0.3042     0.2960E-01
  5.460      13.57     0.3373     0.2222E-01
  5.460      16.61     0.3154     0.3068E-01
  5.460      19.39     0.3157     0.4495E-01
  5.460      24.95     0.3109     0.7392E-02
  5.460      33.80     0.3014     0.4291E-01
  5.460      44.95     0.1844     0.2076E-01
  5.460      50.51     0.2012     0.1645E-01
  5.460      55.83     0.1561     0.2220E-01
  5.460      61.90     0.1461     0.1422E-01
  5.460      66.97     0.1213     0.2075E-01
  5.460      78.10     0.1080     0.2150E-01
  6.110      8.540     0.1421     0.1835E-01
  6.110      12.22     0.1628     0.2894E-01
  6.110      15.35     0.1383     0.1643E-01
  6.110      17.89     0.1842     0.2743E-01
  6.110      20.61     0.2880     0.4571E-01
  6.110      23.88     0.1943     0.2310E-01
  6.110      26.60     0.2970     0.2921E-01
  6.110      35.17     0.1700     0.3495E-01
  6.110      46.40     0.9171E-01 0.1630E-01
  6.110      52.24     0.1137     0.1801E-01
  6.110      57.49     0.6300E-01 0.1179E-01
  6.110      62.88     0.1042     0.1853E-01
  6.110      68.57     0.1385     0.2328E-01
  6.110      78.98     0.8680E-01 0.1784E-01
  6.290      9.637     0.7642E-01 0.1932E-01
  6.290      15.70     0.9446E-01 0.1500E-01
  6.290      18.81     0.9545E-01 0.1661E-01
  6.290      21.77     0.1086     0.2745E-01
  6.290      26.98     0.7225E-01 0.1575E-01
  6.290      35.75     0.1123     0.2913E-01
  6.290      46.81     0.5597E-01 0.1526E-01
  6.290      52.65     0.4552E-01 0.1867E-01
  6.290      57.64     0.8548E-01 0.1802E-01
  6.290      63.37     0.6120E-01 0.1546E-01
  6.290      68.57     0.4340E-01 0.1406E-01
  6.290      79.01     0.1739E-01 0.7765E-02
  6.920      8.905     0.1900     0.2268E-01
  6.920      12.60     0.2280     0.3184E-01
  6.920      15.42     0.2224     0.2880E-01
  6.920      18.25     0.2095     0.2713E-01
  6.920      21.28     0.2665     0.3724E-01
  6.920      24.22     0.1734     0.2926E-01
  6.920      26.71     0.1652     0.1807E-01
  6.920      35.56     0.1976     0.2755E-01
  6.920      46.84     0.1386     0.2071E-01
  6.920      52.50     0.1333     0.1725E-01
  6.920      57.81     0.1183     0.1999E-01
  6.920      63.28     0.9571E-01 0.1618E-01
  6.920      68.77     0.9209E-01 0.1987E-01
  6.920      79.58     0.8142E-01 0.2114E-01
  7.240      9.639      1.381     0.2297
  7.240      13.25      1.674     0.2890
  7.240      16.22      1.676     0.2008
  7.240      18.84      1.135     0.2226
  7.240      21.67      1.439     0.2505
  7.240      24.69     0.9312     0.2290
  7.240      27.55     0.7632     0.1609
  7.240      35.92      1.275     0.2868
  7.240      47.35     0.7911     0.1890
  7.240      52.79     0.7307     0.1796
  7.240      58.39     0.4953     0.1605
  7.240      63.40     0.7682     0.1835
  7.240      68.85     0.6537     0.1739
  7.240      79.71     0.7260     0.2076
  7.930      9.050     0.1903     0.2427E-01
  7.930      12.81     0.1965     0.3362E-01
  7.930      15.57     0.1996     0.2546E-01
  7.930      18.30     0.1518     0.2810E-01
  7.930      21.07     0.1737     0.3214E-01
  7.930      24.07     0.1705     0.3852E-01
  7.930      27.55     0.1295     0.1651E-01
  7.930      36.09     0.1478     0.2527E-01
  7.930      47.74     0.4608E-01 0.1441E-01
  7.930      53.32     0.8346E-01 0.1545E-01
  7.930      58.80     0.6122E-01 0.1844E-01
  7.930      64.33     0.6998E-01 0.1672E-01
  7.930      70.11     0.8417E-01 0.1788E-01
  7.930      80.67     0.1100     0.2189E-01
  8.280      8.711     0.1227     0.2658E-01
  8.280      12.38     0.1492     0.3367E-01
  8.280      15.24     0.1969     0.3149E-01
  8.280      18.17     0.1220     0.2071E-01
  8.280      21.22     0.2031     0.4024E-01
  8.280      23.86     0.1914     0.2489E-01
  8.280      26.83     0.1605     0.1924E-01
  8.280      35.48     0.1991     0.2992E-01
  8.280      46.87     0.1200     0.2377E-01
  8.280      51.85     0.1183     0.1894E-01
  8.280      58.12     0.8508E-01 0.1606E-01
  8.280      63.45     0.1083     0.1941E-01
  8.280      68.77     0.1157     0.1738E-01
  8.280      79.31     0.5860E-01 0.1868E-01
  8.600      9.698     0.7040E-02 0.2193E-02
  8.600      13.20     0.6676E-02 0.2284E-02
  8.600      15.92     0.6445E-02 0.1967E-02
  8.600      19.04     0.5892E-02 0.1608E-02
  8.600      24.57     0.8816E-02 0.3324E-02
  8.600      36.14     0.5777E-02 0.2666E-02
  8.600      47.41     0.5649E-02 0.1794E-02
  8.600      52.75     0.4429E-02 0.1887E-02
  8.600      58.31     0.4732E-02 0.1562E-02
  8.600      63.89     0.4214E-02 0.1636E-02
  8.600      69.30     0.5809E-02 0.1699E-02
  8.600      79.43     0.4647E-02 0.1855E-02
  8.930      8.600     0.9274
  8.930      12.74     0.7865
  8.930      15.22     0.6913
  8.930      18.51     0.5410
  8.930      21.31     0.4384     0.5666E-01
  8.930      24.09     0.3057     0.5160E-01
  8.930      35.64     0.1463     0.3289E-01
  8.930      47.11     0.1323     0.2488E-01
  8.930      52.49     0.1909     0.3044E-01
  8.930      58.48     0.1774     0.1936E-01
  8.930      63.81     0.1851     0.2210E-01
  8.930      69.26     0.1381     0.2062E-01
  8.930      79.54     0.9917E-01 0.2405E-01
  9.700      9.138     0.1861     0.3788E-01
  9.700      12.81     0.1553     0.4133E-01
  9.700      15.81     0.1702     0.3829E-01
  9.700      18.70     0.1320     0.5053E-01
  9.700      24.85     0.1410     0.3939E-01
  9.700      36.24     0.1136     0.3539E-01
  9.700      54.02     0.1228     0.2677E-01
  9.700      59.03     0.5420E-01 0.1478E-01
  9.700      64.62     0.1008     0.2051E-01
  9.700      70.24     0.1126     0.1874E-01
  9.700      81.14     0.4888E-01 0.2083E-01
  9.900      9.508     0.7177     0.7031E-01
  9.900      13.26     0.6573     0.6439E-01
  9.900      16.26     0.6450     0.5310E-01
  9.900      19.01     0.6116     0.8771E-01
  9.900      22.02     0.6106     0.9640E-01
  9.900      24.75     0.5047     0.6488E-01
  9.900      37.00     0.3808     0.4305E-01
  9.900      48.26     0.3298     0.7051E-01
  9.900      54.00     0.2675     0.2620E-01
  9.900      59.50     0.2405     0.3797E-01
  9.900      65.25     0.2200     0.2828E-01
  9.900      71.25     0.1879     0.1542E-01
  9.900      81.76     0.1628     0.2805E-01
  10.42      8.379      1.050     0.1013
  10.42      11.90      1.049
  10.42      14.42      1.031
  10.42      17.93     0.8553
  10.42      21.21     0.8993
  10.42      24.22     0.7717     0.1006
  10.42      36.03     0.4874     0.7589E-01
  10.42      47.35     0.4247     0.7809E-01
  10.42      53.13     0.3704     0.4694E-01
  10.42      59.42     0.3576     0.3995E-01
  10.42      64.96     0.4022     0.4494E-01
  10.42      70.25     0.4156     0.6474E-01
  10.42      81.56     0.3109     0.4841E-01
  11.25      9.169     0.2069     0.4386E-01
  11.25      12.70     0.1897     0.2785E-01
  11.25      16.18     0.3462     0.6362E-01
  11.25      18.99     0.1473     0.2384E-01
  11.25      25.09     0.2485     0.5609E-01
  11.25      36.74     0.1754     0.5107E-01
  11.25      48.69     0.8254E-01 0.2455E-01
  11.25      54.30     0.8800E-01 0.2617E-01
  11.25      59.78     0.9299E-01 0.2530E-01
  11.25      65.41     0.8310E-01 0.2574E-01
  11.25      81.75     0.6951E-01 0.2558E-01
  12.80      8.651     0.3161     0.4643E-01
  12.80      12.33     0.3337     0.3917E-01
  12.80      15.40     0.5361     0.7349E-01
  12.80      18.19     0.3765     0.6251E-01
  12.80      21.37     0.4021     0.6290E-01
  12.80      24.73     0.4702     0.7794E-01
  12.80      36.36     0.3396     0.6267E-01
  12.80      47.91     0.1439     0.1972E-01
  12.80      53.60     0.1569     0.3325E-01
  12.80      59.38     0.1051     0.2413E-01
  12.80      64.88     0.1047     0.3105E-01
  12.80      70.60     0.1449     0.3326E-01
  12.80      81.17     0.2116     0.3106E-01
  13.80      9.059     0.2155     0.4173E-01
  13.80      12.71     0.2103     0.3453E-01
  13.80      15.31     0.2304     0.6939E-01
  13.80      18.75     0.1658     0.3565E-01
  13.80      21.44     0.2272     0.5199E-01
  13.80      24.62     0.1605     0.7006E-01
  13.80      36.91     0.1329     0.7815E-01
  13.80      48.53     0.1202     0.2583E-01
  13.80      54.53     0.1207     0.3859E-01
  13.80      60.15     0.1128     0.3396E-01
  13.80      65.75     0.1132     0.3479E-01
  13.80      71.45     0.1554     0.3772E-01
  13.80      81.80     0.1123     0.2949E-01
  14.12      8.668     0.2583     0.3118E-01
  14.12      12.22     0.2334     0.3079E-01
  14.12      15.35     0.2492     0.3700E-01
  14.12      18.50     0.2309     0.2920E-01
  14.12      24.66     0.2199     0.4092E-01
  14.12      36.86     0.1833     0.3977E-01
  14.12      48.46     0.1108     0.1884E-01
  14.12      54.39     0.8921E-01 0.2972E-01
  14.12      60.12     0.1030     0.2638E-01
  14.12      71.67     0.8752E-01 0.2725E-01
  14.12      82.34     0.1276     0.2702E-01
  14.54      8.276     0.1752     0.2522E-01
  14.54      11.71     0.1373     0.3128E-01
  14.54      15.05     0.1770     0.3402E-01
  14.54      18.19     0.1630     0.3218E-01
  14.54      21.46     0.1560     0.3712E-01
  14.54      36.07     0.1399     0.4315E-01
  14.54      53.93     0.6933E-01 0.3231E-01
  14.54      70.82     0.8713E-01 0.2916E-01
  14.54      81.82     0.1251     0.3912E-01
  15.04      8.427     0.2877     0.5166E-01
  15.04      12.19     0.4167     0.1014
  15.04      14.92     0.4689     0.1236
  15.04      18.61     0.3785     0.5948E-01
  15.04      21.58     0.5531     0.8685E-01
  15.04      24.48     0.4668     0.1261
  15.04      36.79     0.4448     0.6995E-01
  15.04      48.61     0.2957     0.3739E-01
  15.04      54.41     0.1841     0.4606E-01
  15.04      60.54     0.2291     0.4940E-01
  15.04      65.95     0.1546     0.4378E-01
  15.04      71.60     0.1194     0.3686E-01
  15.04      82.85     0.1325     0.4569E-01
ENDDATA            331
ENDSUBENT          345
SUBENT        F0306003   20030611   20031024
BIB                  5          7
REACTION   (8-O-16(A,P)9-F-19,PAR,SIG)
EN-SEC     (E-EXC,9-F-19) Excitation energies of the states in
           19F obtained from the peak fitting procedure and
           calibration to known states indicates by FLAG=1
ERR-ANALYS (E-EXC-ERR) uncertainty in energy
FLAG       (1.) see above
STATUS     (TABLE)Tbl.1
ENDBIB               7
NOCOMMON             0          0
DATA                 4         29
E-EXC      E-EXC-ERR  DATA       FLAG
MEV        KEV        MB         NO-DIM
  0.000                 6.000      1.000
 0.1990      2.000      17.00
  1.353      3.000      3.000
  1.556      2.000      9.000      1.000
  2.779     0.4000      22.00      1.000
  4.027      2.000      7.000
  4.371      5.000      2.000
  4.645      1.300      46.00      1.000
  5.456      2.000      15.00      1.000
  6.107      5.000      10.00
  6.286      6.000      5.000
  6.529      6.000      5.000
  6.582      14.00      4.000
  6.918      3.000      11.00
  7.243      3.000      7.000
  7.543      9.000      2.000
  7.723      12.00      1.000
  7.926      3.000      9.000
  8.280      7.000      10.00
  8.601      5.000      4.000
  8.932      8.000      19.00
  9.702      7.000      9.000
  9.898      2.000      28.00
  10.42      2.000      38.00
  11.24      7.000      11.00
  12.80      8.000      20.00
  13.80      4.000      11.00
  14.12      3.000      14.00
  15.04      8.000      23.00
ENDDATA             31
ENDSUBENT           43
ENDENTRY             3
