ENTRY            F0316   20210619   20210819   20210819       F085
SUBENT        F0316001   20210619   20210819   20210819       F085
BIB                  9         14
TITLE      The population ratio of the 4.433 MeV and 7.656 MeV
           states in 12C in the reaction 9Be(alpha,n)12C and the
           parameters of the 7.656 MeV level
AUTHOR     (N.H.Gale,J.B.Garg)
INSTITUTE  (2UK MAN)
REFERENCE  (J,NC,19,742,1961)
FACILITY   (VDG,2UK MAN) 6 MV
SAMPLE     Beryllium target of 330 mu-g/cm**2 thickness
METHOD     (TOF)
DETECTOR   (SCIN) NE211 for neutron liquid fluor contained in a
           cylindrical glass cell 5.5 cm long by 7.8 cm diameter
HISTORY    (19860619C)
           (19990409U) CNPD: corrected 4-dig. year
           (20210619A) SD: Corrections in all Subents.
ENDBIB              14
NOCOMMON             0          0
ENDSUBENT           17
SUBENT        F0316002   20210619   20210819   20210819       F085
BIB                  4         10
REACTION   (4-BE-9(A,N)6-C-12,PAR,DA,,REL)
            Number of counts x 10**(-3)/7.5 microcoulomb in CM
ERR-ANALYS (ERR-S) Error from graphic bars (statistical).
           Errors are shown except when smaller than the
           experimental points.
STATUS     (CURVE) Figs 2,3,4 from Nuov.Cim.,19(1961)742
HISTORY    (20210619A) SD: SF9=EXP deleted from REACTION code.
           EN-SEC deleted. STATUS, ERR-ANALYS updated.
           ANG-ERR -> ANG-ERR-D. Accuracy of digitized data
           presentation revised. DATA-ERR -> ERR-S.
ENDBIB              10
COMMON               1          3
ANG-ERR-D
ADEG
 0.9
ENDCOMMON            3
DATA                 5        123
E-LVL      EN         ANG-CM     DATA-CM    ERR-S
MEV        MEV        ADEG       ARB-UNITS  ARB-UNITS
         0.       5.53        0.1      5.400      0.037
         0.       5.53       14.0      7.260      0.263
         0.       5.53       23.8      9.282      0.436
         0.       5.53       33.5      8.266      0.347
         0.       5.53       39.7      7.675      0.263
         0.       5.53       48.8      5.616      0.260
         0.       5.53       65.1      2.187      0.037
         0.       5.53       79.9      1.272      0.037
         0.       5.53       95.4      1.139      0.037
         0.       5.53      111.5      1.875      0.037
         0.       5.53      125.7      3.302      0.037
         0.       5.53      139.4      3.338      0.037
         0.       5.53      152.4      2.851      0.037
         0.       5.53      161.8      3.223      0.037
         0.       5.53      171.5      2.207      0.037
         0.       5.76        0.4      1.768      0.056
         0.       5.76       16.7      4.762      0.270
         0.       5.76       33.2      6.865      0.362
         0.       5.76       48.6      4.146      0.273
         0.       5.76       65.7      1.255      0.056
         0.       5.76       80.5      0.587      0.056
         0.       5.76       96.8      0.637      0.056
         0.       5.76      111.3      1.127      0.056
         0.       5.76      126.2      2.779      0.056
         0.       5.76      140.5      3.893      0.056
         0.       5.76      154.1      4.292      0.267
         0.       5.76      167.8      4.601      0.056
         0.       5.97        0.7      2.200      0.058
         0.       5.97       15.7      3.781      0.363
         0.       5.97       31.8      4.733      0.456
         0.       5.97       49.9      4.519      0.361
         0.       5.97       65.4      1.139      0.058
         0.       5.97       80.1      0.824      0.058
         0.       5.97       96.4      0.785      0.058
         0.       5.97      111.7      1.194      0.058
         0.       5.97      125.0      2.679      0.273
         0.       5.97      140.0      4.260      0.361
         0.       5.97      152.7      4.931      0.366
         0.       5.97      167.8      6.151      0.058
      4.433       5.53        0.9      5.468      0.045
      4.433       5.53       15.6      4.995      0.239
      4.433       5.53       23.5      4.579      0.045
      4.433       5.53       33.0      3.628      0.045
      4.433       5.53       41.7      3.511      0.045
      4.433       5.53       49.6      2.619      0.045
      4.433       5.53       66.1      2.026      0.045
      4.433       5.53       81.7      2.089      0.045
      4.433       5.53       99.0      1.795      0.045
      4.433       5.53      112.9      2.155      0.045
      4.433       5.53      126.8      2.337      0.045
      4.433       5.53      140.6      2.757      0.045
      4.433       5.53      154.5      2.998      0.045
      4.433       5.53      161.4      3.178      0.045
      4.433       5.53      170.1      3.359      0.045
      4.433       5.76        0.1      5.997      0.044
      4.433       5.76       16.4      5.057      0.295
      4.433       5.76       25.1      4.233      0.177
      4.433       5.76       34.6      3.998      0.044
      4.433       5.76       42.4      3.056      0.044
      4.433       5.76       51.1      2.409      0.044
      4.433       5.76       66.8      1.822      0.044
      4.433       5.76       82.4      1.706      0.044
      4.433       5.76       99.7      1.826      0.044
      4.433       5.76      115.3      2.005      0.044
      4.433       5.76      127.4      2.302      0.044
      4.433       5.76      141.3      2.244      0.044
      4.433       5.76      154.3      2.187      0.044
      4.433       5.76      167.4      1.835      0.044
      4.433       5.76      173.4      1.247      0.044
      4.433       5.97        0.2      3.952      0.044
      4.433       5.97       16.6      3.898      0.234
      4.433       5.97       34.0      2.909      0.044
      4.433       5.97       50.6      2.094      0.044
      4.433       5.97       67.1      1.456      0.044
      4.433       5.97       81.0      1.167      0.044
      4.433       5.97       99.2      1.171      0.044
      4.433       5.97      114.8      1.526      0.044
      4.433       5.97      127.8      1.763      0.044
      4.433       5.97      140.8      1.766      0.044
      4.433       5.97      153.8      1.594      0.044
      4.433       5.97      166.8      1.246      0.044
      4.433       5.97      173.8      0.839      0.044
      7.656       5.53        0.9      4.425      0.056
      7.656       5.53       20.0      6.328      0.522
      7.656       5.53       26.9      7.367      0.608
      7.656       5.53       36.3      6.145      0.435
      7.656       5.53       44.9      5.445      0.434
      7.656       5.53       54.3      4.136      0.434
      7.656       5.53       71.4      2.997      0.056
      7.656       5.53       88.5      1.858      0.056
      7.656       5.53      104.8      0.893      0.056
      7.656       5.53      118.6      0.886      0.056
      7.656       5.53      132.4      1.053      0.056
      7.656       5.53      144.4      1.046      0.056
      7.656       5.53      156.5      1.127      0.056
      7.656       5.53      162.5      1.037      0.056
      7.656       5.53      170.2      0.685      0.056
      7.656       5.76        0.5      3.228      0.030
      7.656       5.76       20.4      4.680      0.177
      7.656       5.76       28.2      5.384      0.132
      7.656       5.76       36.8      5.470      0.265
      7.656       5.76       45.4      5.072      0.220
      7.656       5.76       54.7      3.658      0.177
      7.656       5.76       73.5      2.418      0.177
      7.656       5.76       90.7      1.577      0.030
      7.656       5.76      107.0      1.309      0.030
      7.656       5.76      119.8      0.688      0.030
      7.656       5.76      132.7      0.156      0.030
      7.656       5.76      146.5      0.109      0.030
      7.656       5.76      156.8      0.107      0.030
      7.656       5.76      168.0      0.060      0.030
      7.656       5.97        0.3      1.058      0.031
      7.656       5.97       17.0      2.299      0.311
      7.656       5.97       37.7      3.896      0.267
      7.656       5.97       55.8      3.315      0.178
      7.656       5.97       72.0      1.979      0.133
      7.656       5.97       88.3      1.532      0.031
      7.656       5.97      105.5      1.040      0.031
      7.656       5.97      119.2      0.549      0.031
      7.656       5.97      132.1      0.325      0.031
      7.656       5.97      145.9      0.233      0.031
      7.656       5.97      156.2      0.187      0.031
      7.656       5.97      168.2      0.185      0.031
ENDDATA            125
ENDSUBENT          144
ENDENTRY             2
