ENTRY            F0315   20040722        9
SUBENT        F0315001   20040722          9   20050926       0000
BIB                  8         17
TITLE      The 50Cr(a,n)53Fe and 50Cr(a,p)53Mn cross sections
AUTHOR     (A.J.MORTON,A.F.SCOTT,S.G.TIMS,V.Y.HANSPER,
           D.G.SARGOOD)
INSTITUTE  (3AULAML)
REFERENCE  (J,NP/A,573,276,1994)
FACILITY   (VDGT) 5U Pelletron
SAMPLE     A metallic chromium target, enriched to 96.75% in 50Cr,
           was prepared by evaporation from an intimate mixture of
           Cr2O3 and powdered tantalum which acted as a reducing
           agent. The determinations of target thickness agreed at
           the 5% level. The adopted value was 2.45*10**18 50Cr
           atoms*cm**(-2).
STATUS     (APRVD) Data were received from the author: S.G.Tims
                   and from table 2.
HISTORY    (20001215C)
           (20030503A) LVL-NUMB changed on E-LVL in sub.004,005
           (20031216A) Data received from the author: Dr S.G.Tims
ENDBIB              17
NOCOMMON
ENDSUBENT           20
SUBENT        F0315002   20040722          4   20050926       0000
BIB                  7         21
REACTION  1(24-CR-50(A,N)26-FE-53,,SIG)
          2(24-CR-50(A,N)26-FE-53,,SIG)
PART-DET  2(N)
DETECTOR  1(GELI) A 120 cm**3 Ge(Li) detector was located 2 cm
           from the target in the 55 angle direction.
          2(PROPC) For neutron counting measurements the target
           chamber was a stainless steel tubular cross located
           at the center on the neutron detector which consisted
           of 32x32x44 cm3 paraffin castle embedded in which
           were six 3He-filled proportional counters.
ANALYSIS  2(4PI1A)
METHOD    1(ACTIV)
          2neutron counting by 4PI neutron detector
DECAY-DATA (29-CU-62,9.73MIN,AR,511.)
ERR-ANALYS (ERR-S) Statistical error
          1(ERR-1) Error in the cross section scale, the main
           contributors being gamma-ray detector efficiency - 8%,
           target thickness (5%), beam  current integration (3%).
          2(ERR-1) Error in the cross section scale, the main
           contributors being neutron detector efficiency - 12%,
           target thickness (5%), beam current integration (3%).
ENDBIB              21
COMMON               2          3
EN-ERR     ERR-1
MEV        PER-CENT
   0.01      22.0
ENDCOMMON            3
DATA                 6         77
EN         DATA      1ERR-S     1DATA      2+ERR-S    2-ERR-S    2
MEV        MB         MB         MB         MB         MB
 5.4087    0.61580E-020.31060E-02
 5.4786    0.18046E-010.26700E-02
 5.5523    0.62620E-010.37970E-02
 5.6278    0.59344E-010.39930E-02
 5.7032    0.78580E-010.46100E-02
 5.7786    0.11513    0.36020E-02
 5.8490    0.12292    0.35820E-02
 5.9194    0.18079    0.49940E-02
 5.9897    0.19346    0.49830E-02
 6.0601    0.16101    0.47380E-02
 6.1304    0.21659    0.72080E-02
 6.2008    0.42286    0.88680E-020.74034    0.56526E-010.15776
 6.2712    0.71402    0.11960E-01 1.1094    0.58715E-010.16043
 6.3415    0.88560    0.13238E-01 1.3175    0.60882E-010.16311
 6.4118    0.86419    0.13469E-01 1.2552    0.63082E-010.16598
 6.4822     1.1231    0.12230E-01 1.7007    0.66741E-010.17071
 6.5525     1.3590    0.16227E-01 1.9475    0.71240E-010.17568
 6.6228     1.8271    0.11337E-01 2.4542    0.76060E-010.18044
 6.6881     1.4422    0.10967E-01 2.0529    0.81033E-010.18515
 6.7534     2.0112    0.13113E-01 2.5956    0.86613E-010.18998
 6.8187     2.6969    0.20459E-01 3.8578    0.93178E-010.19523
 6.8839     2.9628    0.20946E-01 3.7965    0.99915E-010.20073
 6.9492     3.2090    0.20785E-01 4.1365    0.10796    0.20659
 7.0145     3.1690    0.21492E-01 4.1755    0.11726    0.21342
 7.0798     3.8830    0.24644E-01 5.1824    0.12798    0.22114
 7.1450     5.4040    0.28934E-01 6.9992    0.13950    0.22933
 7.2103     5.4759    0.31155E-01 7.2243    0.15090    0.23746
 7.2755     5.8995    0.31380E-01 7.3691    0.16511    0.24928
 7.3408     6.3111    0.34039E-01 8.9147    0.18125    0.26272
 7.4060     6.7483    0.78660E-01 9.3607    0.19824    0.27658
 7.4713     8.5355    0.74650E-01 11.224    0.21817    0.29304
 7.5315     9.6727    0.54216E-01 11.688    0.23784    0.30957
 7.5917     10.190    0.76836E-01 13.056    0.25753    0.32583
 7.6520     11.932    0.84207E-01 15.649    0.27674    0.34227
 7.7041     14.126    0.21294
 7.7122     14.170    0.91555E-01 17.708    0.29768    0.36036
 7.7724     13.163    0.10181     16.992    0.31895    0.37910
 7.8326     14.400    0.11830     17.570    0.34227    0.39975
 7.8928     15.717    0.11092     20.214    0.36806    0.42243
 7.9530     17.206    0.12855     21.805    0.39767    0.44928
 8.0132     17.449    0.11105     22.679    0.42386    0.47345
 8.0734     20.241    0.17116     24.842    0.45082    0.49831
 8.1336     22.224    0.19388     27.767    0.47971    0.52525
 8.1938     25.484    0.17528     29.409    0.51037    0.55401
 8.2540     26.458    0.17541     31.081    0.54140    0.58312
 8.3142     28.441    0.19623     34.269    0.57519    0.61519
 8.3744     29.302    0.16269     36.236    0.61310    0.65129
 8.4346     31.505    0.17314     39.881    0.64526    0.68204
 8.4948     32.838    0.17897     41.506    0.67796    0.71356
 8.5500     35.520    0.17984     44.886    0.70509    0.73964
 8.6051     36.400    0.19028     44.520    0.73559    0.76897
 8.6603     38.885    0.20234     48.245    0.76907    0.80134
 8.7155     35.161    0.17996     44.377    0.80502    0.83615
 8.7706     41.706    0.20054     53.104    0.84379    0.87386
 8.8258     43.439    0.21068     53.046    0.88171    0.91080
 8.8809     43.755    0.18399     55.336    0.91448    0.94287
 8.9361     48.781    0.21500     60.646    0.94760    0.97532
 8.9913     52.120    0.22651     64.341    0.98029     1.0074
 9.0464     51.717    0.24218     64.993     1.0143     1.0407
 9.1016     52.486    0.24766     65.283     1.0538     1.0795
 9.1567     58.125    0.26307     74.720     1.0932     1.1183
 9.2119     56.409    0.23506     71.548     1.1329     1.1573
 9.2670     59.136    0.22316     76.196     1.1759     1.1997
 9.3222     59.425    0.21773     75.285     1.2079     1.2314
 9.3773     57.346    0.20681     74.116     1.2426     1.2656
 9.4325     62.376    0.27801     79.858     1.2775     1.3001
 9.4876     64.723    0.32382     82.888     1.3126     1.3347
 9.5428     67.207    0.40199     87.159     1.3523     1.3739
 9.5979     66.975    0.42721     86.988     1.3938     1.4150
 9.6531     68.625    0.51368     89.518     1.4413     1.4621
 9.7082     72.167    0.33740     90.795     1.4847     1.5051
 9.7583     74.706    0.30329     96.754     1.5176     1.5378
 9.8085     79.064    0.34218     102.21     1.5571     1.5770
 9.8586     75.359    0.77124E-01 97.485     1.5898     1.6095
 9.9087     70.323    0.30676     92.081     1.6220     1.6415
 9.9588     76.662    0.32701     103.54     1.6596     1.6788
 10.009     84.122    0.21603
ENDDATA             79
ENDSUBENT          109
NOSUBENT      F0315003   20040722              20050926       0000
SUBENT        F0315004   20040722          9   20050926       0000
BIB                  4         11
REACTION   (24-CR-50(A,P)25-MN-53,PAR,SIG)
DETECTOR   (SIBAR) 200 mm**2 surface barrier detector mounted
           8.6 cm from the target in the 125 angle direction
           and covered with a 50 mu-m Al foil
EN-SEC     (E-LVL,25-MN-53)
ERR-ANALYS (EN-ERR-DIG) Digitizing error
           (ERR-1) Scale error. The main contributors being
             * target thickness 5%,
             * the solid angle and beam-current integration 8%,
             * angular-distribution corrections 3%.
           (ERR-S) Statistical error
ENDBIB              11
COMMON               2          3
EN-ERR-DIG ERR-1
MEV        PER-CENT
   0.02      10.0
ENDCOMMON            3
DATA                 4        170
E-LVL      EN         DATA       ERR-S
MEV        MEV        MB         MB
 0.0000     4.8680    0.42113E-010.66619E-02
 0.0000     4.9788    0.45206E-010.12848E-01
 0.0000     5.0895    0.79767E-010.78577E-02
 0.0000     5.1700    0.76251E-010.76251E-02
 0.0000     5.2505    0.10291    0.13340E-01
 0.0000     5.3028    0.14943    0.13801E-01
 0.0000     5.3260    0.13124    0.90675E-02
 0.0000     5.4075    0.88506E-010.76962E-02
 0.0000     5.4769    0.10846    0.80167E-02
 0.0000     5.5523    0.16362    0.99886E-02
 0.0000     5.6278    0.18399    0.11313E-01
 0.0000     5.7032    0.27177    0.14303E-01
 0.0000     5.7786    0.28772    0.15984E-01
 0.0000     5.8490    0.31596    0.25468E-01
 0.0000     5.9194    0.36124    0.21460E-01
 0.0000     5.9897    0.36261    0.19407E-01
 0.0000     6.0601    0.51484    0.27410E-01
 0.0000     6.1304    0.55167    0.24914E-01
 0.0000     6.2008    0.59074    0.27338E-01
 0.0000     6.2712    0.70038    0.30917E-01
 0.0000     6.3415    0.79122    0.27324E-01
 0.0000     6.4118    0.53374    0.24963E-01
 0.0000     6.4822    0.61241    0.31406E-01
 0.0000     6.5525    0.83150    0.37082E-01
 0.0000     6.6228    0.87274    0.57073E-01
 0.0000     6.6881     1.1366    0.49933E-01
 0.0000     6.7534     1.0474    0.37270E-01
 0.0000     6.8187     1.2916    0.36142E-01
 0.0000     6.8839     1.6449    0.36152E-01
 0.0000     6.9492     1.9366    0.40900E-01
 0.0000     7.0145     1.9254    0.43780E-01
 0.0000     7.0145     2.0624    0.48516E-01
 0.0000     7.0798     1.6976    0.74182E-01
 0.0000     7.0798     1.8326    0.79928E-01
 0.0000     7.1450     1.9339    0.10711
 0.0000     7.2103     1.9506    0.95151E-01
 0.0000     7.2755     2.5451    0.89197E-01
 0.0000     7.3408     2.1082    0.10345
 0.0000     7.4060     2.2099    0.85684E-01
 0.0000     7.4713     2.3708    0.89261E-01
 0.0000     7.5315     2.4829    0.92752E-01
 0.0000     7.5917     3.2041    0.96338E-01
 0.0000     7.6520     3.1567    0.10344
 0.0000     7.7122     3.2843    0.81951E-01
 0.0000     7.7724     3.6991    0.11079
 0.0000     7.8326     3.7531    0.73156E-01
 0.0000     7.8928     3.7597    0.11546
 0.0000     7.9530     4.4233    0.11443
 0.0000     8.0132     4.5185    0.12502
 0.0000     8.0734     5.0243    0.15366
 0.0000     8.1336     6.2025    0.15381
 0.0000     8.1938     5.6048    0.13967
 0.0000     8.2540     5.9037    0.17164
 0.0000     8.3142     6.2000    0.14991
 0.0000     8.3744     5.8684    0.14653
 0.0000     8.4346     6.4154    0.16092
 0.0000     8.4948     8.4905    0.17138
 0.0000     8.5500     7.3946    0.16091
 0.0000     8.6051     6.6828    0.13952
 0.0000     8.6603     7.2956    0.13948
 0.0000     8.7155     6.4683    0.15733
 0.0000     8.7706     6.6273    0.16443
 0.0000     8.8258     7.5671    0.14999
 0.0000     8.8809     6.7852    0.14999
 0.0000     8.9361     8.6085    0.17145
 0.0000     8.9913     9.8860    0.20001
 0.0000     9.0464     9.0791    0.19310
 0.0000     9.1016     8.1476    0.17860
 0.0000     9.1567     7.2909    0.16465
 0.0000     9.2119     8.5373    0.16782
 0.0000     9.2670     7.1386    0.14999
 0.0000     9.3222     8.4224    0.17859
 0.0000     9.3773     8.7833    0.16106
 0.0000     9.4325     8.7909    0.17503
 0.0000     9.4876     8.3880    0.16090
 0.0000     9.5428     7.3508    0.15351
 0.0000     9.5979     9.0856    0.18236
 0.0000     9.6531     7.4066    0.15736
 0.0000     9.7082     8.2046    0.17160
 0.0000     9.7583     10.665    0.20730
 0.0000     9.8085     12.181    0.22179
 0.0000     9.8586     10.760    0.21091
 0.0000     9.9087     9.1733    0.17875
 0.0000     9.9588     8.1042    0.20064
 0.0000     10.009     7.4366    0.16844
0.37800     4.8680    0.23793E-010.11183E-01
0.37800     4.9788    0.19272E-010.15941E-01
0.37800     5.0895    0.25287E-010.40055E-01
0.37800     5.1700    0.89225E-010.41199E-01
0.37800     5.2505    0.66505E-010.42656E-01
0.37800     5.3028    0.74644E-010.43481E-01
0.37800     5.3260    0.72445E-010.43848E-01
0.37800     5.4075    0.12882    0.45671E-01
0.37800     5.4769    0.14503    0.45171E-01
0.37800     5.5523    0.19645    0.45681E-01
0.37800     5.6278    0.26245    0.46956E-01
0.37800     5.7032    0.22786    0.15674
0.37800     5.7786    0.26877    0.48442E-01
0.37800     5.8490    0.33522    0.49217E-01
0.37800     5.9194    0.36146    0.50019E-01
0.37800     5.9897    0.46724    0.50065E-01
0.37800     6.0601    0.52956    0.51744E-01
0.37800     6.1304    0.56350    0.51197E-01
0.37800     6.2008    0.80734    0.53854E-01
0.37800     6.2712     1.0129    0.55819E-01
0.37800     6.3415     1.0680    0.56454E-01
0.37800     6.4118     1.0543    0.56071E-01
0.37800     6.4822    0.94172    0.56729E-01
0.37800     6.5525     1.2026    0.59425E-01
0.37800     6.6228     1.2812    0.70097E-01
0.37800     6.6881     1.2270    0.67997E-01
0.37800     6.7534     1.1628    0.52934E-01
0.37800     6.8187     1.4793    0.55039E-01
0.37800     6.8839     1.5445    0.55338E-01
0.37800     6.9492     2.1685    0.60514E-01
0.37800     7.0145     1.9184    0.58131E-01
0.37800     7.0145     2.0268    0.58823E-01
0.37800     7.0798     2.2554    0.90975E-01
0.37800     7.0798     2.1537    0.88432E-01
0.37800     7.1450     2.7637    0.99505E-01
0.37800     7.2103     2.5250    0.96540E-01
0.37800     7.2755     2.7929    0.99181E-01
0.37800     7.3408     2.5997    0.10285
0.37800     7.4060     2.4243    0.99430E-01
0.37800     7.4713     3.1251    0.11276
0.37800     7.5315     3.5032    0.12129
0.37800     7.5917     2.8009    0.10704
0.37800     7.6520     3.9058    0.11771
0.37800     7.7122     4.6061    0.11137
0.37800     7.7724     3.8850    0.12509
0.37800     7.8326     4.6871    0.98675E-01
0.37800     7.8928     5.2355    0.14433
0.37800     7.9530     5.0884    0.14303
0.37800     8.0132     4.4614    0.13574
0.37800     8.0734     4.9886    0.13222
0.37800     8.1336     5.7017    0.14666
0.37800     8.1938     6.6183    0.15400
0.37800     8.2540     7.4162    0.17164
0.37800     8.3142     7.3958    0.15705
0.37800     8.3744     7.7162    0.16083
0.37800     8.4346     9.3584    0.17165
0.37800     8.4948     8.4262    0.17138
0.37800     8.5500     7.0013    0.16448
0.37800     8.6051     6.5254    0.15025
0.37800     8.6603     7.0310    0.17881
0.37800     8.7155     7.3479    0.17878
0.37800     8.7706     8.4217    0.18945
0.37800     8.8258     8.0242    0.18212
0.37800     8.8809     8.1743    0.18213
0.37800     8.9361     7.7476    0.15360
0.37800     8.9913     7.6824    0.16072
0.37800     9.0464     9.7513    0.16449
0.37800     9.1016     8.6406    0.15359
0.37800     9.1567     7.7276    0.14675
0.37800     9.2119     8.9765    0.16068
0.37800     9.2670     8.5527    0.16070
0.37800     9.3222     6.9115    0.13930
0.37800     9.3773     6.7110    0.15033
0.37800     9.4325     6.5798    0.15003
0.37800     9.4876     6.2248    0.13587
0.37800     9.5428     5.3872    0.14994
0.37800     9.5979     5.4671    0.14302
0.37800     9.6531     7.0597    0.15378
0.37800     9.7082     6.9140    0.13942
0.37800     9.7583     6.0152    0.16083
0.37800     9.8085     6.8075    0.17171
0.37800     9.8586     7.0816    0.19304
0.37800     9.9087     7.2750    0.18232
0.37800     9.9588     7.5453    0.17197
0.37800     10.009     5.5407    0.15411
ENDDATA            172
ENDSUBENT          192
SUBENT        F0315005   20040722          9   20050926       0000
BIB                  4         12
REACTION   (24-CR-50(A,P)25-MN-53,PAR,SIG)
DETECTOR   (SIBAR) 200 mm**2 surface barrier detector mounted
           8.6 cm from the target in the 125 angle direction
           and covered with a 50 mu-m Al foil
EN-SEC     (E-LVL-MIN,25-MN-53)
           (E-LVL-MAX,25-MN-53)
ERR-ANALYS (EN-ERR) Digitizing error
           (ERR-1) Scale error. The main contributors being
             * target thickness 5%,
             * the solid angle and beam-current integration 8%,
             * angular-distribution corrections 3%.
           (ERR-S) Statistical error
ENDBIB              12
COMMON               2          3
EN-ERR     ERR-1
MEV        PER-CENT
   0.02      10.0
ENDCOMMON            3
DATA                 5        235
E-LVL-MIN  E-LVL-MAX  EN         DATA       ERR-S
MEV        MEV        MEV        MB         MB
 1.2900     1.6210     5.9194    0.46536    0.50296E-01
 1.2900     1.6210     5.9897    0.54577    0.53904E-01
 1.2900     1.6210     6.0601    0.43340    0.41140E-01
 1.2900     1.6210     6.1304    0.71287    0.73669E-01
 1.2900     1.6210     6.2008    0.80238    0.85798E-01
 1.2900     1.6210     6.2712    0.82321    0.58819E-01
 1.2900     1.6210     6.3415    0.82372    0.62624E-01
 1.2900     1.6210     6.4118    0.87639    0.60046E-01
 1.2900     1.6210     6.4822     1.1627    0.90700E-01
 1.2900     1.6210     6.5525     1.1495    0.75000E-01
 1.2900     1.6210     6.6228     1.2252    0.80588E-01
 1.2900     1.6210     6.6881     1.2882    0.10575
 1.2900     1.6210     6.7534     1.3472    0.15538
 1.2900     1.6210     6.8187     1.6759    0.12831
 1.2900     1.6210     6.8839     2.2700    0.93816E-01
 1.2900     1.6210     6.9492     1.9944    0.10393
 1.2900     1.6210     7.0145     2.0479    0.10127
 1.2900     1.6210     7.0145     2.1073    0.14726
 1.2900     1.6210     7.0798     2.5478    0.12208
 1.2900     1.6210     7.0798     2.6914    0.12777
 1.2900     1.6210     7.1450     2.5378    0.10728
 1.2900     1.6210     7.2103     2.1042    0.89841E-01
 1.2900     1.6210     7.2755     3.1220    0.16159
 1.2900     1.6210     7.3408     2.8590    0.13767
 1.2900     1.6210     7.4060     3.1580    0.14608
 1.2900     1.6210     7.4713     4.1339    0.18710
 1.2900     1.6210     7.5315     3.8970    0.14869
 1.2900     1.6210     7.5917     4.5841    0.16376
 1.2900     1.6210     7.6520     5.6290    0.15020
 1.2900     1.6210     7.7122     5.6998    0.15757
 1.2900     1.6210     7.7724     5.5880    0.15514
 1.2900     1.6210     7.8326     6.3391    0.13765
 1.2900     1.6210     7.8928     7.3181    0.19075
 1.2900     1.6210     7.9530     7.4858    0.20342
 1.2900     1.6210     8.0132     7.5525    0.20939
 1.2900     1.6210     8.0734     7.3980    0.17729
 1.2900     1.6210     8.1336     9.6156    0.19291
 1.2900     1.6210     8.1938     10.654    0.21381
 1.2900     1.6210     8.2540     11.188    0.20953
 1.2900     1.6210     8.3142     11.149    0.22123
 1.2900     1.6210     8.3744     10.541    0.21147
 1.2900     1.6210     8.4346     11.360    0.22553
 1.2900     1.6210     8.4948     11.718    0.21814
 1.2900     1.6210     8.5500     12.441    0.23442
 1.2900     1.6210     8.6051     12.574    0.22650
 1.2900     1.6210     8.6603     12.599    0.21646
 1.2900     1.6210     8.7155     10.179    0.22166
 1.2900     1.6210     8.7706     9.6592    0.20576
 1.2900     1.6210     8.8258     12.142    0.23550
 1.2900     1.6210     8.8809     14.903    0.25887
 1.2900     1.6210     8.9361     15.450    0.23317
 1.2900     1.6210     8.9913     14.886    0.23749
 1.2900     1.6210     9.0464     15.875    0.24861
 1.2900     1.6210     9.1016     14.923    0.22596
 1.2900     1.6210     9.1567     13.923    0.23277
 1.2900     1.6210     9.2119     12.936    0.23211
 1.2900     1.6210     9.2670     15.231    0.26012
 1.2900     1.6210     9.3222     12.648    0.23305
 1.2900     1.6210     9.3773     11.669    0.21913
 1.2900     1.6210     9.4325     14.254    0.23942
 1.2900     1.6210     9.4876     13.355    0.23251
 1.2900     1.6210     9.5428     13.890    0.24054
 1.2900     1.6210     9.5979     14.184    0.23325
 1.2900     1.6210     9.6531     16.121    0.24205
 1.2900     1.6210     9.7082     13.851    0.22331
 1.2900     1.6210     9.7583     16.146    0.24645
 1.2900     1.6210     9.8085     14.304    0.22013
 1.2900     1.6210     9.8586     13.840    0.23567
 1.2900     1.6210     9.9087     14.789    0.24285
 1.2900     1.6210     9.9588     14.080    0.24128
 1.2900     1.6210     10.009     13.744    0.22499
 2.2740     2.4480     6.6228     1.0539    0.54027E-01
 2.2740     2.4480     6.6881     1.1172    0.55491E-01
 2.2740     2.4480     6.7534    0.94582    0.36175E-01
 2.2740     2.4480     6.8187     1.2504    0.40078E-01
 2.2740     2.4480     6.8839     1.5812    0.44307E-01
 2.2740     2.4480     6.9492     1.6871    0.45733E-01
 2.2740     2.4480     7.0145     1.9419    0.48663E-01
 2.2740     2.4480     7.0145     1.8478    0.47719E-01
 2.2740     2.4480     7.0798     2.0951    0.81451E-01
 2.2740     2.4480     7.0798     2.0905    0.81391E-01
 2.2740     2.4480     7.1450     1.8250    0.78395E-01
 2.2740     2.4480     7.2103     1.4807    0.69238E-01
 2.2740     2.4480     7.2755     2.3678    0.86614E-01
 2.2740     2.4480     7.3408     3.0372    0.10681
 2.2740     2.4480     7.4060     2.3270    0.94845E-01
 2.2740     2.4480     7.4713     3.1745    0.11024
 2.2740     2.4480     7.5315     3.9899    0.12326
 2.2740     2.4480     7.5917     3.4033    0.11510
 2.2740     2.4480     7.6520     3.6816    0.12003
 2.2740     2.4480     7.7122     4.8677    0.10784
 2.2740     2.4480     7.7724     4.0656    0.12748
 2.2740     2.4480     7.8326     3.7987    0.91409E-01
 2.2740     2.4480     7.8928     4.7220    0.13932
 2.2740     2.4480     7.9530     5.5950    0.15068
 2.2740     2.4480     8.0132     4.7070    0.14096
 2.2740     2.4480     8.0734     5.8813    0.15641
 2.2740     2.4480     8.1336     5.7872    0.15674
 2.2740     2.4480     8.1938     6.6071    0.16739
 2.2740     2.4480     8.2540     8.7350    0.19004
 2.2740     2.4480     8.3142     6.8343    0.17273
 2.2740     2.4480     8.3744     6.6280    0.17261
 2.2740     2.4480     8.4346     6.6245    0.17443
 2.2740     2.4480     8.4948     7.0141    0.17988
 2.2740     2.4480     8.5500     7.5003    0.18646
 2.2740     2.4480     8.6051     7.5326    0.18859
 2.2740     2.4480     8.6603     8.3561    0.19803
 2.2740     2.4480     8.7155     8.1503    0.19817
 2.2740     2.4480     8.7706     8.6984    0.20490
 2.2740     2.4480     8.8258     9.3933    0.21261
 2.2740     2.4480     8.8809     8.3407    0.20517
 2.2740     2.4480     8.9361     9.5043    0.21660
 2.2740     2.4480     8.9913     9.5180    0.21834
 2.2740     2.4480     9.0464     10.127    0.22509
 2.2740     2.4480     9.1016     9.6557    0.22302
 2.2740     2.4480     9.1567     9.8690    0.22685
 2.2740     2.4480     9.2119     9.4496    0.22483
 2.2740     2.4480     9.2670     8.9765    0.22285
 2.2740     2.4480     9.3222     8.1088    0.21692
 2.2740     2.4480     9.3773     8.9579    0.22507
 2.2740     2.4480     9.4325     9.0880    0.22712
 2.2740     2.4480     9.4876     9.9049    0.23473
 2.2740     2.4480     9.5428     8.6774    0.22640
 2.2740     2.4480     9.5979     8.1347    0.22362
 2.2740     2.4480     9.6531     8.9641    0.23141
 2.2740     2.4480     9.7082     8.3123    0.22714
 2.2740     2.4480     9.7583     9.3714    0.23550
 2.2740     2.4480     9.8085     8.7424    0.23112
 2.2740     2.4480     9.8586     7.2309    0.21934
 2.2740     2.4480     9.9087     7.1631    0.21895
 2.2740     2.4480     9.9588     7.9985    0.22652
 2.2740     2.4480     10.009     8.6634    0.23220
 2.5630     2.7610     7.0798     2.3467    0.87347E-01
 2.5630     2.7610     7.0798     2.3593    0.87576E-01
 2.5630     2.7610     7.1450     2.5448    0.92245E-01
 2.5630     2.7610     7.2103     3.4586    0.10775
 2.5630     2.7610     7.2755     3.5413    0.10892
 2.5630     2.7610     7.3408     3.3005    0.11467
 2.5630     2.7610     7.4060     3.8995    0.12370
 2.5630     2.7610     7.4713     3.8677    0.12324
 2.5630     2.7610     7.5315     4.1930    0.12775
 2.5630     2.7610     7.5917     4.3438    0.12984
 2.5630     2.7610     7.6520     4.4247    0.13089
 2.5630     2.7610     7.7122     5.6278    0.11429
 2.5630     2.7610     7.7724     5.9564    0.15044
 2.5630     2.7610     7.8326     5.7716    0.10491
 2.5630     2.7610     7.8928     6.5411    0.15792
 2.5630     2.7610     7.9530     5.8894    0.14952
 2.5630     2.7610     8.0132     6.9587    0.16167
 2.5630     2.7610     8.0734     7.4731    0.16725
 2.5630     2.7610     8.1336     8.7507    0.18044
 2.5630     2.7610     8.1938     8.5969    0.17900
 2.5630     2.7610     8.2540     9.9536    0.19190
 2.5630     2.7610     8.3142     13.588    0.22297
 2.5630     2.7610     8.3744     11.258    0.20259
 2.5630     2.7610     8.4346     10.929    0.19969
 2.5630     2.7610     8.4948     13.040    0.21757
 2.5630     2.7610     8.5500     13.736    0.22335
 2.5630     2.7610     8.6051     12.809    0.21584
 2.5630     2.7610     8.6603     12.601    0.21405
 2.5630     2.7610     8.7155     11.723    0.20654
 2.5630     2.7610     8.7706     13.733    0.22320
 2.5630     2.7610     8.8258     14.273    0.22735
 2.5630     2.7610     8.8809     15.938    0.24005
 2.5630     2.7610     8.9361     14.835    0.23170
 2.5630     2.7610     8.9913     14.462    0.22877
 2.5630     2.7610     9.0464     17.862    0.25407
 2.5630     2.7610     9.1016     16.054    0.24085
 2.5630     2.7610     9.1567     15.060    0.23359
 2.5630     2.7610     9.2119     14.117    0.22594
 2.5630     2.7610     9.2670     16.909    0.24573
 2.5630     2.7610     9.3222     17.316    0.24870
 2.5630     2.7610     9.3773     14.993    0.23166
 2.5630     2.7610     9.4325     15.538    0.23559
 2.5630     2.7610     9.4876     16.194    0.24069
 2.5630     2.7610     9.5428     20.458    0.27030
 2.5630     2.7610     9.5979     17.347    0.24911
 2.5630     2.7610     9.6531     17.694    0.25161
 2.5630     2.7610     9.7082     16.936    0.24612
 2.5630     2.7610     9.7583     16.643    0.24395
 2.5630     2.7610     9.8085     15.055    0.23212
 2.5630     2.7610     9.8586     15.656    0.23663
 2.5630     2.7610     9.9087     16.315    0.24155
 2.5630     2.7610     9.9588     16.812    0.24548
 2.5630     2.7610     10.009     16.252    0.24139
 2.8760     3.2490     7.2103     4.2734    0.12757
 2.8760     3.2490     7.2755     5.4956    0.13944
 2.8760     3.2490     7.3408     5.5631    0.15134
 2.8760     3.2490     7.4060     5.5977    0.15282
 2.8760     3.2490     7.4713     6.7899    0.16613
 2.8760     3.2490     7.5315     6.7119    0.16546
 2.8760     3.2490     7.5917     7.4193    0.17089
 2.8760     3.2490     7.6520     8.2839    0.18055
 2.8760     3.2490     7.7122     9.7483    0.15090
 2.8760     3.2490     7.7724     9.8128    0.19618
 2.8760     3.2490     7.8326     11.205    0.14737
 2.8760     3.2490     7.8928     13.086    0.22647
 2.8760     3.2490     7.9530     15.183    0.23886
 2.8760     3.2490     8.0132     13.849    0.22842
 2.8760     3.2490     8.0734     14.525    0.23401
 2.8760     3.2490     8.1336     17.146    0.25383
 2.8760     3.2490     8.1938     16.670    0.25021
 2.8760     3.2490     8.2540     19.573    0.26962
 2.8760     3.2490     8.3142     21.275    0.28156
 2.8760     3.2490     8.3744     20.440    0.27853
 2.8760     3.2490     8.4346     22.175    0.28854
 2.8760     3.2490     8.4948     24.844    0.30452
 2.8760     3.2490     8.5500     22.097    0.28763
 2.8760     3.2490     8.6051     24.505    0.30283
 2.8760     3.2490     8.6603     23.326    0.29645
 2.8760     3.2490     8.7155     22.926    0.29351
 2.8760     3.2490     8.7706     25.717    0.31053
 2.8760     3.2490     8.8258     28.578    0.32642
 2.8760     3.2490     8.8809     26.344    0.31388
 2.8760     3.2490     8.9361     29.353    0.33078
 2.8760     3.2490     8.9913     28.079    0.32405
 2.8760     3.2490     9.0464     29.975    0.33505
 2.8760     3.2490     9.1016     30.535    0.33837
 2.8760     3.2490     9.1567     27.315    0.32321
 2.8760     3.2490     9.2119     29.800    0.33672
 2.8760     3.2490     9.2670     31.849    0.34868
 2.8760     3.2490     9.3222     32.379    0.35163
 2.8760     3.2490     9.3773     30.304    0.34181
 2.8760     3.2490     9.4325     29.928    0.51822
 2.8760     3.2490     9.4876     29.981    0.51508
 2.8760     3.2490     9.5428     27.700    0.42349
 2.8760     3.2490     9.5979     32.590    0.50125
 2.8760     3.2490     9.6531     29.677    0.55034
 2.8760     3.2490     9.7082     27.145    0.39811
 2.8760     3.2490     9.7583     28.885    0.45375
 2.8760     3.2490     9.8085     32.947    0.61149
 2.8760     3.2490     9.8586     32.073    0.61796
 2.8760     3.2490     9.9087     28.688    0.54770
 2.8760     3.2490     9.9588     29.010    0.52034
 2.8760     3.2490     10.009     30.603    0.50784
ENDDATA            237
ENDSUBENT          258
SUBENT        F0315006   20040722          4   20050926       0000
BIB                  1          1
REACTION   (24-CR-50(A,N)26-FE-53,,SGV,,MXW)
ENDBIB               1
NOCOMMON
DATA                 2         19
KT         DATA
K9         CM3/S/MOL
0.80000    0.12100E-25
 1.0000    0.26600E-19
 1.2000    0.46500E-15
 1.4000    0.51400E-12
 1.5000    0.85900E-11
 1.6000    0.10200E-09
 1.8000    0.64500E-08
 2.0000    0.18400E-06
 2.5000    0.84400E-04
 3.0000    0.55900E-02
 3.5000    0.12000
 4.0000     1.2700
 4.5000     8.3200
 5.0000     38.700
 6.0000     407.00
 7.0000     2210.0
 8.0000     7770.0
 9.0000     19700.
 10.000     38800.
ENDDATA             21
ENDSUBENT           27
SUBENT        F0315007   20040722          4   20050926       0000
BIB                  1          1
REACTION   (24-CR-50(A,P)25-MN-53,,SGV,,MXW)
ENDBIB               1
NOCOMMON
DATA                 2         21
KT         DATA
K9         CM3/S/MOL
0.50000    0.13300E-21
0.60000    0.13300E-18
0.80000    0.21400E-14
 1.0000    0.16100E-11
 1.2000    0.22200E-09
 1.4000    0.10600E-07
 1.5000    0.54900E-07
 1.6000    0.24500E-06
 1.8000    0.33800E-05
 2.0000    0.31500E-04
 2.5000    0.24900E-02
 3.0000    0.63000E-01
 3.5000    0.76100
 4.0000     5.6400
 4.5000     29.400
 5.0000     118.00
 6.0000     1060.0
 7.0000     5420.0
 8.0000     18400.
 9.0000     45500.
 10.000     88600.
ENDDATA             23
ENDSUBENT           29
ENDENTRY             7
