ENTRY            F0320   19990409   19990428
SUBENT        F0320001   19990409   19990428
BIB                  9         12
TITLE      Evidence for isoscalar giant resonance in the reaction
           11B(p,a)8Be
AUTHOR     (W.BUCK,A.STABLER,G.STAUDT,H.OESCHLER)
INSTITUTE  (2GERMPH)
REFERENCE  (J,NP/A,281,469,197705)
MONITOR    (5-B-11(P,EL)5-B-11,,DA,,RTH,EXP)
REL-REF    (A,,CAVAIGNAC,J,NP/A,167,207,1971)Agreement within 10%.
SAMPLE     The targets were self-supporting enriced boron foils
           with a thickness between 40 and 180 mu-g/cm**2
FACILITY   (VDGT)
HISTORY    (19850923C)
           (19990409A) CNPD: corrected 4-dig. year
ENDBIB              12
COMMON               1          3
EN-NRM
MEV
  2.0
ENDCOMMON            3
ENDSUBENT           19
SUBENT        F0320002   19990409   19990428
BIB                  4          6
REACTION   (5-B-11(P,A)4-BE-8,PAR,DA,,,EXP)
ERR-ANALYS (ANG-ERR) Digitizing error
           (DATA-ERR) From graphic error (statitstic) and
           digitizing error
STATUS     (CURVE) Fig 1
EN-SEC     (E-LVL,4-BE-8)
ENDBIB               6
COMMON               2          3
E-LVL      ANG-ERR
MEV        ADEG
 0.           1.0
ENDCOMMON            3
DATA                 4        118
EN         ANG-CM     DATA-CM    DATA-ERR
MEV        ADEG       MB/SR      MB/SR
    14.        21.34     170.9        3.719
    14.        25.55     268.6        5.844
    14.        29.83     349.8        7.609
    14.        34.18     363.5        7.909
    14.        38.5      422.9        9.201
    14.        42.95     337.9        7.351
    14.        42.97     313.4        6.819
    14.        51.79     250.7        5.453
    14.        57.67     216.         4.699
    14.        60.74     137.7       10.8
    14.        65.2      105.9        8.269
    14.        69.63      87.88       1.912
    14.        73.87     128.1        2.787
    14.        78.11     186.7        4.062
    14.        83.82     252.5        5.494
    14.        86.66     316.6        6.888
    14.        90.93     412.3        8.97
    14.        95.26     462.        10.05
    14.        99.62     480.2       10.45
    14.       102.6      462.8       10.07
    14.       102.6      369.4        8.035
    14.       107.       330.3        7.186
    14.       111.4      284.5        6.189
    14.       114.5      218.8        4.761
    14.       117.5      150.4        3.272
    14.       122.        92.36       7.209
    14.       125.2       41.98       5.01
    14.       128.5       15.81       2.571
    14.       133.8       61.25       9.911
    14.       136.5      140.1        3.048
    14.       140.7      220.2        4.79
    14.       143.4      333.1        7.247
    14.       146.2      543.3       11.82
    14.       150.4      762.7       16.59
    14.       153.3      921.        20.04
    14.       157.6      993.9       21.62
    14.       160.4     1294.        28.15
    14.       163.3     1396.        30.37
    14.       167.6     1564.        34.03
    14.       170.6     1625.        35.35
    16.        26.27     120.7        2.494
    16.        30.65     116.4        2.405
    16.        34.89     175.2        3.619
    16.        40.7      182.         3.76
    16.        45.04     203.6        4.206
    16.        49.46     169.3        3.498
    16.        55.31     157.4        3.252
    16.        58.29     126.1        2.605
    16.        61.31      90.39       1.867
    16.        65.74      75.17       1.553
    16.        70.14      67.32       1.391
    16.        74.52      64.93       1.341
    16.        78.78      90.71       1.874
    16.        84.59      97.8        2.021
    16.        87.4      131.6        2.72
    16.        91.73     152.8        3.157
    16.        96.08     158.7        3.279
    16.       100.5      137.         2.83
    16.       104.9      137.1        2.832
    16.       109.3      118.3        2.444
    16.       112.2      109.9        2.271
    16.       115.2       88.06       1.819
    16.       119.7       56.5        6.643
    16.       122.8       36.24       4.261
    16.       127.2       25.04       3.992
    16.       131.6       30.16       3.537
    16.       134.3       54.6        8.724
    16.       138.5       79.16       6.09
    16.       141.3      123.6       25.15
    16.       144.1      185.9       21.85
    16.       146.9      259.6        5.363
    16.       151.2      336.7        6.957
    16.       155.5      376.7        7.782
    16.       158.4      421.2        8.703
    16.       161.3      471.         9.731
    16.       165.6      471.4        9.74
    16.       168.6      471.7        9.746
    16.       171.5      472.         9.752
    18.         9.201     98.82       2.142
    18.        20.72     144.4        3.129
    18.        26.44     195.3        4.234
    18.        30.76     227.3        4.927
    18.        36.57     236.3        5.122
    18.        40.91     255.1        5.528
    18.        43.92     196.1        4.251
    18.        48.34     168.9        3.66
    18.        52.83     116.         2.515
    18.        58.72      96.25       2.086
    18.        61.74      71.28       1.545
    18.        66.18      56.93       1.234
    18.        70.49      68.78       1.491
    18.        74.77      89.6        1.942
    18.        79.07     108.3        2.347
    18.        83.41     116.8        2.533
    18.        87.77     121.4        2.632
    18.        92.14     121.6        2.635
    18.        95.09     108.7        2.355
    18.        99.55      83.58       1.812
    18.       105.5       64.31       1.394
    18.       108.5       42.54       0.922
    18.       113.1       26.11       4.231
    18.       114.6       20.84       3.385
    18.       120.5       17.28       2.808
    18.       123.4       18.65       3.022
    18.       127.7       17.98       2.921
    18.       130.6       23.41       3.794
    18.       133.1       64.72       1.403
    18.       135.9       94.35       2.045
    18.       141.6      132.6        2.873
    18.       144.4      179.3        3.885
    18.       147.3      208.5        4.52
    18.       151.6      261.6        5.67
    18.       154.5      261.8        5.674
    18.       158.8      304.6        6.602
    18.       161.7      328.6        7.123
    18.       164.6      368.1        7.98
    18.       169.       341.8        7.409
    18.       171.9      368.8        7.993
ENDDATA            120
ENDSUBENT          135
SUBENT        F0320003   19990409   19990428
BIB                  4          5
REACTION   (5-B-11(P,A)4-BE-8,PAR,DA,,,EXP)
ERR-ANALYS (EN-ERR) Digitizing error
           (DATA-ERR) Digitizing error
STATUS     (CURVE) Fig 2
EN-SEC     (E-LVL,4-BE-8)
ENDBIB               5
COMMON               3          3
E-LVL      EN-ERR     DATA-ERR
MEV        MEV        MB/SR
 0.         0.05       0.001
ENDCOMMON            3
DATA                 3        196
EN         ANG-CM     DATA-CM
MEV        ADEG       MB/SR
    21.44     100.         0.2372
    21.44     170.         0.0559
    21.46     140.         0.3336
    21.52     140.         0.2952
    21.69     100.         0.2506
    21.69     170.         0.1982
    21.78     140.         0.257
    21.94     170.         0.418
    21.95     100.         0.2903
    21.97     140.         0.2187
    22.17     140.         0.2701
    22.2      100.         0.3564
    22.2      170.         0.3536
    22.39     100.         0.5144
    22.39     170.         0.3796
    22.39     170.         0.3408
    22.42     140.         0.3345
    22.58     170.         0.3539
    22.59     100.         0.3831
    22.68     140.         0.2449
    22.78     100.         0.4359
    22.78     170.         0.4445
    22.81     140.         0.2322
    22.81     140.         0.2707
    22.83     170.         0.6641
    22.84     100.         0.528
    22.97     100.         0.436
    23.       140.         0.2195
    23.03     170.         0.6643
    23.03     170.         0.2767
    23.13     140.         0.194
    23.17     100.         0.3968
    23.29     170.         0.2252
    23.3      100.         0.2653
    23.38     140.         0.2455
    23.49     100.         0.3313
    23.61     170.         0.1351
    23.64     140.         0.2842
    23.74     170.         0.0447
    23.75     100.         0.1737
    23.77     140.         0.1817
    23.96     140.         0.105
    24.       100.         0.1344
    24.       170.         0.0191
    24.22     140.         0.0795
    24.25     170.         0.0839
    24.26     100.         0.1873
    24.32     100.         0.2531
    24.32     170.         0.1873
    24.39     100.         0.148
    24.41     140.         0.2335
    24.41     140.         0.3105
    24.45     170.         0.1615
    24.64     100.         0.2008
    24.7      170.         0.4976
    24.79     140.         0.3108
    24.82     170.         0.4719
    24.83     100.         0.2142
    24.85     140.         0.3365
    24.89     170.         0.3686
    24.96     100.         0.1617
    24.98     140.         0.3751
    25.09     170.         0.1233
    25.11     140.         0.3495
    25.16     100.         0.1619
    25.16     100.         0.1224
    25.17     140.         0.3624
    25.17     140.         0.4137
    25.22     170.         0.0975
    25.3      140.         0.4779
    25.34     170.         0.1364
    25.35     100.         0.2278
    25.47     100.         0.2937
    25.54     170.         0.0978
    25.56     140.         0.3627
    25.66     170.         0.1883
    25.67     100.         0.307
    25.69     140.         0.2474
    25.88     140.         0.3117
    25.92     100.         0.2941
    25.92     170.         0.1885
    26.04     170.         0.5116
    26.05     100.         0.4785
    26.07     140.         0.3888
    26.23     170.         0.6667
    26.24     100.         0.5839
    26.26     140.         0.4659
    26.3      100.         0.676
    26.32     140.         0.5813
    26.32     140.         0.5172
    26.36     100.         0.4919
    26.36     170.         0.7831
    26.42     170.         0.8348
    26.48     170.         0.8607
    26.51     140.         0.5045
    26.56     100.         0.5447
    26.61     170.         1.003
    26.64     140.         0.5559
    26.68     100.         0.5054
    26.68     100.         0.6369
    26.71     140.         0.4534
    26.74     170.         0.7446
    26.77     140.         0.415
    26.8      170.         1.223
    26.81     100.         0.6108
    26.81     100.         0.5186
    26.9      140.         0.3638
    26.92     170.         1.197
    26.97     140.         0.3639
    26.98     170.         1.417
    27.       100.         0.6241
    27.       100.         0.6899
    27.03     140.         0.4024
    27.05     170.         1.313
    27.05     170.         1.249
    27.07     100.         0.5978
    27.12     170.         0.9516
    27.16     140.         0.3384
    27.26     100.         0.4796
    27.32     170.         0.8484
    27.41     140.         0.3643
    27.51     170.         0.6548
    27.52     100.         0.3878
    27.61     140.         0.3131
    27.74     140.         0.3517
    27.76     170.         0.9909
    27.84     100.         0.4407
    28.03     100.         0.3882
    28.06     140.         0.3392
    28.08     170.         1.224
    28.35     100.         0.4149
    28.35     100.         0.3754
    28.38     140.         0.3394
    28.38     140.         0.3651
    28.38     140.         0.301
    28.39     170.         1.379
    28.39     170.         1.431
    28.54     100.         0.4545
    28.63     140.         0.314
    28.64     170.         1.702
    28.7      140.         0.2243
    28.8      100.         0.4416
    28.84     170.         1.521
    29.06     100.         0.3498
    29.08     140.         0.1605
    29.16     170.         1.522
    29.28     140.         0.135
    29.29     170.         1.328
    29.32     100.         0.3105
    29.45     100.         0.2054
    29.49     170.         0.9922
    29.6      140.         0.1481
    29.69     170.         0.7857
    29.69     170.         0.7211
    29.7      100.         0.1793
    29.79     140.         0.1355
    29.79     140.         0.1227
    29.94     170.         0.8117
    29.96     100.         0.2322
    29.98     140.         0.1485
    30.01     170.         0.6696
    30.09     100.         0.2192
    30.11     140.         0.1357
    30.2      170.         0.5535
    30.28     100.         0.1667
    30.3      140.         0.1103
    30.39     170.         0.5666
    30.43     140.         0.1488
    30.47     100.         0.1669
    30.6      100.         0.1539
    30.62     140.         0.1362
    30.65     170.         0.5539
    30.79     100.         0.1541
    30.81     140.         0.1235
    30.84     170.         0.6057
    31.03     170.         0.6704
    31.05     100.         0.1675
    31.07     140.         0.1622
    31.3      100.         0.1546
    31.33     140.         0.1496
    31.35     170.         0.6965
    31.48     170.         0.6062
    31.56     100.         0.1285
    31.58     140.         0.1498
    31.75     100.         0.1155
    31.77     140.         0.1756
    31.8      170.         0.6064
    32.       170.         0.5032
    32.06     170.         0.4128
    32.07     100.         0.1158
    32.16     140.         0.1631
    32.27     100.         0.1028
    32.29     140.         0.1376
    32.38     170.         0.3614
    32.4      100.         0.0898
    32.48     140.         0.1249
ENDDATA            198
ENDSUBENT          212
ENDENTRY             3
