ENTRY            F0320   20210619   20210819   20210819       F085
SUBENT        F0320001   20210619   20210819   20210819       F085
BIB                  9         14
TITLE      Evidence for isoscalar giant resonance in the reaction
           11B(p,alpha)8Be
AUTHOR     (W.Buck,A.Stabler,G.Staudt,H.Oeschler)
INSTITUTE  (2GERMPH)
REFERENCE  (J,NP/A,281,469,1977)
FACILITY   (VDGT,2GERMPH)
MONITOR    (5-B-11(P,EL)5-B-11,,DA,,RTH)
REL-REF    (A,F0350002,J.F.Cavaignac+,J,NP/A,167,207,1971)
                                         Agreement within 10%.
SAMPLE     The targets were self-supporting enriched boron foils
           with a thickness between 40 and 180 ug/cm2
HISTORY    (19850923C)
           (19990409U) CNPD: corrected 4-dig. year, lower case
           (20210619A) SD: Corrections in all Subents.
ENDBIB              14
COMMON               1          3
EN-NRM
MEV
  2.0
ENDCOMMON            3
ENDSUBENT           21
SUBENT        F0320002   20210619   20210819   20210819       F085
BIB                  4          7
REACTION   (5-B-11(P,A)4-BE-8,PAR,DA)
ERR-ANALYS (ERR-S) From graphic bars (statistic)
STATUS     (CURVE) Fig 1 from Nucl.Phys.,A281(1977)469
HISTORY    (20210619A) SD: SF9=EXP deleted from REACTION code.
           EN-SEC deleted. STATUS, ERR-ANALYS updated.
           ANG-ERR -> ANG-ERR-D. Accuracy of digitized data
           presentation revised. DATA-ERR ->ERR-S, MB/SR->MU-B/SR.
ENDBIB               7
COMMON               2          3
E-LVL      ANG-ERR-D
MEV        ADEG
 0.           1.0
ENDCOMMON            3
DATA                 4        118
EN         ANG-CM     DATA-CM    ERR-S
MEV        ADEG       MU-B/SR    MU-B/SR
        14.       21.3   1.71E+02   3.72E+00
        14.       25.6   2.69E+02   5.84E+00
        14.       29.8   3.50E+02   7.61E+00
        14.       34.2   3.64E+02   7.91E+00
        14.       38.5   4.23E+02   9.20E+00
        14.       43.0   3.38E+02   7.35E+00
        14.       43.0   3.13E+02   6.82E+00
        14.       51.8   2.51E+02   5.45E+00
        14.       57.7   2.16E+02   4.70E+00
        14.       60.7   1.38E+02   1.08E+01
        14.       65.2   1.06E+02   8.27E+00
        14.       69.6   8.79E+01   1.91E+00
        14.       73.9   1.28E+02   2.79E+00
        14.       78.1   1.87E+02   4.06E+00
        14.       83.8   2.53E+02   5.49E+00
        14.       86.7   3.17E+02   6.89E+00
        14.       90.9   4.12E+02   8.97E+00
        14.       95.3   4.62E+02   1.01E+01
        14.       99.6   4.80E+02   1.04E+01
        14.      102.6   4.63E+02   1.01E+01
        14.      102.6   3.69E+02   8.04E+00
        14.      107.0   3.30E+02   7.19E+00
        14.      111.4   2.85E+02   6.19E+00
        14.      114.5   2.19E+02   4.76E+00
        14.      117.5   1.50E+02   3.27E+00
        14.      122.0   9.24E+01   7.21E+00
        14.      125.2   4.20E+01   5.01E+00
        14.      128.5   1.58E+01   2.57E+00
        14.      133.8   6.13E+01   9.91E+00
        14.      136.5   1.40E+02   3.05E+00
        14.      140.7   2.20E+02   4.79E+00
        14.      143.4   3.33E+02   7.25E+00
        14.      146.2   5.43E+02   1.18E+01
        14.      150.4   7.63E+02   1.66E+01
        14.      153.3   9.21E+02   2.00E+01
        14.      157.6   9.94E+02   2.16E+01
        14.      160.4   1.29E+03   2.82E+01
        14.      163.3   1.40E+03   3.04E+01
        14.      167.6   1.56E+03   3.40E+01
        14.      170.6   1.63E+03   3.54E+01
        16.       26.3   1.21E+02   2.49E+00
        16.       30.7   1.16E+02   2.40E+00
        16.       34.9   1.75E+02   3.62E+00
        16.       40.7   1.82E+02   3.76E+00
        16.       45.0   2.04E+02   4.21E+00
        16.       49.5   1.69E+02   3.50E+00
        16.       55.3   1.57E+02   3.25E+00
        16.       58.3   1.26E+02   2.61E+00
        16.       61.3   9.04E+01   1.87E+00
        16.       65.7   7.52E+01   1.55E+00
        16.       70.1   6.73E+01   1.39E+00
        16.       74.5   6.49E+01   1.34E+00
        16.       78.8   9.07E+01   1.87E+00
        16.       84.6   9.78E+01   2.02E+00
        16.       87.4   1.32E+02   2.72E+00
        16.       91.7   1.53E+02   3.16E+00
        16.       96.1   1.59E+02   3.28E+00
        16.      100.5   1.37E+02   2.83E+00
        16.      104.9   1.37E+02   2.83E+00
        16.      109.3   1.18E+02   2.44E+00
        16.      112.2   1.10E+02   2.27E+00
        16.      115.2   8.81E+01   1.82E+00
        16.      119.7   5.65E+01   6.64E+00
        16.      122.8   3.62E+01   4.26E+00
        16.      127.2   2.50E+01   3.99E+00
        16.      131.6   3.02E+01   3.54E+00
        16.      134.3   5.46E+01   8.72E+00
        16.      138.5   7.92E+01   6.09E+00
        16.      141.3   1.24E+02   2.52E+01
        16.      144.1   1.86E+02   2.19E+01
        16.      146.9   2.60E+02   5.36E+00
        16.      151.2   3.37E+02   6.96E+00
        16.      155.5   3.77E+02   7.78E+00
        16.      158.4   4.21E+02   8.70E+00
        16.      161.3   4.71E+02   9.73E+00
        16.      165.6   4.71E+02   9.74E+00
        16.      168.6   4.72E+02   9.75E+00
        16.      171.5   4.72E+02   9.75E+00
        18.        9.2   9.88E+01   2.14E+00
        18.       20.7   1.44E+02   3.13E+00
        18.       26.4   1.95E+02   4.23E+00
        18.       30.8   2.27E+02   4.93E+00
        18.       36.6   2.36E+02   5.12E+00
        18.       40.9   2.55E+02   5.53E+00
        18.       43.9   1.96E+02   4.25E+00
        18.       48.3   1.69E+02   3.66E+00
        18.       52.8   1.16E+02   2.52E+00
        18.       58.7   9.63E+01   2.09E+00
        18.       61.7   7.13E+01   1.55E+00
        18.       66.2   5.69E+01   1.23E+00
        18.       70.5   6.88E+01   1.49E+00
        18.       74.8   8.96E+01   1.94E+00
        18.       79.1   1.08E+02   2.35E+00
        18.       83.4   1.17E+02   2.53E+00
        18.       87.8   1.21E+02   2.63E+00
        18.       92.1   1.22E+02   2.63E+00
        18.       95.1   1.09E+02   2.36E+00
        18.       99.6   8.36E+01   1.81E+00
        18.      105.5   6.43E+01   1.39E+00
        18.      108.5   4.25E+01   9.22E-01
        18.      113.1   2.61E+01   4.23E+00
        18.      114.6   2.08E+01   3.39E+00
        18.      120.5   1.73E+01   2.81E+00
        18.      123.4   1.87E+01   3.02E+00
        18.      127.7   1.80E+01   2.92E+00
        18.      130.6   2.34E+01   3.79E+00
        18.      133.1   6.47E+01   1.40E+00
        18.      135.9   9.44E+01   2.05E+00
        18.      141.6   1.33E+02   2.87E+00
        18.      144.4   1.79E+02   3.89E+00
        18.      147.3   2.09E+02   4.52E+00
        18.      151.6   2.62E+02   5.67E+00
        18.      154.5   2.62E+02   5.67E+00
        18.      158.8   3.05E+02   6.60E+00
        18.      161.7   3.29E+02   7.12E+00
        18.      164.6   3.68E+02   7.98E+00
        18.      169.0   3.42E+02   7.41E+00
        18.      171.9   3.69E+02   7.99E+00
ENDDATA            120
ENDSUBENT          136
SUBENT        F0320003   20210619   20210819   20210819       F085
BIB                  3          6
REACTION   (5-B-11(P,A)4-BE-8,PAR,DA)
STATUS     (CURVE) Fig 2 from Nucl.Phys.,A281(1977)469
HISTORY    (20210619A) SD: SF9=EXP deleted from REACTION code.
           EN-SEC, ERR-ANALYS deleted. STATUS updated.
           EN-ERR -> EN-ERR-DIG; DATA-ERR -> ERR-DIG. Accuracy of
           digitized data presentation revised.
ENDBIB               6
COMMON               3          3
E-LVL      EN-ERR-DIG ERR-DIG
MEV        MEV        MB/SR
 0.         0.05       0.001
ENDCOMMON            3
DATA                 3        196
ANG-CM     EN         DATA-CM
ADEG       MEV        MB/SR
       100.      21.44      0.237
       100.      21.69      0.251
       100.      21.95      0.290
       100.      22.20      0.356
       100.      22.39      0.514
       100.      22.59      0.383
       100.      22.78      0.436
       100.      22.84      0.528
       100.      22.97      0.436
       100.      23.17      0.397
       100.      23.30      0.265
       100.      23.49      0.331
       100.      23.75      0.174
       100.      24.00      0.134
       100.      24.26      0.187
       100.      24.32      0.253
       100.      24.39      0.148
       100.      24.64      0.201
       100.      24.83      0.214
       100.      24.96      0.162
       100.      25.16      0.122
       100.      25.16      0.162
       100.      25.35      0.228
       100.      25.47      0.294
       100.      25.67      0.307
       100.      25.92      0.294
       100.      26.05      0.479
       100.      26.24      0.584
       100.      26.30      0.676
       100.      26.36      0.492
       100.      26.56      0.545
       100.      26.68      0.637
       100.      26.68      0.505
       100.      26.81      0.519
       100.      26.81      0.611
       100.      27.00      0.624
       100.      27.00      0.690
       100.      27.07      0.598
       100.      27.26      0.480
       100.      27.52      0.388
       100.      27.84      0.441
       100.      28.03      0.388
       100.      28.35      0.375
       100.      28.35      0.415
       100.      28.54      0.455
       100.      28.80      0.442
       100.      29.06      0.350
       100.      29.32      0.311
       100.      29.45      0.205
       100.      29.70      0.179
       100.      29.96      0.232
       100.      30.09      0.219
       100.      30.28      0.167
       100.      30.47      0.167
       100.      30.60      0.154
       100.      30.79      0.154
       100.      31.05      0.168
       100.      31.30      0.155
       100.      31.56      0.129
       100.      31.75      0.116
       100.      32.07      0.116
       100.      32.27      0.103
       100.      32.40      0.090
       140.      21.46      0.334
       140.      21.52      0.295
       140.      21.78      0.257
       140.      21.97      0.219
       140.      22.17      0.270
       140.      22.42      0.335
       140.      22.68      0.245
       140.      22.81      0.271
       140.      22.81      0.232
       140.      23.00      0.220
       140.      23.13      0.194
       140.      23.38      0.246
       140.      23.64      0.284
       140.      23.77      0.182
       140.      23.96      0.105
       140.      24.22      0.080
       140.      24.41      0.234
       140.      24.41      0.311
       140.      24.79      0.311
       140.      24.85      0.337
       140.      24.98      0.375
       140.      25.11      0.350
       140.      25.17      0.362
       140.      25.17      0.414
       140.      25.30      0.478
       140.      25.56      0.363
       140.      25.69      0.247
       140.      25.88      0.312
       140.      26.07      0.389
       140.      26.26      0.466
       140.      26.32      0.517
       140.      26.32      0.581
       140.      26.51      0.504
       140.      26.64      0.556
       140.      26.71      0.453
       140.      26.77      0.415
       140.      26.90      0.364
       140.      26.97      0.364
       140.      27.03      0.402
       140.      27.16      0.338
       140.      27.41      0.364
       140.      27.61      0.313
       140.      27.74      0.352
       140.      28.06      0.339
       140.      28.38      0.339
       140.      28.38      0.301
       140.      28.38      0.365
       140.      28.63      0.314
       140.      28.70      0.224
       140.      29.08      0.161
       140.      29.28      0.135
       140.      29.60      0.148
       140.      29.79      0.123
       140.      29.79      0.136
       140.      29.98      0.149
       140.      30.11      0.136
       140.      30.30      0.110
       140.      30.43      0.149
       140.      30.62      0.136
       140.      30.81      0.124
       140.      31.07      0.162
       140.      31.33      0.150
       140.      31.58      0.150
       140.      31.77      0.176
       140.      32.16      0.163
       140.      32.29      0.138
       140.      32.48      0.125
       170.      21.44      0.056
       170.      21.69      0.198
       170.      21.94      0.418
       170.      22.20      0.354
       170.      22.39      0.380
       170.      22.39      0.341
       170.      22.58      0.354
       170.      22.78      0.445
       170.      22.83      0.664
       170.      23.03      0.277
       170.      23.03      0.664
       170.      23.29      0.225
       170.      23.61      0.135
       170.      23.74      0.045
       170.      24.00      0.019
       170.      24.25      0.084
       170.      24.32      0.187
       170.      24.45      0.162
       170.      24.70      0.498
       170.      24.82      0.472
       170.      24.89      0.369
       170.      25.09      0.123
       170.      25.22      0.098
       170.      25.34      0.136
       170.      25.54      0.098
       170.      25.66      0.188
       170.      25.92      0.189
       170.      26.04      0.512
       170.      26.23      0.667
       170.      26.36      0.783
       170.      26.42      0.835
       170.      26.48      0.861
       170.      26.61      1.003
       170.      26.74      0.745
       170.      26.80      1.223
       170.      26.92      1.197
       170.      26.98      1.417
       170.      27.05      1.313
       170.      27.05      1.249
       170.      27.12      0.952
       170.      27.32      0.848
       170.      27.51      0.655
       170.      27.76      0.991
       170.      28.08      1.224
       170.      28.39      1.431
       170.      28.39      1.379
       170.      28.64      1.702
       170.      28.84      1.521
       170.      29.16      1.522
       170.      29.29      1.328
       170.      29.49      0.992
       170.      29.69      0.721
       170.      29.69      0.786
       170.      29.94      0.812
       170.      30.01      0.670
       170.      30.20      0.554
       170.      30.39      0.567
       170.      30.65      0.554
       170.      30.84      0.606
       170.      31.03      0.670
       170.      31.35      0.697
       170.      31.48      0.606
       170.      31.80      0.606
       170.      32.00      0.503
       170.      32.06      0.413
       170.      32.38      0.361
ENDDATA            198
ENDSUBENT          213
ENDENTRY             3
