ENTRY            F0328   20160424   20160902   20160701       F062
SUBENT        F0328001   20160424   20160902   20160701       F062
BIB                  9         24
TITLE      Elastic scattering of alpha particles by 9Be and highly
           excited states of 13C
AUTHOR     (J.D.Goss,S.L.Blatt,D.R.Parsignault,C.D.Porterfield,
           F.L.Riffle)
INSTITUTE  (1USAOSU)
REFERENCE  (J,PR/C,7,1837,197305)
METHOD     (PHD,BCINT)
FACILITY   (VDG,1USAOSU)
DETECTOR   (SIBAR) Four silicon surface barrier detectors (with
           300 mu-m depletion depths) in a 23-in.-diam. scattering
           chamber on movable. A fifth detector was used to
           determining 0 degr. by measuring the yield on either
           side of the beam axis.
ERR-ANALYS (DATA-ERR) Relative error. This uncertainty includes
           statistical errors of 1 to 3%, background subtraction
           uncertainties of 1 to 2%, angular uncertainties of
           0.2 degr., and errors due to target nonuniformity.
           (ERR-DIG) Digitizing error
HISTORY    (19860702C)
           (19990409A) CNPD: corrected 4-dig. year
           (20160424A) SD: SF9=EXP deleted from Subents 002-003.
           Author's name corrected. Small changes according to
           last EXFOR rules. Data were re-digitized. SAMPLE
           moved to Subents 002-003.
ENDBIB              24
COMMON               2          3
EN-ERR     DATA-ERR
KEV        PER-CENT
  5.           5.
ENDCOMMON            3
ENDSUBENT           31
SUBENT        F0328002   20160424   20160902   20160701       F062
BIB                  5         12
REACTION   (4-BE-9(A,EL)4-BE-9,,DA)
SAMPLE     The targets were made by vacuum evaporation of
           beryllium metal onto a thin film of formvar.
           The data were taken in 50-keV steps with several
           targets, all approximately 24 keV thick for 4.29-MeV
           alpha-particles.
ERR-ANALYS (ERR-T) The uncertainty for the absolute cross section
           (ERR-1,,1.) Possible errors due to charge collection,
           solid angle uncertainties, analyzer dead-time
           corrections, and routing errors =< +-1%.
STATUS     (CURVE) Fig 3,4 from PR/C,7,1837,1973
HISTORY    (20160424A) SD: Data re-digitized.
ENDBIB              12
COMMON               3          3
EN-ERR-DIG ERR-DIG    ERR-T
MEV        MB/SR      PER-CENT
 0.004       0.5          13.
ENDCOMMON            3
DATA                 3        704
ANG-CM     EN         DATA-CM
ADEG       MEV        MB/SR
       85.8      2.604       94.3
       85.8      2.657       90.8
       85.8      2.711       88.7
       85.8      2.751       85.2
       85.8      2.805       82.4
       85.8      2.852       79.6
       85.8      2.899       76.8
       85.8      2.953       73.3
       85.8      3.007       68.4
       85.8      3.054       63.4
       85.8      3.108       60.6
       85.8      3.155       59.9
       85.8      3.202       53.6
       85.8      3.255       50.8
       85.8      3.302       46.6
       85.8      3.356       42.4
       85.8      3.410       37.5
       85.8      3.457       34.7
       85.8      3.504       31.1
       85.8      3.558       29.0
       85.8      3.605       27.6
       85.8      3.652       24.1
       85.8      3.705       24.1
       85.8      3.752       22.7
       85.8      3.806       21.3
       85.8      3.853       22.7
       85.8      3.907       27.0
       85.8      3.960       34.7
       85.8      4.061       36.1
       85.8      4.108       37.5
       85.8      4.155       40.4
       85.8      4.209       41.1
       85.8      4.256       46.7
       85.8      4.309       50.2
       85.8      4.356       50.2
       85.8      4.410       51.0
       85.8      4.450       51.7
       85.8      4.504       51.0
       85.8      4.558       47.5
       85.8      4.612       46.8
       85.8      4.659       44.7
       85.8      4.706       42.5
       85.8      4.759       42.6
       85.8      4.806       39.7
       85.8      4.853       40.5
       85.8      4.907       39.1
       85.8      4.954       37.0
       85.8      5.008       32.7
       85.8      5.055       32.0
       85.8      5.102       34.9
       85.8      5.156       36.3
       85.8      5.209       37.0
       85.8      5.256       37.0
       85.8      5.310       37.0
       85.8      5.357       40.5
       85.8      5.404       39.1
       85.8      5.458       38.4
       85.8      5.505       39.1
       85.8      5.552       38.4
       85.8      5.599       36.3
       85.8      5.659       35.6
       85.8      5.706       35.6
       85.8      5.753       37.8
       85.8      5.807       39.2
       85.8      5.854       41.3
       90.0      4.498       56.3
       90.0      4.552       54.2
       90.0      4.598       51.5
       90.0      4.652       50.1
       90.0      4.699       49.4
       90.0      4.753       48.0
       90.0      4.800       45.9
       90.0      4.854       45.2
       90.0      4.901       44.5
       90.0      4.948       41.8
       90.0      5.008       41.1
       90.0      5.048       45.9
       90.0      5.095       46.6
       90.0      5.149       45.9
       90.0      5.203       44.5
       90.0      5.257       43.8
       90.0      5.297       42.5
       90.0      5.351       41.1
       90.0      5.398       41.1
       90.0      5.451       39.7
       90.0      5.505       39.7
      106.8      1.705       97.9
      106.8      1.752       92.3
      106.8      1.805       87.5
      106.8      1.852       75.0
      106.8      1.899       70.2
      106.8      1.953       65.3
      106.8      2.000       61.9
      106.8      2.047       57.7
      106.8      2.101       57.0
      106.8      2.155       53.6
      106.8      2.208       52.2
      106.8      2.255       52.2
      106.8      2.302       48.7
      106.8      2.356       46.6
      106.8      2.403       44.6
      106.8      2.450       43.2
      106.8      2.497       41.1
      106.8      2.551       40.4
      106.8      2.604       39.0
      106.8      2.651       41.8
      106.8      2.705       40.4
      106.8      2.752       37.0
      106.8      2.799       34.9
      106.8      2.853       34.2
      106.8      2.900       32.1
      106.8      2.947       29.4
      106.8      3.001       28.0
      106.8      3.054       27.3
      106.8      3.101       21.8
      106.8      3.155       21.1
      106.8      3.202       16.9
      106.8      3.256       18.3
      106.8      3.303       16.9
      106.8      3.357       16.9
      106.8      3.404       15.5
      106.8      3.457       16.9
      106.8      3.511       16.9
      106.8      3.558       17.6
      106.8      3.605       19.7
      106.8      3.652       21.1
      106.8      3.712       22.5
      106.8      3.759       28.7
      106.8      3.806       37.0
      106.8      3.853       40.5
      106.8      3.907       50.2
      106.8      3.954       50.2
      106.8      4.001       62.0
      106.8      4.055       61.3
      106.8      4.102       64.7
      106.8      4.155       66.1
      106.8      4.202       64.0
      106.8      4.256       65.4
      106.8      4.303       63.4
      106.8      4.357       64.1
      106.8      4.404       60.6
      106.8      4.457       60.6
      106.8      4.504       58.5
      106.8      4.551       58.5
      106.8      4.605       56.4
      106.8      4.652       57.8
      106.8      4.706       59.2
      106.8      4.760       59.9
      106.8      4.807       59.9
      106.8      4.854       61.3
      106.8      4.907       64.1
      106.8      4.954       67.5
      106.8      5.008       79.3
      106.8      5.048      107.0
      106.8      5.095       93.2
      106.8      5.156       72.4
      106.8      5.203       64.1
      106.8      5.250       53.0
      106.8      5.297       44.7
      106.8      5.344       40.6
      106.8      5.397       37.8
      106.8      5.451       34.3
      106.8      5.498       30.9
      106.8      5.545       31.6
      106.8      5.606       30.9
      106.8      5.653       28.1
      106.8      5.700       24.0
      106.8      5.747       25.3
      106.8      5.800       23.3
      106.8      5.847       25.3
      106.8      5.901       24.0
      106.8      5.948       26.0
      106.8      6.002       24.7
      106.8      6.049       25.4
      106.8      6.096       23.3
      106.8      6.150       24.0
      106.8      6.197       24.0
      106.8      6.250       21.9
      115.9      3.806       39.3
      115.9      3.860       44.3
      115.9      3.900       50.6
      115.9      3.954       57.0
      115.9      4.008       59.8
      115.9      4.055       55.5
      115.9      4.108       55.6
      115.9      4.155       54.1
      115.9      4.209       55.6
      115.9      4.256       51.3
      115.9      4.303       49.9
      115.9      4.363       47.8
      115.9      4.410       47.8
      115.9      4.451       47.1
      115.9      4.504       47.1
      115.9      4.551       45.7
      115.9      4.605       47.8
      115.9      4.652       50.7
      115.9      4.706       49.2
      115.9      4.760       51.4
      115.9      4.807       52.1
      115.9      4.854       53.5
      115.9      4.907       57.0
      115.9      4.954       64.1
      115.9      5.001       80.2
      115.9      5.061       97.2
      115.9      5.102       76.7
      115.9      5.156       63.4
      115.9      5.203       49.3
      115.9      5.250       40.8
      115.9      5.303       33.8
      115.9      5.357       32.4
      115.9      5.398       27.5
      116.7      1.698       82.6
      116.7      1.752       76.4
      116.7      1.806       70.8
      116.7      1.846       57.6
      116.7      1.900       51.4
      116.7      1.953       46.5
      116.7      2.000       47.9
      116.7      2.054       47.9
      116.7      2.101       50.0
      116.7      2.148       46.5
      116.7      2.202       44.5
      116.7      2.255       45.8
      116.7      2.296       41.7
      116.7      2.350       38.2
      116.7      2.403       36.8
      116.7      2.450       39.6
      116.7      2.497       35.4
      116.7      2.551       33.3
      116.7      2.605       30.6
      116.7      2.652       32.0
      116.7      2.699       28.5
      116.7      2.752       28.5
      116.7      2.806       26.4
      116.7      2.853       22.9
      116.7      2.900       23.6
      116.7      2.947       22.2
      116.7      3.007       21.5
      116.7      3.054       20.9
      116.7      3.101       19.5
      116.7      3.155       20.9
      116.7      3.202       18.1
      116.7      3.256       16.7
      116.7      3.303       17.4
      116.7      3.350       18.1
      116.7      3.397       16.0
      116.7      3.451       20.2
      116.7      3.504       20.9
      116.7      3.551       21.6
      116.7      3.598       25.7
      116.7      3.652       29.2
      116.7      3.706       32.0
      116.7      3.753       37.5
      116.7      3.806       43.8
      116.7      3.853       47.3
      116.7      3.900       52.8
      116.7      3.954       59.8
      116.7      4.001       61.8
      116.7      4.055       57.0
      116.7      4.102       56.3
      116.7      4.156       57.0
      116.7      4.203       55.6
      116.7      4.256       53.5
      116.7      4.303       52.8
      116.7      4.350       48.0
      116.7      4.404       48.0
      116.7      4.458       47.3
      116.7      4.505       50.0
      116.7      4.552       48.0
      116.7      4.605       50.0
      116.7      4.659       51.4
      116.7      4.706       51.4
      116.7      4.753       51.4
      116.7      4.800       54.2
      116.7      4.854       52.1
      116.7      4.901       58.4
      116.7      4.948       68.1
      116.7      5.001       84.1
      116.7      5.048       95.9
      116.7      5.095       77.8
      116.7      5.149       63.2
      116.7      5.203       48.7
      116.7      5.250       40.3
      116.7      5.297       34.1
      116.7      5.351       32.7
      116.7      5.404       29.9
      125.2      1.699       65.1
      125.2      1.753       58.6
      125.2      1.800       50.6
      125.2      1.854       34.6
      125.2      1.895       28.8
      125.2      1.949       30.9
      125.2      1.997       34.5
      125.2      2.052       39.5
      125.2      2.099       38.8
      125.2      2.154       37.3
      125.2      2.201       37.3
      125.2      2.256       36.5
      125.2      2.303       34.3
      125.2      2.351       35.0
      125.2      2.398       32.8
      125.2      2.446       29.9
      125.2      2.500       28.4
      125.2      2.548       27.7
      125.2      2.595       28.4
      125.2      2.650       26.9
      125.2      2.704       25.4
      125.2      2.752       23.9
      125.2      2.799       23.2
      125.2      2.847       21.7
      125.2      2.894       19.5
      125.2      2.949       20.2
      125.2      3.003       18.7
      125.2      3.051       16.5
      125.2      3.105       16.5
      125.2      3.153       15.7
      125.2      3.207       15.0
      125.2      3.255       15.0
      125.2      3.302       17.1
      125.2      3.357       15.6
      125.2      3.404       17.0
      125.2      3.452       19.9
      125.2      3.500       20.6
      125.2      3.555       24.9
      125.2      3.602       27.1
      125.2      3.657       30.7
      125.2      3.698       35.0
      125.2      3.753       40.0
      125.2      3.807       48.0
      125.2      3.855       48.7
      125.2      3.903       55.2
      125.2      3.951       63.8
      125.2      4.005       60.2
      125.2      4.059       42.8
      125.2      4.107       45.6
      125.2      4.154       43.4
      125.2      4.202       39.8
      125.2      4.256       37.6
      125.2      4.310       35.4
      125.2      4.351       31.7
      125.2      4.399       31.7
      125.2      4.460       31.7
      125.2      4.501       31.6
      125.2      4.555       34.5
      125.2      4.603       36.7
      125.2      4.651       39.5
      125.2      4.698       41.0
      125.2      4.753       43.8
      125.2      4.801       46.7
      125.2      4.855       51.7
      125.2      4.903       58.2
      125.2      4.958       62.5
      125.2      5.007       79.9
      125.2      5.061       80.6
      125.2      5.107       54.5
      125.2      5.161       37.8
      125.2      5.208       32.0
      125.2      5.262       26.9
      125.2      5.310       26.8
      125.2      5.351       24.6
      125.2      5.412       26.1
      125.2      5.460       26.8
      125.2      5.507       28.9
      125.2      5.555       33.2
      125.2      5.610       34.6
      125.2      5.658       38.2
      125.2      5.712       40.4
      125.2      5.760       43.3
      125.2      5.808       44.0
      125.2      5.862       41.7
      125.2      5.910       41.0
      125.2      5.957       37.3
      125.2      6.011       34.4
      125.2      6.052       30.8
      125.2      6.106       30.0
      125.2      6.154       27.8
      125.2      6.201       25.6
      125.2      6.256       23.4
      140.6      1.705       46.8
      140.6      1.752       39.7
      140.6      1.799       30.4
      140.6      1.847       20.5
      140.6      1.901       15.5
      140.6      1.949       24.7
      140.6      1.997       33.9
      140.6      2.045       40.2
      140.6      2.092       40.2
      140.6      2.147       38.8
      140.6      2.194       35.9
      140.6      2.249       35.9
      140.6      2.303       33.7
      140.6      2.350       30.9
      140.6      2.398       29.4
      140.6      2.452       28.7
      140.6      2.500       25.8
      140.6      2.547       22.9
      140.6      2.602       24.3
      140.6      2.649       21.5
      140.6      2.704       20.0
      140.6      2.751       20.7
      140.6      2.806       19.3
      140.6      2.853       19.9
      140.6      2.901       18.5
      140.6      2.955       17.0
      140.6      3.003       17.7
      140.6      3.051       15.6
      140.6      3.105       15.5
      140.6      3.160       16.9
      140.6      3.207       16.9
      140.6      3.255       17.6
      140.6      3.302       17.6
      140.6      3.357       17.5
      140.6      3.398       18.9
      140.6      3.452       20.3
      140.6      3.500       21.7
      140.6      3.548       23.8
      140.6      3.602       28.7
      140.6      3.657       30.1
      140.6      3.698       35.1
      140.6      3.759       34.3
      140.6      3.800       40.0
      140.6      3.855       42.8
      140.6      3.903       44.9
      140.6      3.950       49.1
      140.6      4.005       46.9
      140.6      4.058       29.9
      140.6      4.106       25.6
      140.6      4.153       21.3
      140.6      4.207       21.3
      140.6      4.255       17.7
      140.6      4.309       17.0
      140.6      4.357       17.0
      140.6      4.412       18.4
      140.6      4.459       19.7
      140.6      4.507       21.1
      140.6      4.561       23.9
      140.6      4.609       26.8
      140.6      4.664       29.6
      140.6      4.712       37.3
      140.6      4.760       37.3
      140.6      4.807       40.8
      140.6      4.862       47.2
      140.6      4.910       53.5
      140.6      4.958       61.3
      140.6      5.013       69.8
      140.6      5.060       66.9
      140.6      5.100       40.7
      140.6      5.160       27.9
      140.6      5.208       22.9
      140.6      5.255       20.7
      140.6      5.310       22.8
      140.6      5.358       24.2
      140.6      5.412       27.7
      140.6      5.460       29.8
      140.6      5.508       35.5
      140.6      5.562       38.3
      140.6      5.617       43.2
      149.6      1.711       43.6
      149.6      1.759       35.2
      149.6      1.813       27.5
      149.6      1.860       15.0
      149.6      1.914       12.1
      149.6      1.962       25.4
      149.6      2.010       34.4
      149.6      2.058       39.9
      149.6      2.112       40.6
      149.6      2.167       37.1
      149.6      2.214       37.1
      149.6      2.262       33.6
      149.6      2.309       31.5
      149.6      2.364       30.7
      149.6      2.411       28.6
      149.6      2.466       27.9
      149.6      2.513       25.8
      149.6      2.561       25.8
      149.6      2.615       23.0
      149.6      2.670       20.9
      149.6      2.710       20.8
      149.6      2.758       20.8
      149.6      2.812       18.0
      149.6      2.860       20.8
      149.6      2.915       19.3
      149.6      2.962       17.9
      149.6      3.010       17.2
      149.6      3.064       17.2
      149.6      3.112       17.9
      149.6      3.159       17.1
      149.6      3.207       16.4
      149.6      3.261       17.1
      149.6      3.309       17.1
      149.6      3.364       17.7
      149.6      3.411       18.4
      149.6      3.459       20.5
      149.6      3.513       21.9
      149.6      3.568       23.2
      149.6      3.616       26.0
      149.6      3.663       28.1
      149.6      3.718       31.5
      149.6      3.766       32.9
      149.6      3.813       34.3
      149.6      3.868       34.2
      149.6      3.915       32.1
      149.6      3.970       34.2
      149.6      4.018       37.6
      149.6      4.072       29.3
      149.6      4.112       26.5
      149.6      4.167       24.3
      149.6      4.221       23.6
      149.6      4.269       23.6
      149.6      4.316       23.6
      149.6      4.364       21.5
      149.6      4.418       25.6
      149.6      4.466       25.6
      149.6      4.514       28.4
      149.6      4.568       28.3
      149.6      4.623       33.2
      149.6      4.670       33.2
      149.6      4.718       37.3
      149.6      4.759       40.1
      149.6      4.821       44.2
      149.6      4.862       48.4
      149.6      4.916       53.2
      149.6      4.971       60.2
      149.6      5.013       77.6
      149.6      5.068       99.1
      149.6      5.121       72.7
      149.6      5.168       51.0
      149.6      5.222       35.7
      149.6      5.269       30.1
      149.6      5.317       28.7
      149.6      5.371       28.7
      149.6      5.419       30.0
      156.0      1.704       40.0
      156.0      1.758       30.9
      156.0      1.799       21.0
      156.0      1.853        9.7
      156.0      1.900       12.5
      156.0      1.949       22.3
      156.0      1.996       30.0
      156.0      2.051       37.1
      156.0      2.106       37.7
      156.0      2.146       33.5
      156.0      2.201       34.9
      156.0      2.248       30.6
      156.0      2.296       28.5
      156.0      2.350       27.1
      156.0      2.398       26.3
      156.0      2.452       26.3
      156.0      2.500       24.2
      156.0      2.554       17.8
      156.0      2.601       15.7
      156.0      2.656       15.7
      156.0      2.703       14.9
      156.0      2.751       14.2
      156.0      2.799       14.2
      156.0      2.853       14.2
      156.0      2.908       15.5
      156.0      2.948       16.9
      156.0      3.010       17.6
      156.0      3.051       21.8
      156.0      3.105       19.7
      156.0      3.153       20.4
      156.0      3.207       19.6
      156.0      3.255       21.0
      156.0      3.302       17.5
      156.0      3.357       18.1
      156.0      3.411       18.1
      156.0      3.459       17.4
      156.0      3.506       17.4
      156.0      3.554       20.2
      156.0      3.602       21.6
      156.0      3.650       23.6
      156.0      3.704       25.7
      156.0      3.752       28.5
      156.0      3.806       29.9
      156.0      3.854       29.9
      156.0      3.902       32.0
      156.0      3.956       29.1
      156.0      4.011       38.3
      156.0      4.058       34.7
      156.0      4.106       35.4
      156.0      4.167       34.7
      156.0      4.208       33.9
      156.0      4.255       34.6
      156.0      4.310       36.0
      156.0      4.358       37.4
      156.0      4.412       36.7
      156.0      4.460       38.1
      156.0      4.514       39.4
      156.0      4.555       38.0
      156.0      4.610       38.0
      156.0      4.657       40.1
      156.0      4.712       41.5
      156.0      4.759       43.5
      156.0      4.814       45.6
      156.0      4.855       49.1
      156.0      4.916       52.6
      156.0      4.964       59.6
      156.0      5.020       86.4
      156.0      5.077      138.5
      156.0      5.116      110.3
      156.0      5.162       72.9
      156.0      5.209       53.9
      156.0      5.263       40.5
      156.0      5.317       33.4
      156.0      5.364       31.3
      156.0      5.419       30.6
      156.0      5.473       30.5
      156.0      5.514       34.7
      156.0      5.569       42.5
      156.0      5.617       49.5
      156.0      5.672       58.6
      156.0      5.720       67.7
      156.0      5.768       73.4
      156.0      5.823       84.6
      156.0      5.884       88.8
      156.0      5.925       93.0
      156.0      5.973       94.4
      156.0      6.027       93.0
      156.0      6.075       88.7
      156.0      6.122       85.9
      156.0      6.177       85.1
      156.0      6.224       78.1
      156.0      6.271       75.9
      167.2      1.704       35.3
      167.2      1.758       26.9
      167.2      1.805       17.8
      167.2      1.853        9.4
      167.2      1.901       17.8
      167.2      1.955       25.4
      167.2      2.003       36.6
      167.2      2.058       38.0
      167.2      2.105       40.0
      167.2      2.153       35.8
      167.2      2.207       33.0
      167.2      2.262       30.9
      167.2      2.302       27.4
      167.2      2.357       27.4
      167.2      2.411       24.6
      167.2      2.452       24.6
      167.2      2.506       21.7
      167.2      2.554       20.3
      167.2      2.608       25.2
      167.2      2.656       17.5
      167.2      2.710       19.6
      167.2      2.765       19.6
      167.2      2.812       17.4
      167.2      2.860       17.4
      167.2      2.914       16.7
      167.2      2.962       16.0
      167.2      3.010       16.7
      167.2      3.071       15.9
      167.2      3.112       15.2
      167.2      3.166       14.5
      167.2      3.214       14.5
      167.2      3.261       13.8
      167.2      3.309       14.5
      167.2      3.363       12.3
      167.2      3.411       13.7
      167.2      3.465       15.1
      167.2      3.513       14.4
      167.2      3.561       16.5
      167.2      3.615       17.8
      167.2      3.663       19.9
      167.2      3.710       21.3
      167.2      3.765       22.7
      167.2      3.813       24.7
      167.2      3.867       26.1
      167.2      3.922       29.6
      167.2      3.969       33.1
      167.2      4.018       59.6
      167.2      4.065       54.0
      167.2      4.113       51.2
      167.2      4.167       51.9
      167.2      4.215       53.9
      167.2      4.263       56.0
      167.2      4.317       57.4
      167.2      4.372       55.3
      167.2      4.413       58.7
      167.2      4.467       55.9
      167.2      4.515       54.5
      167.2      4.569       55.9
      167.2      4.616       50.3
      167.2      4.671       50.3
      167.2      4.725       48.2
      167.2      4.773       43.9
      167.2      4.827       39.0
      167.2      4.868       33.4
      167.2      4.929       34.1
      167.2      4.977       45.3
      167.2      5.026      101.1
      167.2      5.077      178.6
      167.2      5.099      219.8
      167.2      5.138      164.6
      167.2      5.176      107.3
      167.2      5.230       73.8
      167.2      5.277       55.6
      167.2      5.331       43.7
      167.2      5.378       33.9
      167.2      5.425       29.7
      167.2      5.473       29.0
      167.2      5.521       32.5
      167.2      5.582       39.5
      167.2      5.623       52.0
ENDDATA            706
ENDSUBENT          727
SUBENT        F0328003   20160424   20160902   20160701       F062
BIB                  5          9
REACTION   (4-BE-9(A,EL)4-BE-9,,DA)
SAMPLE     The targets were made by vacuum evaporation of
           beryllium metal onto a thin film of Formvar and the
           thicker than 24 keV
ERR-ANALYS (ANG-ERR-D) Digitizing error
           (ERR-T) Absolute error (primarily in the
           target thickness)
STATUS     (CURVE) Fig 6 from PR/C,7,1837,1973
HISTORY    (20160424A) SD: Data re-digitized.
ENDBIB               9
COMMON               3          3
ANG-ERR-D  ERR-DIG    ERR-T
ADEG       MB/SR      PER-CENT
 0.3         0.6         15.
ENDCOMMON            3
DATA                 3        127
EN         ANG-CM     DATA-CM
MEV        ADEG       MB/SR
       5.00       49.9       25.0
       5.00       56.5       10.2
       5.00       63.4       20.8
       5.00       70.0       18.7
       5.00       82.5       50.4
       5.00       88.6       53.6
       5.00       94.8       74.8
       5.00      100.4       85.4
       5.00      105.7       88.6
       5.00      111.1       86.4
       5.00      115.7       85.4
       5.00      121.0       82.2
       5.00      125.9       77.0
       5.00      130.2       81.2
       5.00      134.5       80.1
       5.00      138.6       83.3
       5.00      142.4       86.5
       5.00      149.8       85.5
       5.00      153.1       90.8
       5.00      156.2       85.5
       5.00      159.8       83.4
       5.00      162.6       83.4
       5.00      165.4       83.4
       5.00      168.7       71.7
       5.05       70.0       46.5
       5.05       76.4       35.9
       5.05       82.8       35.9
       5.05       88.6       46.5
       5.05       94.8       63.4
       5.05      100.6       88.8
       5.05      106.5      103.6
       5.05      111.3      102.6
       5.05      116.2       98.4
       5.05      121.3       86.7
       5.05      126.1       86.7
       5.05      130.7       82.5
       5.05      134.3       78.3
       5.05      138.6       83.6
       5.05      142.7       92.0
       5.05      146.0      103.7
       5.05      149.8      106.9
       5.05      153.6      119.6
       5.05      156.5      131.2
       5.05      160.0      149.2
       5.05      162.6      146.0
       5.05      165.4      151.3
       5.05      168.7      160.8
       5.05      171.7      176.7
       5.10       49.9       69.8
       5.10       56.5       56.1
       5.10       63.4       41.4
       5.10       70.0       27.7
       5.10       76.2       25.6
       5.10       82.5       25.6
       5.10       88.6       39.2
       5.10       94.5       59.2
       5.10      100.6       78.2
       5.10      106.0       88.7
       5.10      111.1       85.5
       5.10      116.2       75.0
       5.10      121.0       63.4
       5.10      125.6       56.0
       5.10      130.5       49.7
       5.10      134.3       48.7
       5.10      138.4       50.8
       5.10      142.4       59.2
       5.10      145.8       69.7
       5.10      149.6       79.2
       5.10      153.2       92.9
       5.10      156.5      107.6
       5.10      159.8      118.1
       5.10      162.3      131.8
       5.10      165.1      140.2
       5.10      167.9      145.5
       5.10      171.0      156.0
       5.15       50.4       98.3
       5.15       56.8       67.8
       5.15       63.7       37.3
       5.15       76.2       26.8
       5.15       83.0       32.1
       5.15       88.9       44.7
       5.15       95.0       61.6
       5.15      100.9       74.2
       5.15      106.2       77.4
       5.15      111.3       73.2
       5.15      116.4       62.7
       5.15      121.3       51.1
       5.15      126.4       40.6
       5.15      130.7       33.2
       5.15      134.8       31.1
       5.15      138.9       33.2
       5.15      142.7       38.5
       5.15      146.3       46.9
       5.15      149.6       58.5
       5.15      153.1       72.2
       5.15      156.5       82.7
       5.15      160.3       96.4
       5.15      162.8      106.9
       5.15      165.4      115.4
       5.15      168.4      120.6
       5.15      171.5      120.6
       5.50       56.5       38.4
       5.50       63.4       24.8
       5.50       70.0       30.0
       5.50       76.2       35.3
       5.50       82.5       40.5
       5.50       87.6       40.5
       5.50       94.8       40.5
       5.50      100.6       38.5
       5.50      106.0       35.3
       5.50      111.1       31.1
       5.50      115.9       28.0
       5.50      121.0       25.9
       5.50      126.1       25.9
       5.50      130.4       26.0
       5.50      134.5       27.0
       5.50      138.6       28.1
       5.50      142.7       29.1
       5.50      146.0       30.2
       5.50      149.3       31.2
       5.50      153.4       31.2
       5.50      156.5       31.2
       5.50      159.8       32.3
       5.50      162.8       33.4
       5.50      165.6       32.3
       5.50      168.4       32.3
       5.50      171.2       28.1
ENDDATA            129
ENDSUBENT          147
ENDENTRY             3
