ENTRY            F0334   20210714   20211005   20210930       F086
SUBENT        F0334001   20210714   20211005   20210930       F086
BIB                  9         13
TITLE      Differential cross sections of 12C(d,p1)13C and
           10B(d,p)11B below E(d)=3.0 MeV
AUTHOR     (R.V.Poore,P.E.Shearin,D.R.Tilley,R.M.Williamson)
INSTITUTE  (1USADKE)
REFERENCE  (J,NP/A,92,97,1967)
FACILITY   (VDG,1USADKE)
METHOD     (BCINT,PHD)
DETECTOR   (SOLST) Semiconductor detectors (300 mu-m)
ERR-ANALYS (ANG-ERR) Error in the calibration detector angle.
HISTORY    (19850925C)
           (19990409U) CNPD: corrected 4-dig. year, lower case.
           (20210714A) SD: Corrections in all Subents.
           SAMPLE moved to Subents 002-005.
ENDBIB              13
COMMON               3          3
EN-ERR     ANG-ERR    EN-RSL-FW
MEV        ADEG       MEV
 0.01       0.2        0.019
ENDCOMMON            3
ENDSUBENT           20
SUBENT        F0334002   20210714   20211005   20210930       F086
BIB                  7         21
REACTION   (6-C-12(D,P)6-C-13,PAR,DA)
MONITOR    (6-C-12(D,P)6-C-13,PAR,DA)
MONIT-REF  (T0226004,T.S.Katman,J,NP,80,449,1966)
SAMPLE     Thin self-supporting 12C targets were prepared from a
           suspension of graphite in alcohol. The thicknesses of
           these targets were about 40 ug/cm2.
ERR-ANALYS (DATA-ERR) No information about source of uncertainty
            (from graphic bars, probably statistical).
           (ERR-1) Because of resonances in this energy range,
           it is estimated that the absolute cross section
           scales for the curves at Ed = 0.900, 1.320, 1.370,
           1.490, 1.690 and 1.760 MeV may be in error by 30%,
           and that at 1.452 MeV the scale may be in error by
           50%. The remaining absolute sections are estimated to
           be accurate to 20%.
STATUS     (CURVE) figs 2,3 from Nucl.Phys.,A92(1967)97
HISTORY    (20210714A) SD+SS: SF9=EXP deleted from REACTION code.
           BIB updated. Accuracy of digitized data presentation
           revised. ANG2-ERR -> ANG-ERR-D; DATA-ERR -> ERR-DIG;
           DATA-ERR1 -> DATA-ERR. Data at E=0.9 MeV were
           re-digitized.
ENDBIB              21
COMMON               2          3
E-LVL      ANG-ERR-D
MEV        ADEG
  3.09      0.4
ENDCOMMON            3
DATA                 6        328
EN         ANG-CM     DATA-CM    ERR-DIG    DATA-ERR   ERR-1
MEV        ADEG       MB/SR      MB/SR      MB/SR      PER-CENT
        0.9       34.7      18.70       0.03       1.07        30.
        0.9       40.1      11.12       0.03       0.54        30.
        0.9       50.8       9.26       0.03       0.29        30.
        0.9       56.9       9.40       0.03       0.36        30.
        0.9       62.0       9.50       0.03       0.36        30.
        0.9       68.1       9.32       0.03       0.32        30.
        0.9       72.8       9.10       0.03       0.32        30.
        0.9       78.6       9.03       0.03       0.29        30.
        0.9       84.0       8.42       0.03       0.29        30.
        0.9       89.0       8.20       0.03       0.29        30.
        0.9       94.0       7.81       0.03       0.43        30.
        0.9       99.1       7.73       0.03       0.50        30.
        0.9      104.1       6.55       0.03       0.43        30.
        0.9      108.8       6.34       0.03       0.32        30.
        0.9      114.2       6.94       0.03       0.29        30.
        0.9      118.9       6.26       0.03       0.39        30.
        0.9      122.5       6.79       0.03       0.32        30.
        0.9      128.2       5.61       0.03       0.39        30.
        0.9      137.2       4.89       0.03       0.32        30.
        0.9      140.8       4.89       0.03       0.32        30.
        0.9      146.2       3.46       0.03       0.29        30.
        0.9      148.8       4.85       0.03       0.43        30.
        0.9      154.8       2.78       0.03       0.43        30.
       1.07       25.0      18.96       0.04       2.89        20.
       1.07       34.5      16.71       0.04       1.22        20.
       1.07       44.4      12.61       0.04       0.58        20.
       1.07       50.8      11.26       0.04       0.39        20.
       1.07       56.6       9.21       0.04                   20.
       1.07       61.7       7.67       0.04                   20.
       1.07       66.8       5.55       0.04       0.51        20.
       1.07       72.6       4.27       0.04                   20.
       1.07       78.6       3.18       0.04                   20.
       1.07       83.3       2.41       0.04                   20.
       1.07       88.3       2.09       0.04                   20.
       1.07       93.3       1.58       0.04                   20.
       1.07       98.7       1.39       0.04                   20.
       1.07      103.4       1.14       0.04                   20.
       1.07      108.0       1.66       0.04                   20.
       1.07      112.6       1.79       0.04                   20.
       1.07      123.2       2.18       0.04                   20.
       1.07      127.2       2.63       0.04                   20.
       1.07      131.8       3.22       0.04                   20.
       1.07      136.8       2.96       0.04                   20.
       1.07      141.1       3.29       0.04                   20.
       1.07      144.7       3.81       0.04                   20.
       1.07      150.1       3.81       0.04                   20.
       1.07      155.0       4.39       0.04                   20.
       1.07      158.4       3.75       0.04                   20.
       1.07      166.9       5.37       0.04                   20.
       1.32       20.0      14.94       0.03       2.22        30.
       1.32       22.9      16.96       0.03       1.31        30.
       1.32       27.8      15.35       0.03       0.77        30.
       1.32       39.5      13.09       0.03       0.68        30.
       1.32       45.3      11.89       0.03       0.60        30.
       1.32       50.9      10.88       0.03       0.51        30.
       1.32       56.3      10.22       0.03       0.46        30.
       1.32       61.6       9.21       0.03       0.29        30.
       1.32       67.3       8.78       0.03       0.14        30.
       1.32       72.3       8.72       0.03       0.46        30.
       1.32       77.4       9.37       0.03       0.34        30.
       1.32       82.2       9.84       0.03       0.37        30.
       1.32       88.2       9.44       0.03       0.34        30.
       1.32       93.4      10.17       0.03       0.40        30.
       1.32       98.1      10.31       0.03       0.46        30.
       1.32      103.1      10.44       0.03       0.46        30.
       1.32      108.2      11.12       0.03       0.40        30.
       1.32      112.7      11.46       0.03       0.40        30.
       1.32      118.2      11.17       0.03       0.43        30.
       1.32      122.5      10.99       0.03       0.46        30.
       1.32      127.5      10.96       0.03       0.40        30.
       1.32      131.8      11.66       0.03       0.48        30.
       1.32      136.2      10.80       0.03       0.46        30.
       1.32      141.0      11.08       0.03       0.46        30.
       1.32      145.6       9.62       0.03       0.48        30.
       1.32      148.6       9.85       0.03       0.46        30.
       1.32      149.5      11.18       0.03       0.48        30.
       1.32      154.4       9.64       0.03       0.46        30.
       1.32      158.9      10.32       0.03       0.54        30.
       1.32      163.6      10.20       0.03       0.48        30.
       1.32      167.9       9.02       0.03       0.54        30.
       1.37       30.9      12.88       0.03       1.08        30.
       1.37       39.2       6.93       0.03       0.58        30.
       1.37       45.4       5.44       0.03       0.40        30.
       1.37       50.7       3.81       0.03                   30.
       1.37       56.2       3.16       0.03                   30.
       1.37       60.9       3.08       0.03                   30.
       1.37       66.5       2.89       0.03                   30.
       1.37       72.0       2.77       0.03                   30.
       1.37       77.1       3.30       0.03                   30.
       1.37       82.5       3.94       0.03                   30.
       1.37       87.6       4.26       0.03                   30.
       1.37       92.7       4.97       0.03                   30.
       1.37       96.6       5.32       0.03                   30.
       1.37      102.8       5.71       0.03                   30.
       1.37      107.9       6.31       0.03                   30.
       1.37      112.7       6.63       0.03                   30.
       1.37      116.5       6.87       0.03                   30.
       1.37      121.9       7.58       0.03                   30.
       1.37      126.6       7.39       0.03                   30.
       1.37      131.2       8.21       0.03                   30.
       1.37      136.1       7.59       0.03                   30.
       1.37      140.6       8.56       0.03                   30.
       1.37      144.6       7.91       0.03                   30.
       1.37      149.0       7.83       0.03                   30.
       1.37      153.7       7.82       0.03                   30.
       1.37      157.5       7.27       0.03                   30.
       1.37      162.5       7.44       0.03                   30.
       1.37      166.3       7.29       0.03                   30.
      1.452       20.6      17.66       0.30       2.49        50.
      1.452       23.1      18.55       0.30       1.88        50.
      1.452       40.6      11.33       0.30       0.67        50.
      1.452       45.8      10.06       0.30                   50.
      1.452       51.0       9.69       0.30                   50.
      1.452       56.3      10.53       0.30                   50.
      1.452       61.5      10.09       0.30                   50.
      1.452       67.5       9.72       0.30                   50.
      1.452       72.6       9.67       0.30                   50.
      1.452       77.7       9.96       0.30                   50.
      1.452       82.6       9.58       0.30                   50.
      1.452       88.6       8.98       0.30                   50.
      1.452       93.8       8.38       0.30                   50.
      1.452       98.6       8.28       0.30                   50.
      1.452      103.2       8.18       0.30                   50.
      1.452      108.3       8.41       0.30                   50.
      1.452      112.3       8.75       0.30                   50.
      1.452      117.4       9.65       0.30                   50.
      1.452      122.5      10.27       0.30                   50.
      1.452      127.8      11.94       0.30                   50.
      1.452      131.9      14.55       0.30                   50.
      1.452      136.4      16.72       0.30                   50.
      1.452      140.6      17.01       0.30                   50.
      1.452      145.3      20.40       0.30                   50.
      1.452      150.0      22.73       0.30       0.67        50.
      1.452      154.7      24.24       0.30                   50.
      1.452      158.0      26.68       0.30                   50.
      1.452      163.1      27.97       0.30       0.72        50.
      1.452      167.1      27.31       0.30       0.72        50.
       1.49       18.7      17.49       0.06       2.26        30.
       1.49       21.0      22.01       0.06       1.61        30.
       1.49       34.0      12.88       0.06       0.71        30.
       1.49       39.2       8.82       0.06       0.71        30.
       1.49       44.7       7.50       0.06                   30.
       1.49       50.2       7.31       0.06                   30.
       1.49       55.1       4.80       0.06                   30.
       1.49       60.9       5.51       0.06                   30.
       1.49       66.1       4.90       0.06                   30.
       1.49       72.3       4.71       0.06                   30.
       1.49       77.2       5.24       0.06                   30.
       1.49       82.4       5.70       0.06                   30.
       1.49       87.3       6.41       0.06                   30.
       1.49       92.0       7.29       0.06                   30.
       1.49       96.9       8.47       0.06                   30.
       1.49      102.1       8.76       0.06                   30.
       1.49      106.8      10.66       0.06                   30.
       1.49      112.0      10.17       0.06       0.59        30.
       1.49      117.3      13.43       0.06                   30.
       1.49      122.2      12.59       0.06                   30.
       1.49      126.5      13.12       0.06                   30.
       1.49      130.8      13.59       0.06                   30.
       1.49      136.3      14.29       0.06                   30.
       1.49      139.7      16.84       0.06                   30.
       1.49      144.9      15.58       0.06                   30.
       1.49      149.6      16.76       0.06                   30.
       1.49      153.6      17.23       0.06                   30.
       1.49      157.9      17.22       0.06                   30.
       1.49      162.2      16.68       0.06                   30.
       1.49      162.5      17.45       0.06                   30.
       1.49      167.1      17.15       0.06       0.54        30.
       1.69       16.8      34.98       0.07       4.89        30.
       1.69       20.2      43.27       0.07       1.84        30.
       1.69       23.9      38.30       0.07       1.14        30.
       1.69       30.7      33.04       0.07       1.21        30.
       1.69       34.4      28.85       0.07       0.85        30.
       1.69       38.7      26.93       0.07       0.85        30.
       1.69       45.0      22.10       0.07       0.99        30.
       1.69       50.2      19.39       0.07                   30.
       1.69       55.6      16.83       0.07                   30.
       1.69       62.3      15.76       0.07                   30.
       1.69       66.1      13.41       0.07                   30.
       1.69       71.9      14.82       0.07                   30.
       1.69       76.3      14.46       0.07                   30.
       1.69       82.2      14.80       0.07                   30.
       1.69       88.3      14.51       0.07                   30.
       1.69       92.4      15.85       0.07                   30.
       1.69       97.7      15.63       0.07                   30.
       1.69      102.9      16.18       0.07       0.78        30.
       1.69      107.9      16.46       0.07                   30.
       1.69      112.9      17.45       0.07                   30.
       1.69      116.9      15.38       0.07                   30.
       1.69      122.8      16.93       0.07                   30.
       1.69      127.2      16.71       0.07                   30.
       1.69      131.6      17.41       0.07                   30.
       1.69      136.5      16.56       0.07                   30.
       1.69      140.9      16.69       0.07                   30.
       1.69      145.6      16.68       0.07                   30.
       1.69      149.1      17.88       0.07                   30.
       1.69      154.6      16.81       0.07                   30.
       1.69      158.7      16.94       0.07                   30.
       1.69      163.7      16.87       0.07                   30.
       1.69      167.5      18.07       0.07       0.85        30.
       1.76       16.2     100.90       0.22       4.75        30.
       1.76       19.4      92.28       0.22       2.72        30.
       1.76       28.9      72.35       0.22       2.04        30.
       1.76       34.5      63.97       0.22       2.04        30.
       1.76       38.4      56.95       0.22       2.04        30.
       1.76       39.0      58.31       0.22                   30.
       1.76       44.7      45.85       0.22                   30.
       1.76       49.6      31.81       0.22                   30.
       1.76       55.9      25.01       0.22                   30.
       1.76       60.5      17.77       0.22                   30.
       1.76       66.1      12.78       0.22                   30.
       1.76       70.3       9.61       0.22                   30.
       1.76       76.2       7.79       0.22                   30.
       1.76       81.8       6.89       0.22                   30.
       1.76       86.0       7.11       0.22                   30.
       1.76       93.0       7.10       0.22                   30.
       1.76       97.2       8.23       0.22                   30.
       1.76      102.1       8.00       0.22       1.58        30.
       1.76      106.6       8.91       0.22                   30.
       1.76      110.8      10.03       0.22                   30.
       1.76      116.4      11.16       0.22                   30.
       1.76      120.9      11.39       0.22                   30.
       1.76      125.8      11.61       0.22                   30.
       1.76      131.0      14.32       0.22                   30.
       1.76      135.5      14.32       0.22                   30.
       1.76      139.7      15.00       0.22                   30.
       1.76      145.0      14.54       0.22                   30.
       1.76      149.2      15.67       0.22                   30.
       1.76      153.7      16.80       0.22                   30.
       1.76      157.5      15.66       0.22                   30.
       1.76      161.7      16.11       0.22                   30.
       1.76      162.1      17.24       0.22                   30.
       1.76      167.7      16.56       0.22       1.58        30.
      1.809       14.8      84.89       0.18       5.65        20.
      1.809       17.8      77.91       0.18       2.83        20.
      1.809       21.4      65.88       0.18       3.57        20.
      1.809       25.9      62.47       0.18       2.68        20.
      1.809       33.1      44.06       0.18       1.64        20.
      1.809       33.1      46.88       0.18       1.49        20.
      1.809       37.3      32.17       0.18       1.64        20.
      1.809       43.3      27.28       0.18       1.19        20.
      1.809       48.3      17.63       0.18                   20.
      1.809       53.7      13.49       0.18                   20.
      1.809       59.1       9.19       0.18                   20.
      1.809       64.3       8.16       0.18                   20.
      1.809       69.1       7.73       0.18                   20.
      1.809       75.1       7.75       0.18                   20.
      1.809       80.2      10.89       0.18                   20.
      1.809       85.3       9.86       0.18                   20.
      1.809       90.7      11.66       0.18                   20.
      1.809       95.8      13.01       0.18                   20.
      1.809      100.9      13.92       0.18       2.08        20.
      1.809      105.4      13.64       0.18                   20.
      1.809      110.5      14.69       0.18                   20.
      1.809      115.0      14.85       0.18                   20.
      1.809      120.1      15.17       0.18                   20.
      1.809      125.0      15.33       0.18                   20.
      1.809      129.5      15.34       0.18                   20.
      1.809      134.9      15.65       0.18                   20.
      1.809      138.8      15.52       0.18                   20.
      1.809      143.3      16.12       0.18                   20.
      1.809      148.1      15.69       0.18                   20.
      1.809      156.8      16.46       0.18                   20.
      1.809      165.8      16.19       0.18       1.49        20.
       1.89       17.2      47.81       0.16       5.18        20.
       1.89       19.8      38.33       0.16       4.63        20.
       1.89       24.5      38.78       0.16       6.62        20.
       1.89       27.1      26.88       0.16       1.32        20.
       1.89       33.3      18.61       0.16       1.65        20.
       1.89       38.9      15.20       0.16                   20.
       1.89       44.2       9.81       0.16                   20.
       1.89       49.3       7.17       0.16                   20.
       1.89       55.4       7.29       0.16                   20.
       1.89       61.0       7.30       0.16                   20.
       1.89       66.3       8.96       0.16                   20.
       1.89       71.6      10.29       0.16                   20.
       1.89       77.2      12.29       0.16                   20.
       1.89       81.9      13.51       0.16                   20.
       1.89       87.0      14.62       0.16                   20.
       1.89       92.3      14.85       0.16                   20.
       1.89       96.7      15.29       0.16       0.77        20.
       1.89      102.6      13.76       0.16                   20.
       1.89      107.4      14.43       0.16                   20.
       1.89      112.4      13.22       0.16                   20.
       1.89      117.4      11.58       0.16                   20.
       1.89      122.2      10.70       0.16                   20.
       1.89      126.7      10.49       0.16                   20.
       1.89      131.4       8.40       0.16                   20.
       1.89      135.1       6.75       0.16                   20.
       1.89      141.0       6.54       0.16                   20.
       1.89      144.9       5.55       0.16                   20.
       1.89      149.1       4.35       0.16                   20.
       1.89      153.5       3.58       0.16                   20.
       1.89      158.3       3.04       0.16                   20.
       1.89      163.9       2.94       0.16                   20.
       1.89      167.2       1.84       0.16                   20.
      2.088       15.9      62.24       0.15       5.27        20.
      2.088       19.7      61.51       0.15       3.37        20.
      2.088       24.9      45.41       0.15       1.76        20.
      2.088       28.3      36.62       0.15                   20.
      2.088       34.3      25.35       0.15                   20.
      2.088       38.9      17.73       0.15                   20.
      2.088       44.3      11.73       0.15                   20.
      2.088       50.5       7.63       0.15                   20.
      2.088       55.6       5.57       0.15                   20.
      2.088       61.2       5.42       0.15                   20.
      2.088       66.0       6.30       0.15                   20.
      2.088       71.6       7.91       0.15                   20.
      2.088       76.9       8.78       0.15                   20.
      2.088       81.9      11.85       0.15                   20.
      2.088       87.2      13.02       0.15                   20.
      2.088       92.6      14.33       0.15                   20.
      2.088       97.6      15.21       0.15                   20.
      2.088      102.3      15.50       0.15                   20.
      2.088      106.8      15.05       0.15       1.02        20.
      2.088      111.8      15.93       0.15                   20.
      2.088      116.9      15.05       0.15                   20.
      2.088      122.2      15.78       0.15                   20.
      2.088      126.1      13.73       0.15                   20.
      2.088      131.1      12.84       0.15                   20.
      2.088      135.9      13.28       0.15                   20.
      2.088      140.3      12.25       0.15                   20.
      2.088      144.5      11.22       0.15                   20.
      2.088      148.7      10.64       0.15                   20.
      2.088      153.7      10.49       0.15                   20.
      2.088      157.9      10.19       0.15                   20.
      2.088      162.6      10.48       0.15                   20.
      2.088      166.5       9.02       0.15       1.17        20.
ENDDATA            330
ENDSUBENT          360
SUBENT        F0334003   20210714   20211005   20210930       F086
BIB                  5         11
REACTION   (5-B-10(D,P)5-B-11,PAR,DA)
SAMPLE     Thin self-supporting 10B targets were made by electron
           gun evaporation. The amount of 10B present was about
           130 ug/cm2.
ERR-ANALYS (DATA-ERR) No information about source of uncertainty.
           (DATA-ERR1) Total r.m.s. errors including the absolute
           normalization
STATUS     (CURVE) Figs 4-9 from Nucl.Phys.,A92(1967)97
HISTORY    (20210714A) SD: SF9=EXP deleted from REACTION code.
           BIB updated. Accuracy of digitized data presentation
           revised. ANG2-ERR -> ANG-ERR-D; ERR-T -> DATA-ERR1.
ENDBIB              11
COMMON               1          3
ANG-ERR-D
ADEG
  1.5
ENDCOMMON            3
DATA                 6        832
E-LVL      EN         ANG-CM     DATA-CM    DATA-ERR   DATA-ERR1
MEV        MEV        ADEG       MB/SR      MB/SR      PER-CENT
       6.76       1.75       22.2       4.00       0.33        15.
       6.76       1.75       25.8       4.49       0.33        15.
       6.76       1.75       29.8       5.71       0.16        15.
       6.76       1.75       33.0       5.62       0.16        15.
       6.76       1.75       39.8       5.85       0.04        15.
       6.76       1.75       44.4       5.36       0.24        15.
       6.76       1.75       49.4       5.43       0.04        15.
       6.76       1.75       54.1       5.02       0.04        15.
       6.76       1.75       58.6       4.27       0.04        15.
       6.76       1.75       64.8       3.69       0.04        15.
       6.76       1.75       69.3       3.03       0.04        15.
       6.76       1.75       74.1       2.78       0.04        15.
       6.76       1.75       80.5       2.36       0.04        15.
       6.76       1.75       83.7       2.20       0.04        15.
       6.76       1.75       88.6       2.19       0.16        15.
       6.76       1.75       95.0       1.93       0.24        15.
       6.76       1.75      100.0       2.01       0.17        15.
       6.76       1.75      105.1       2.25       0.17        15.
       6.76       1.75      110.1       2.32       0.16        15.
       6.76       1.75      115.1       2.40       0.16        15.
       6.76       1.75      119.9       2.31       0.04        15.
       6.76       1.75      125.1       2.71       0.16        15.
       6.76       1.75      128.5       2.78       0.16        15.
       6.76       1.75      135.4       3.43       0.04        15.
       6.76       1.75      138.8       3.50       0.04        15.
       6.76       1.75      144.0       3.90       0.04        15.
       6.76       1.75      147.5       4.31       0.04        15.
       6.76       1.75      154.1       4.38       0.25        15.
       6.76       1.75      157.3       4.70       0.17        15.
       6.76       1.75      161.0       4.86       0.24        15.
       6.76       2.00       19.0       2.90       0.32        15.
       6.76       2.00       22.4       4.03       0.24        15.
       6.76       2.00       24.1       4.35       0.41        15.
       6.76       2.00       27.5       5.33       0.28        15.
       6.76       2.00       32.5       5.65       0.24        15.
       6.76       2.00       37.4       5.89       0.24        15.
       6.76       2.00       42.2       5.73       0.28        15.
       6.76       2.00       48.7       5.40       0.28        15.
       6.76       2.00       53.4       4.18       0.28        15.
       6.76       2.00       58.2       3.94       0.28        15.
       6.76       2.00       62.9       3.12       0.28        15.
       6.76       2.00       67.8       2.79       0.24        15.
       6.76       2.00       75.8       2.47       0.08        15.
       6.76       2.00       80.6       1.90       0.28        15.
       6.76       2.00       83.8       1.73       0.28        15.
       6.76       2.00       88.7       1.73       0.28        15.
       6.76       2.00       95.2       1.49       0.28        15.
       6.76       2.00       98.4       1.49       0.28        15.
       6.76       2.00      103.3       1.65       0.28        15.
       6.76       2.00      109.9       1.72       0.28        15.
       6.76       2.00      114.8       1.80       0.28        15.
       6.76       2.00      118.0       1.88       0.28        15.
       6.76       2.00      122.9       2.04       0.28        15.
       6.76       2.00      127.9       2.69       0.16        15.
       6.76       2.00      134.4       2.60       0.28        15.
       6.76       2.00      137.8       3.17       0.28        15.
       6.76       2.00      142.6       3.25       0.16        15.
       6.76       2.00      147.7       4.06       0.24        15.
       6.76       2.00      152.6       4.22       0.28        15.
       6.76       2.00      155.9       4.62       0.28        15.
       6.76       2.00      160.9       5.27       0.24        15.
       6.76       2.25       20.6       3.69       0.06        15.
       6.76       2.25       22.4       3.92       0.06        15.
       6.76       2.25       22.5       4.08       0.06        15.
       6.76       2.25       22.9       4.80       0.06        15.
       6.76       2.25       27.8       4.79       0.06        15.
       6.76       2.25       31.6       5.82       0.06        15.
       6.76       2.25       36.6       6.05       0.06        15.
       6.76       2.25       41.4       5.81       0.06        15.
       6.76       2.25       46.2       5.72       0.06        15.
       6.76       2.25       50.6       4.92       0.06        15.
       6.76       2.25       55.0       4.12       0.06        15.
       6.76       2.25       59.4       3.31       0.06        15.
       6.76       2.25       65.8       3.07       0.06        15.
       6.76       2.25       71.8       2.18       0.06        15.
       6.76       2.25       76.4       1.78       0.06        15.
       6.76       2.25       81.3       1.69       0.06        15.
       6.76       2.25       92.8       1.91       0.24        15.
       6.76       2.25       97.5       1.67       0.06        15.
       6.76       2.25      102.4       1.82       0.16        15.
       6.76       2.25      107.4       1.89       0.06        15.
       6.76       2.25      112.3       2.05       0.06        15.
       6.76       2.25      117.3       2.20       0.16        15.
       6.76       2.25      120.6       2.27       0.16        15.
       6.76       2.25      125.6       2.43       0.16        15.
       6.76       2.25      130.7       2.90       0.16        15.
       6.76       2.25      135.5       2.73       0.24        15.
       6.76       2.25      140.6       3.20       0.24        15.
       6.76       2.25      145.5       3.27       0.08        15.
       6.76       2.25      150.6       3.51       0.16        15.
       6.76       2.25      153.9       3.74       0.16        15.
       6.76       2.25      157.4       4.21       0.24        15.
       6.76       2.25      162.3       4.13       0.16        15.
       6.76       2.50       23.7       5.33       0.33        15.
       6.76       2.50       25.7       5.78       0.26        15.
       6.76       2.50       31.1       6.49       0.04        15.
       6.76       2.50       33.0       6.88       0.19        15.
       6.76       2.50       39.5       6.61       0.26        15.
       6.76       2.50       44.1       6.15       0.19        15.
       6.76       2.50       48.5       5.24       0.19        15.
       6.76       2.50       54.6       4.32       0.04        15.
       6.76       2.50       58.9       3.21       0.04        15.
       6.76       2.50       65.1       2.56       0.04        15.
       6.76       2.50       71.4       2.10       0.04        15.
       6.76       2.50       76.3       1.90       0.04        15.
       6.76       2.50       81.0       1.64       0.04        15.
       6.76       2.50       87.6       1.43       0.04        15.
       6.76       2.50       92.5       1.36       0.04        15.
       6.76       2.50       96.0       1.62       0.13        15.
       6.76       2.50      101.2       2.00       0.04        15.
       6.76       2.50      107.8       1.93       0.04        15.
       6.76       2.50      110.9       1.67       0.04        15.
       6.76       2.50      119.4       1.99       0.04        15.
       6.76       2.50      122.8       2.11       0.04        15.
       6.76       2.50      128.0       2.37       0.19        15.
       6.76       2.50      131.4       2.49       0.19        15.
       6.76       2.50      138.0       2.42       0.19        15.
       6.76       2.50      143.2       2.87       0.04        15.
       6.76       2.50      146.6       3.00       0.04        15.
       6.76       2.50      151.6       3.06       0.19        15.
       6.76       2.50      156.6       2.99       0.04        15.
       6.76       2.50      159.9       2.99       0.04        15.
       6.76       2.50      165.1       3.31       0.13        15.
       6.76       2.75       17.2       4.61       0.57        15.
       6.76       2.75       18.7       4.37       0.04        15.
       6.76       2.75       22.6       5.89       0.04        15.
       6.76       2.75       24.5       6.78       0.48        15.
       6.76       2.75       28.1       7.58       0.24        15.
       6.76       2.75       31.2       7.17       0.24        15.
       6.76       2.75       37.8       7.09       0.24        15.
       6.76       2.75       42.3       5.88       0.04        15.
       6.76       2.75       50.2       4.98       0.04        15.
       6.76       2.75       54.8       3.94       0.04        15.
       6.76       2.75       57.7       3.05       0.04        15.
       6.76       2.75       64.1       2.48       0.04        15.
       6.76       2.75       70.4       1.75       0.04        15.
       6.76       2.75       75.3       1.66       0.04        15.
       6.76       2.75       80.3       1.58       0.04        15.
       6.76       2.75       85.2       1.50       0.04        15.
       6.76       2.75       90.1       1.49       0.04        15.
       6.76       2.75       95.1       1.73       0.04        15.
       6.76       2.75      101.8       1.88       0.04        15.
       6.76       2.75      108.2       1.64       0.04        15.
       6.76       2.75      111.7       2.04       0.04        15.
       6.76       2.75      116.5       1.71       0.04        15.
       6.76       2.75      121.6       2.11       0.04        15.
       6.76       2.75      126.4       1.86       0.04        15.
       6.76       2.75      129.9       2.26       0.04        15.
       6.76       2.75      138.1       2.33       0.08        15.
       6.76       2.75      143.1       2.33       0.16        15.
       6.76       3.00       23.2       7.34       0.08        15.
       6.76       3.00       30.5       8.47       0.08        15.
       6.76       3.00       49.4       4.55       0.08        15.
       6.76       3.00       55.1       3.17       0.08        15.
       6.76       3.00       61.2       2.51       0.08        15.
       6.76       3.00       66.1       2.42       0.08        15.
       6.76       3.00       70.8       2.17       0.08        15.
       6.76       3.00       75.5       1.84       0.08        15.
       6.76       3.00       82.0       1.75       0.08        15.
       6.76       3.00       86.8       1.58       0.08        15.
       6.76       3.00       93.4       1.57       0.16        15.
       6.76       3.00       96.8       1.73       0.24        15.
       6.76       3.00      103.3       1.72       0.08        15.
       6.76       3.00      108.1       1.47       0.24        15.
       6.76       3.00      111.4       1.54       0.24        15.
       6.76       3.00      116.4       1.78       0.16        15.
       6.76       3.00      121.6       2.17       0.08        15.
       6.76       3.00      126.2       1.68       0.24        15.
       6.76       3.00      129.7       2.00       0.16        15.
       6.76       3.00      136.2       1.99       0.24        15.
        7.3       1.75       41.5       0.94       0.11        20.
        7.3       1.75       46.6       1.10       0.08        20.
        7.3       1.75       50.9       0.85       0.08        20.
        7.3       1.75       59.1       0.97       0.08        20.
        7.3       1.75       64.1       1.05       0.05        20.
        7.3       1.75       68.8       0.98       0.09        20.
        7.3       1.75       75.1       0.95       0.06        20.
        7.3       1.75       80.3       1.15       0.08        20.
        7.3       1.75       85.3       1.21       0.09        20.
        7.3       1.75       90.2       1.26       0.08        20.
        7.3       1.75       95.0       1.30       0.08        20.
        7.3       1.75      101.3       1.24       0.08        20.
        7.3       1.75      105.6       1.37       0.08        20.
        7.3       1.75      110.9       1.25       0.06        20.
        7.3       1.75      117.4       1.28       0.08        20.
        7.3       1.75      120.5       1.24       0.08        20.
        7.3       1.75      125.3       1.27       0.06        20.
        7.3       1.75      130.3       1.34       0.06        20.
        7.3       1.75      134.9       1.25       0.06        20.
        7.3       1.75      138.5       1.42       0.06        20.
        7.3       1.75      144.8       1.39       0.08        20.
        7.3       1.75      150.1       1.59       0.08        20.
        7.3       1.75      153.6       1.73       0.12        20.
        7.3       1.75      158.7       1.87       0.08        20.
        7.3       1.75      163.8       2.02       0.09        20.
        7.3       2.00       41.0       1.01       0.01        20.
        7.3       2.00       47.3       1.00       0.01        20.
        7.3       2.00       52.4       1.26       0.01        20.
        7.3       2.00       58.5       1.22       0.01        20.
        7.3       2.00       63.0       1.09       0.09        20.
        7.3       2.00       67.8       1.17       0.08        20.
        7.3       2.00       72.9       1.40       0.05        20.
        7.3       2.00       77.5       1.31       0.06        20.
        7.3       2.00       83.6       1.24       0.08        20.
        7.3       2.00       86.5       1.13       0.08        20.
        7.3       2.00       91.0       1.01       0.06        20.
        7.3       2.00       97.3       1.02       0.03        20.
        7.3       2.00      103.1       0.74       0.06        20.
        7.3       2.00      107.9       0.83       0.08        20.
        7.3       2.00      114.0       0.72       0.05        20.
        7.3       2.00      117.1       0.72       0.06        20.
        7.3       2.00      123.4       0.75       0.08        20.
        7.3       2.00      126.7       0.81       0.06        20.
        7.3       2.00      131.0       0.59       0.06        20.
        7.3       2.00      135.9       0.77       0.08        20.
        7.3       2.00      140.6       0.76       0.09        20.
        7.3       2.00      147.2       0.98       0.08        20.
        7.3       2.00      150.3       0.97       0.08        20.
        7.3       2.00      153.5       1.00       0.11        20.
        7.3       2.00      158.2       1.00       0.11        20.
        7.3       2.25       43.4       1.08       0.06        20.
        7.3       2.25       46.5       1.05       0.06        20.
        7.3       2.25       51.1       0.96       0.08        20.
        7.3       2.25       57.7       1.05       0.11        20.
        7.3       2.25       62.6       1.13       0.05        20.
        7.3       2.25       67.0       0.94       0.09        20.
        7.3       2.25       73.5       0.98       0.08        20.
        7.3       2.25       80.2       1.17       0.09        20.
        7.3       2.25       86.1       0.92       0.08        20.
        7.3       2.25       90.8       0.92       0.08        20.
        7.3       2.25       95.7       0.95       0.06        20.
        7.3       2.25       98.6       0.81       0.09        20.
        7.3       2.25      105.1       0.89       0.08        20.
        7.3       2.25      108.3       0.88       0.08        20.
        7.3       2.25      114.5       0.79       0.08        20.
        7.3       2.25      118.8       0.57       0.08        20.
        7.3       2.25      123.8       0.69       0.06        20.
        7.3       2.25      130.4       0.77       0.06        20.
        7.3       2.25      133.2       0.60       0.05        20.
        7.3       2.25      136.4       0.61       0.06        20.
        7.3       2.25      144.2       0.53       0.06        20.
        7.3       2.25      145.9       0.58       0.06        20.
        7.3       2.25      153.6       0.44       0.06        20.
        7.3       2.25      155.4       0.53       0.06        20.
        7.3       2.25      161.7       0.52       0.08        20.
        7.3       2.50       39.3       1.22       0.08        20.
        7.3       2.50       45.1       1.05       0.09        20.
        7.3       2.50       49.8       1.05       0.06        20.
        7.3       2.50       53.9       0.84       0.08        20.
        7.3       2.50       58.6       0.89       0.09        20.
        7.3       2.50       65.0       0.95       0.08        20.
        7.3       2.50       70.0       1.07       0.01        20.
        7.3       2.50       77.7       1.06       0.01        20.
        7.3       2.50       82.2       1.02       0.01        20.
        7.3       2.50       91.2       0.90       0.01        20.
        7.3       2.50       95.9       0.93       0.08        20.
        7.3       2.50      100.3       0.82       0.01        20.
        7.3       2.50      101.9       0.82       0.11        20.
        7.3       2.50      106.3       0.72       0.09        20.
        7.3       2.50      110.7       0.64       0.05        20.
        7.3       2.50      115.2       0.56       0.06        20.
        7.3       2.50      120.2       0.70       0.06        20.
        7.3       2.50      124.7       0.67       0.06        20.
        7.3       2.50      129.5       0.73       0.06        20.
        7.3       2.50      135.3       0.56       0.06        20.
        7.3       2.50      138.4       0.57       0.06        20.
        7.3       2.50      144.7       0.59       0.09        20.
        7.3       2.50      147.9       0.65       0.08        20.
        7.3       2.50      152.5       0.63       0.06        20.
        7.3       2.50      155.6       0.61       0.08        20.
        7.3       2.50      161.8       0.61       0.08        20.
        7.3       2.75       37.8       1.14       0.14        20.
        7.3       2.75       41.7       1.46       0.08        20.
        7.3       2.75       48.9       1.21       0.11        20.
        7.3       2.75       52.7       0.87       0.09        20.
        7.3       2.75       59.0       0.91       0.06        20.
        7.3       2.75       62.4       1.05       0.08        20.
        7.3       2.75       68.5       0.99       0.08        20.
        7.3       2.75       74.3       0.85       0.11        20.
        7.3       2.75       79.1       0.91       0.09        20.
        7.3       2.75       83.8       0.91       0.09        20.
        7.3       2.75       88.4       0.91       0.08        20.
        7.3       2.75       95.0       1.06       0.06        20.
        7.3       2.75      100.5       0.76       0.08        20.
        7.3       2.75      103.7       0.83       0.06        20.
        7.3       2.75      109.9       0.82       0.06        20.
        7.3       2.75      114.1       0.65       0.11        20.
        7.3       2.75      118.7       0.60       0.06        20.
        7.3       2.75      125.1       0.70       0.09        20.
        7.3       2.75      128.3       0.73       0.08        20.
        7.3       2.75      137.6       0.75       0.09        20.
        7.3       2.75      142.4       0.80       0.06        20.
        7.3       2.75      147.0       0.80       0.06        20.
        7.3       2.75      150.1       0.80       0.08        20.
        7.3       2.75      155.1       0.92       0.12        20.
        7.3       2.75      159.7       0.91       0.08        20.
        7.3       3.00       53.0       0.95       0.08        20.
        7.3       3.00       56.2       0.97       0.08        20.
        7.3       3.00       61.0       1.00       0.08        20.
        7.3       3.00       66.5       0.76       0.08        20.
        7.3       3.00       71.1       0.73       0.08        20.
        7.3       3.00       77.4       0.74       0.06        20.
        7.3       3.00       83.2       0.59       0.09        20.
        7.3       3.00       88.3       0.73       0.08        20.
        7.3       3.00       92.6       0.60       0.06        20.
        7.3       3.00       97.6       0.69       0.09        20.
        7.3       3.00      102.2       0.69       0.06        20.
        7.3       3.00      106.3       0.49       0.09        20.
        7.3       3.00      111.3       0.58       0.09        20.
        7.3       3.00      116.2       0.64       0.06        20.
        7.3       3.00      119.3       0.64       0.09        20.
        7.3       3.00      127.5       0.79       0.08        20.
        7.3       3.00      130.5       0.76       0.09        20.
        7.3       3.00      135.5       0.85       0.09        20.
        7.3       3.00      141.4       0.74       0.08        20.
        7.3       3.00      145.4       1.04       0.08        20.
        7.3       3.00      149.6       0.86       0.09        20.
        7.3       3.00      154.4       0.91       0.08        20.
        7.3       3.00      157.4       0.89       0.11        20.
        7.3       3.00      160.8       0.99       0.09        20.
       7.99       3.00       20.5       0.60       0.09        20.
       7.99       3.00       22.1       0.53       0.08        20.
       7.99       3.00       27.0       0.40       0.05        20.
       7.99       3.00       30.1       0.60       0.06        20.
       7.99       3.00       31.7       0.44       0.06        20.
       7.99       3.00       33.3       0.52       0.08        20.
       7.99       3.00       34.9       0.42       0.16        20.
       7.99       3.00       36.5       0.43       0.07        20.
       7.99       3.00       42.8       0.63       0.07        20.
       7.99       3.00       47.6       0.52       0.06        20.
       7.99       3.00       54.0       0.55       0.06        20.
       7.99       3.00       58.8       0.53       0.08        20.
       7.99       3.00       65.2       0.53       0.06        20.
       7.99       3.00       85.9       0.40       0.07        20.
       7.99       3.00       89.1       0.37       0.08        20.
       7.99       3.00       93.9       0.27       0.06        20.
       7.99       3.00      100.3       0.33       0.06        20.
       7.99       3.00      105.0       0.39       0.06        20.
       7.99       3.00      109.8       0.42       0.05        20.
       7.99       3.00      114.6       0.38       0.05        20.
       7.99       3.00      119.4       0.44       0.05        20.
       7.99       3.00      124.2       0.37       0.06        20.
       7.99       3.00      128.9       0.53       0.05        20.
       7.99       3.00      132.1       0.49       0.06        20.
       7.99       3.00      140.0       0.66       0.08        20.
       7.99       3.00      143.2       0.70       0.06        20.
       7.99       3.00      146.4       0.65       0.08        20.
       7.99       3.00      151.1       0.70       0.06        20.
       7.99       3.00      157.6       0.61       0.07        20.
       7.99       3.00      160.6       0.86       0.07        20.
       8.57       1.75       29.7       0.55       0.06        20.
       8.57       1.75       34.4       0.62       0.06        20.
       8.57       1.75       39.1       0.60       0.06        20.
       8.57       1.75       43.8       0.65       0.06        20.
       8.57       1.75       50.0       0.58       0.08        20.
       8.57       1.75       54.6       0.61       0.06        20.
       8.57       1.75       59.3       0.44       0.05        20.
       8.57       1.75       65.5       0.45       0.08        20.
       8.57       1.75       70.2       0.48       0.06        20.
       8.57       1.75       74.8       0.51       0.06        20.
       8.57       1.75       79.5       0.42       0.06        20.
       8.57       1.75       84.2       0.45       0.06        20.
       8.57       1.75       88.8       0.45       0.05        20.
       8.57       1.75       95.1       0.49       0.05        20.
       8.57       1.75       99.7       0.43       0.06        20.
       8.57       1.75      104.4       0.46       0.06        20.
       8.57       1.75      112.2       0.51       0.06        20.
       8.57       1.75      116.8       0.44       0.07        20.
       8.57       1.75      120.0       0.56       0.07        20.
       8.57       1.75      123.1       0.65       0.06        20.
       8.57       1.75      129.4       0.61       0.06        20.
       8.57       2.00       22.9       0.75       0.16        20.
       8.57       2.00       24.9       0.48       0.09        20.
       8.57       2.00       29.7       0.44       0.08        20.
       8.57       2.00       34.3       0.51       0.08        20.
       8.57       2.00       40.4       0.67       0.06        20.
       8.57       2.00       43.7       0.58       0.08        20.
       8.57       2.00       50.0       0.58       0.06        20.
       8.57       2.00       54.6       0.70       0.07        20.
       8.57       2.00       59.6       0.51       0.06        20.
       8.57       2.00       66.0       0.50       0.05        20.
       8.57       2.00       70.8       0.42       0.06        20.
       8.57       2.00       78.8       0.40       0.06        20.
       8.57       2.00       83.6       0.36       0.06        20.
       8.57       2.00       92.8       0.52       0.06        20.
       8.57       2.00       96.1       0.41       0.06        20.
       8.57       2.00      100.9       0.39       0.04        20.
       8.57       2.00      104.3       0.24       0.04        20.
       8.57       2.25       25.4       0.71       0.09        20.
       8.57       2.25       30.0       0.54       0.06        20.
       8.57       2.25       33.1       0.41       0.06        20.
       8.57       2.25       37.9       0.52       0.09        20.
       8.57       2.25       44.3       0.58       0.07        20.
       8.57       2.25       49.0       0.48       0.06        20.
       8.57       2.25       55.4       0.53       0.06        20.
       8.57       2.25       60.0       0.41       0.06        20.
       8.57       2.25       63.2       0.43       0.04        20.
       8.57       2.25       69.6       0.48       0.05        20.
       8.57       2.25       72.7       0.41       0.04        20.
       8.57       2.25       80.6       0.33       0.05        20.
       8.57       2.25       85.3       0.25       0.06        20.
       8.57       2.25       91.7       0.33       0.06        20.
       8.57       2.25       96.4       0.32       0.05        20.
       8.57       3.00       19.0       0.85       0.13        20.
       8.57       3.00       20.5       0.59       0.13        20.
       8.57       3.00       28.6       1.04       0.21        20.
       8.57       3.00       30.1       0.75       0.10        20.
       8.57       3.00       33.2       0.67       0.08        20.
       8.57       3.00       34.8       0.59       0.02        20.
       8.57       3.00       36.4       0.63       0.02        20.
       8.57       3.00       39.6       0.66       0.02        20.
       8.57       3.00       46.0       1.02       0.13        20.
       8.57       3.00       49.1       0.72       0.10        20.
       8.57       3.00       53.9       0.82       0.10        20.
       8.57       3.00       60.2       0.69       0.08        20.
       8.57       3.00       66.6       0.88       0.10        20.
       8.57       3.00       69.8       0.88       0.11        20.
       8.57       3.00       74.5       0.70       0.06        20.
       8.57       3.00       79.3       0.80       0.06        20.
       8.57       3.00       85.6       0.67       0.06        20.
       8.57       3.00       96.7       0.66       0.08        20.
       8.57       3.00      131.6       0.74       0.06        20.
       8.57       3.00      134.8       0.78       0.06        20.
       8.57       3.00      139.6       0.93       0.08        20.
       8.57       3.00      144.4       1.17       0.10        20.
       8.57       3.00      146.1       1.34       0.11        20.
       8.57       3.00      152.5       1.48       0.10        20.
       8.57       3.00      157.3       1.77       0.11        20.
       8.57       3.00      163.7       1.93       0.11        20.
       8.92       1.75       23.7       7.02       0.48        15.
       8.92       1.75       23.7       7.34       0.64        15.
       8.92       1.75       28.5       7.83       0.64        15.
       8.92       1.75       33.3       7.91       0.08        15.
       8.92       1.75       39.7       8.63       0.32        15.
       8.92       1.75       44.5       8.55       0.40        15.
       8.92       1.75       49.2       7.74       0.24        15.
       8.92       1.75       54.0       7.82       0.16        15.
       8.92       1.75       60.4       7.18       0.08        15.
       8.92       1.75       65.1       6.45       0.08        15.
       8.92       1.75       69.8       5.57       0.32        15.
       8.92       1.75      125.4       2.90       0.24        15.
       8.92       1.75      130.2       3.06       0.16        15.
       8.92       1.75      133.4       3.22       0.24        15.
       8.92       1.75      139.8       3.30       0.08        15.
       8.92       1.75      144.6       2.98       0.08        15.
       8.92       1.75      147.7       3.14       0.08        15.
       8.92       1.75      154.1       3.22       0.08        15.
       8.92       1.75      158.9       3.06       0.16        15.
       8.92       1.75      162.1       3.54       0.24        15.
       8.92       2.00       18.7       6.65       0.07        15.
       8.92       2.00       20.3       6.89       0.07        15.
       8.92       2.00       22.0       7.38       0.07        15.
       8.92       2.00       23.6       7.70       0.07        15.
       8.92       2.00       31.8       8.35       0.07        15.
       8.92       2.00       33.5       8.75       0.24        15.
       8.92       2.00       38.4       8.67       0.32        15.
       8.92       2.00       43.3       8.42       0.07        15.
       8.92       2.00       49.7       7.78       0.07        15.
       8.92       2.00       59.5       6.24       0.07        15.
       8.92       2.00       65.9       5.19       0.07        15.
       8.92       2.00       82.2       3.58       0.07        15.
       8.92       2.00      106.6       2.20       0.24        15.
       8.92       2.00      111.5       2.28       0.24        15.
       8.92       2.00      118.0       2.12       0.07        15.
       8.92       2.00      121.3       2.12       0.16        15.
       8.92       2.00      126.1       1.79       0.24        15.
       8.92       2.00      131.1       2.12       0.32        15.
       8.92       2.00      137.6       2.20       0.16        15.
       8.92       2.00      140.9       2.36       0.24        15.
       8.92       2.00      149.0       1.95       0.24        15.
       8.92       2.00      153.9       2.52       0.24        15.
       8.92       2.00      158.8       2.52       0.08        15.
       8.92       2.00      163.7       2.35       0.16        15.
       8.92       2.25       21.7       8.02       0.06        15.
       8.92       2.25       23.4       8.50       0.06        15.
       8.92       2.25       25.1       8.99       0.33        15.
       8.92       2.25       28.4       9.48       0.06        15.
       8.92       2.25       31.7       9.64       0.06        15.
       8.92       2.25       36.6       9.96       0.06        15.
       8.92       2.25       41.4       8.98       0.06        15.
       8.92       2.25       46.2       8.50       0.06        15.
       8.92       2.25       51.0       7.60       0.06        15.
       8.92       2.25       55.8       6.95       0.32        15.
       8.92       2.25       63.7       5.65       0.24        15.
       8.92       2.25       92.7       3.12       0.33        15.
       8.92       2.25       97.5       2.30       0.16        15.
       8.92       2.25      107.2       2.14       0.06        15.
       8.92       2.25      112.1       2.22       0.06        15.
       8.92       2.25      115.4       2.22       0.06        15.
       8.92       2.25      121.9       2.46       0.06        15.
       8.92       2.25      126.8       2.21       0.24        15.
       8.92       2.25      130.0       2.54       0.24        15.
       8.92       2.25      136.6       2.70       0.06        15.
       8.92       2.25      141.4       2.70       0.06        15.
       8.92       2.25      144.6       2.45       0.06        15.
       8.92       2.25      149.5       2.53       0.06        15.
       8.92       2.25      152.8       2.94       0.24        15.
       8.92       2.25      157.8       3.26       0.06        15.
       8.92       2.25      162.6       3.34       0.24        15.
       8.92       2.50       19.8       8.16       0.05        15.
       8.92       2.50       23.2       8.97       0.05        15.
       8.92       2.50       25.0       9.87       0.49        15.
       8.92       2.50       31.6      10.27       0.49        15.
       8.92       2.50       34.6       9.54       0.41        15.
       8.92       2.50       37.9       9.94       0.05        15.
       8.92       2.50       48.8       8.14       0.05        15.
       8.92       2.50       87.8       2.83       0.16        15.
       8.92       2.50       94.1       2.17       0.25        15.
       8.92       2.50       97.3       2.25       0.16        15.
       8.92       2.50      102.1       1.84       0.16        15.
       8.92       2.50      105.3       2.00       0.16        15.
       8.92       2.50      110.2       2.00       0.24        15.
       8.92       2.50      116.6       2.16       0.33        15.
       8.92       2.50      121.5       2.32       0.24        15.
       8.92       2.50      124.7       2.32       0.24        15.
       8.92       2.50      131.2       2.48       0.05        15.
       8.92       2.50      136.1       2.56       0.05        15.
       8.92       2.50      142.6       2.80       0.16        15.
       8.92       2.50      144.2       2.96       0.16        15.
       8.92       2.50      147.5       3.04       0.05        15.
       8.92       2.50      152.4       3.28       0.33        15.
       8.92       2.50      155.7       3.60       0.05        15.
       8.92       2.50      162.2       4.00       0.25        15.
       8.92       2.75       18.0       8.85       1.12        15.
       8.92       2.75       19.5       8.45       0.32        15.
       8.92       2.75       22.7       8.45       0.32        15.
       8.92       2.75       26.5      10.11       0.48        15.
       8.92       2.75       30.0      11.07       0.48        15.
       8.92       2.75       36.2      10.51       0.40        15.
       8.92       2.75       40.9      10.10       0.05        15.
       8.92       2.75       45.3       8.90       0.05        15.
       8.92       2.75       49.6       7.63       0.05        15.
       8.92       2.75       53.9       6.11       0.05        15.
       8.92       2.75       82.9       1.87       0.24        15.
       8.92       2.75       87.7       1.86       0.24        15.
       8.92       2.75       92.5       2.02       0.16        15.
       8.92       2.75       97.1       1.46       0.05        15.
       8.92       2.75      101.9       1.45       0.24        15.
       8.92       2.75      106.7       1.37       0.24        15.
       8.92       2.75      111.5       1.36       0.05        15.
       8.92       2.75      116.3       1.52       0.05        15.
       8.92       2.75      121.2       1.75       0.05        15.
       8.92       2.75      126.1       1.91       0.05        15.
       8.92       2.75      131.0       2.23       0.05        15.
       8.92       2.75      140.7       2.69       0.16        15.
       8.92       2.75      142.4       2.77       0.24        15.
       8.92       2.75      147.2       2.93       0.24        15.
       8.92       2.75      153.7       3.16       0.16        15.
       8.92       2.75      157.0       3.64       0.05        15.
       8.92       3.00       16.4       7.64       0.09        15.
       8.92       3.00       20.4       8.83       0.09        15.
       8.92       3.00       24.1       9.47       0.09        15.
       8.92       3.00       26.1      10.02       0.09        15.
       8.92       3.00       32.9      10.49       0.09        15.
       8.92       3.00       38.5      10.16       0.09        15.
       8.92       3.00       39.3       8.81       0.24        15.
       8.92       3.00       44.6       7.92       0.09        15.
       8.92       3.00       50.0       6.09       0.24        15.
       8.92       3.00       81.8       1.26       0.24        15.
       8.92       3.00       93.2       1.17       0.09        15.
       8.92       3.00       96.4       1.01       0.09        15.
       8.92       3.00       96.5       1.24       0.09        15.
       8.92       3.00      101.4       1.08       0.09        15.
       8.92       3.00      107.9       0.99       0.09        15.
       8.92       3.00      112.9       1.14       0.09        15.
       8.92       3.00      116.4       1.46       0.09        15.
       8.92       3.00      123.1       1.61       0.09        15.
       8.92       3.00      126.4       1.68       0.09        15.
       8.92       3.00      131.4       1.83       0.09        15.
       8.92       3.00      136.4       1.99       0.09        15.
       8.92       3.00      141.5       2.14       0.09        15.
       8.92       3.00      146.6       2.45       0.16        15.
       8.92       3.00      149.8       2.37       0.09        15.
       8.92       3.00      155.0       2.84       0.09        15.
       8.92       3.00      160.1       3.07       0.09        15.
       8.92       3.00      163.7       3.54       0.24        15.
       9.19       2.00       18.8      34.77       0.26        20.
       9.19       2.00       21.6      28.16       0.26        20.
       9.19       2.00       27.5      18.06       0.26        20.
       9.19       2.00       38.9      11.07       0.26        20.
       9.19       2.00       43.7       6.54       0.26        20.
       9.19       2.00       50.4       5.12       0.26        20.
       9.19       2.00       55.6       5.10       0.26        20.
       9.19       2.00       59.0       4.39       0.26        20.
       9.19       2.00       66.0       4.71       0.26        20.
       9.19       2.00       70.9       2.61       0.26        20.
       9.19       2.00       74.6       5.02       0.26        20.
       9.19       2.00       79.7       3.62       0.26        20.
       9.19       2.00      117.9       5.54       0.26        20.
       9.19       2.00      126.5       5.16       0.26        20.
       9.19       2.00      130.0       5.50       0.26        20.
       9.19       2.00      135.1       4.78       0.26        20.
       9.19       2.00      138.7       5.81       0.26        20.
       9.19       2.00      143.9       5.44       0.26        20.
       9.19       2.00      147.3       5.42       0.26        20.
       9.19       2.00      150.8       5.41       0.26        20.
       9.19       2.00      156.1       6.43       0.26        20.
       9.19       2.00      159.5       6.07       0.26        20.
       9.19       2.25       17.1      36.04       0.28        20.
       9.19       2.25       22.1      26.01       0.28        20.
       9.19       2.25       25.3      18.05       0.28        20.
       9.19       2.25       35.5       6.97       0.28        20.
       9.19       2.25       44.2       7.31       0.28        20.
       9.19       2.25       49.4       5.58       0.28        20.
       9.19       2.25       56.4       4.18       0.28        20.
       9.19       2.25       61.6       4.52       0.28        20.
       9.19       2.25       65.1       3.83       0.28        20.
       9.19       2.25       73.8       4.16       0.28        20.
       9.19       2.25      117.5       4.81       0.28        20.
       9.19       2.25      122.8       4.80       0.28        20.
       9.19       2.25      128.0       4.45       0.28        20.
       9.19       2.25      133.2       4.79       0.28        20.
       9.19       2.25      136.7       4.09       0.28        20.
       9.19       2.25      142.0       4.78       0.28        20.
       9.19       2.25      145.4       4.08       0.28        20.
       9.19       2.25      150.7       5.12       0.28        20.
       9.19       2.25      154.2       4.42       0.28        20.
       9.19       2.25      157.7       5.45       0.28        20.
       9.19       2.25      162.9       4.75       0.28        20.
       9.19       2.50       16.1      39.17       0.16        20.
       9.19       2.50       19.2      34.97       0.16        20.
       9.19       2.50       26.2      16.80       0.16        20.
       9.19       2.50       31.3      14.34       0.16        20.
       9.19       2.50       36.3      10.14       0.16        20.
       9.19       2.50       43.0       6.62       0.16        20.
       9.19       2.50       48.3       5.55       0.16        20.
       9.19       2.50       53.6       4.48       0.16        20.
       9.19       2.50       60.7       4.11       0.16        20.
       9.19       2.50       66.0       3.04       0.16        20.
       9.19       2.50       93.1       4.67       0.16        20.
       9.19       2.50       96.6       3.96       0.16        20.
       9.19       2.50      100.2       3.94       0.16        20.
       9.19       2.50      109.3       5.30       0.16        20.
       9.19       2.50      114.5       3.89       0.16        20.
       9.19       2.50      119.9       3.87       0.16        20.
       9.19       2.50      123.5       4.20       0.16        20.
       9.19       2.50      127.1       3.84       0.16        20.
       9.19       2.50      130.6       3.82       0.16        20.
       9.19       2.50      136.1       4.50       0.16        20.
       9.19       2.50      141.5       4.82       0.16        20.
       9.19       2.50      146.9       4.80       0.16        20.
       9.19       2.50      150.6       5.48       0.16        20.
       9.19       2.50      155.9       5.46       0.16        20.
       9.19       2.50      157.8       6.50       0.16        20.
       9.19       2.50      161.5       6.83       0.16        20.
       9.19       2.75       17.1      45.35       0.16        20.
       9.19       2.75       23.0      33.78       0.16        20.
       9.19       2.75       33.8      19.38       0.16        20.
       9.19       2.75       39.8       9.21       0.16        20.
       9.19       2.75       46.6       6.73       0.16        20.
       9.19       2.75       51.8       5.31       0.16        20.
       9.19       2.75       56.9       3.54       0.16        20.
       9.19       2.75       67.6       5.60       0.16        20.
       9.19       2.75       73.0       6.62       0.16        20.
       9.19       2.75       80.0       5.55       0.16        20.
       9.19       2.75       85.2       5.17       0.16        20.
       9.19       2.75       90.5       5.15       0.16        20.
       9.19       2.75       92.1       4.10       0.16        20.
       9.19       2.75       99.2       4.07       0.16        20.
       9.19       2.75      102.6       3.00       0.16        20.
       9.19       2.75      109.6       2.63       0.16        20.
       9.19       2.75      113.1       2.26       0.16        20.
       9.19       2.75      118.4       2.59       0.16        20.
       9.19       2.75      123.7       3.27       0.16        20.
       9.19       2.75      129.0       2.90       0.16        20.
       9.19       2.75      132.6       3.58       0.16        20.
       9.19       2.75      141.4       4.25       0.16        20.
       9.19       2.75      146.7       3.88       0.16        20.
       9.19       2.75      150.3       4.91       0.16        20.
       9.19       2.75      155.6       4.89       0.16        20.
       9.19       2.75      159.2       5.92       0.16        20.
       9.19       2.75      164.5       5.90       0.16        20.
       9.19       3.00       17.9      38.91       0.26        20.
       9.19       3.00       23.3      40.30       0.26        20.
       9.19       3.00       25.2      28.94       0.26        20.
       9.19       3.00       29.4      22.53       0.26        20.
       9.19       3.00       35.7      18.24       0.26        20.
       9.19       3.00       40.1      12.18       0.26        20.
       9.19       3.00       46.5       8.96       0.26        20.
       9.19       3.00       51.2       5.74       0.26        20.
       9.19       3.00       56.3       4.64       0.26        20.
       9.19       3.00       63.1       4.25       0.26        20.
       9.19       3.00       73.6       5.60       0.26        20.
       9.19       3.00       78.8       5.57       0.26        20.
       9.19       3.00       82.1       4.49       0.26        20.
       9.19       3.00       87.2       4.46       0.26        20.
       9.19       3.00       94.2       4.77       0.26        20.
       9.19       3.00       99.2       4.04       0.26        20.
       9.19       3.00      102.6       3.31       0.26        20.
       9.19       3.00      109.4       2.91       0.26        20.
       9.19       3.00      112.8       2.54       0.26        20.
       9.19       3.00      116.3       2.87       0.26        20.
       9.19       3.00      121.5       3.19       0.26        20.
       9.19       3.00      126.6       2.46       0.26        20.
       9.19       3.00      131.8       3.13       0.26        20.
       9.19       3.00      136.9       2.75       0.26        20.
       9.19       3.00      140.5       3.44       0.26        20.
       9.19       3.00      145.7       3.76       0.26        20.
       9.19       3.00      150.9       3.73       0.26        20.
       9.19       3.00      154.4       4.07       0.26        20.
       9.19       3.00      157.8       4.40       0.26        20.
       9.19       3.00      163.1       5.08       0.26        20.
       9.28       1.75       33.8      12.09       0.08        20.
       9.28       1.75       39.3       7.65       0.32        20.
       9.28       1.75       45.5       6.53       0.48        20.
       9.28       1.75       53.0       4.78       0.48        20.
       9.28       1.75       76.5       3.47       0.08        20.
       9.28       1.75       82.9       3.93       0.08        20.
       9.28       1.75       87.7       4.08       0.08        20.
       9.28       1.75       94.1       4.38       0.08        20.
       9.28       1.75       98.8       4.22       0.08        20.
       9.28       1.75      103.7       5.16       0.08        20.
       9.28       1.75      108.4       4.83       0.08        20.
       9.28       1.75      113.2       4.98       0.08        20.
       9.28       1.75      117.8       4.18       0.08        20.
       9.28       1.75      122.6       4.81       0.08        20.
       9.28       1.75      127.4       4.80       0.08        20.
       9.28       1.75      130.5       4.79       0.08        20.
       9.28       1.75      136.8       4.62       0.08        20.
       9.28       1.75      140.1       5.41       0.08        20.
       9.28       1.75      144.7       4.61       0.08        20.
       9.28       1.75      147.9       4.92       0.08        20.
       9.28       1.75      152.7       4.91       0.08        20.
       9.28       1.75      155.9       5.22       0.08        20.
       9.28       1.75      162.2       4.89       0.08        20.
       9.28       2.00       19.7      23.35       0.15        20.
       9.28       2.00       23.6      17.70       0.15        20.
       9.28       2.00       27.2       9.87       0.15        20.
       9.28       2.00       33.9      11.58       0.15        20.
       9.28       2.00       37.7       4.84       0.15        20.
       9.28       2.00       43.9       3.10       0.15        20.
       9.28       2.00       50.4       3.09       0.15        20.
       9.28       2.00       56.5       1.21       0.15        20.
       9.28       2.00       94.0       3.03       0.15        20.
       9.28       2.00       97.4       3.96       0.15        20.
       9.28       2.00      105.4       3.17       0.15        20.
       9.28       2.00      124.9       3.45       0.15        20.
       9.28       2.00      129.8       3.76       0.15        20.
       9.28       2.00      133.1       4.22       0.15        20.
       9.28       2.00      137.9       3.90       0.15        20.
       9.28       2.00      141.3       4.68       0.15        20.
       9.28       2.00      146.0       4.20       0.15        20.
       9.28       2.00      150.9       4.51       0.15        20.
       9.28       2.00      155.8       4.81       0.15        20.
       9.28       2.00      159.2       5.75       0.15        20.
       9.28       2.00      165.7       5.90       0.15        20.
       9.28       2.25       21.7      10.70       0.48        20.
       9.28       2.25       29.6       9.73       0.16        20.
       9.28       2.25       35.4       6.18       0.16        20.
       9.28       2.25       39.7       2.80       0.16        20.
       9.28       2.25       44.3       1.35       0.16        20.
       9.28       2.25       87.9       3.05       0.16        20.
       9.28       2.25       94.3       3.20       0.16        20.
       9.28       2.25      100.8       3.19       0.16        20.
       9.28       2.25      113.6       3.17       0.16        20.
       9.28       2.25      118.5       3.48       0.16        20.
       9.28       2.25      124.9       3.47       0.16        20.
       9.28       2.25      129.6       3.14       0.16        20.
       9.28       2.25      132.9       3.46       0.16        20.
       9.28       2.25      136.1       3.29       0.16        20.
       9.28       2.25      142.6       3.76       0.16        20.
       9.28       2.25      147.3       3.27       0.16        20.
       9.28       2.25      150.7       4.39       0.16        20.
       9.28       2.25      155.5       4.22       0.16        20.
       9.28       2.25      160.4       4.54       0.16        20.
       9.28       2.25      163.6       4.53       0.16        20.
       9.28       2.50       18.8      28.71       0.23        20.
       9.28       2.50       30.5       8.77       0.23        20.
       9.28       2.50       33.4       4.02       0.23        20.
       9.28       2.50       39.7       2.75       0.23        20.
       9.28       2.50       88.7       3.60       0.23        20.
       9.28       2.50       95.0       3.27       0.23        20.
       9.28       2.50       98.2       2.95       0.23        20.
       9.28       2.50      104.5       3.57       0.23        20.
       9.28       2.50      110.8       3.24       0.23        20.
       9.28       2.50      114.0       2.92       0.23        20.
       9.28       2.50      118.8       3.54       0.23        20.
       9.28       2.50      121.9       2.90       0.23        20.
       9.28       2.50      129.8       3.52       0.23        20.
       9.28       2.50      133.0       3.20       0.23        20.
       9.28       2.50      136.1       3.19       0.23        20.
       9.28       2.50      140.9       3.82       0.23        20.
       9.28       2.50      145.6       3.49       0.23        20.
       9.28       2.50      152.0       4.43       0.23        20.
       9.28       2.50      156.7       4.42       0.23        20.
       9.28       2.50      161.5       4.73       0.23        20.
       9.28       2.50      164.7       5.04       0.23        20.
       9.28       2.75       17.6      24.30       0.11        20.
       9.28       2.75       18.2      18.34       0.11        20.
       9.28       2.75       22.0      12.54       0.11        20.
       9.28       2.75       26.2       8.93       0.11        20.
       9.28       2.75       33.9       7.20       0.11        20.
       9.28       2.75       78.1       3.84       0.11        20.
       9.28       2.75       84.4       3.20       0.11        20.
       9.28       2.75       87.5       2.88       0.11        20.
       9.28       2.75       94.0       3.19       0.11        20.
       9.28       2.75       98.7       2.86       0.11        20.
       9.28       2.75      103.4       2.23       0.11        20.
       9.28       2.75      108.2       2.07       0.11        20.
       9.28       2.75      113.0       2.21       0.11        20.
       9.28       2.75      119.3       1.73       0.11        20.
       9.28       2.75      124.2       2.04       0.11        20.
       9.28       2.75      127.4       2.35       0.11        20.
       9.28       2.75      132.3       2.81       0.11        20.
       9.28       2.75      141.9       2.95       0.11        20.
       9.28       2.75      146.7       2.94       0.11        20.
       9.28       2.75      150.1       3.72       0.11        20.
       9.28       2.75      154.9       3.56       0.11        20.
       9.28       2.75      159.8       4.49       0.11        20.
       9.28       2.75      164.6       4.32       0.11        20.
       9.28       3.00       18.7      17.48       0.95        20.
       9.28       3.00       21.9      17.31       0.10        20.
       9.28       3.00       24.5      14.93       0.10        20.
       9.28       3.00       30.4      12.69       0.10        20.
       9.28       3.00       85.8       2.90       0.10        20.
       9.28       3.00       89.0       2.73       0.10        20.
       9.28       3.00       95.3       2.24       0.10        20.
       9.28       3.00      100.1       2.23       0.10        20.
       9.28       3.00      104.9       2.06       0.10        20.
       9.28       3.00      108.0       1.74       0.10        20.
       9.28       3.00      112.8       1.73       0.10        20.
       9.28       3.00      119.4       2.19       0.10        20.
       9.28       3.00      124.1       1.86       0.10        20.
       9.28       3.00      130.6       2.16       0.10        20.
       9.28       3.00      133.9       2.63       0.10        20.
       9.28       3.00      137.1       2.30       0.10        20.
       9.28       3.00      143.5       2.44       0.10        20.
       9.28       3.00      148.5       3.07       0.10        20.
       9.28       3.00      153.3       3.06       0.10        20.
       9.28       3.00      155.1       3.68       0.10        20.
       9.28       3.00      161.6       3.83       0.10        20.
       9.28       3.00      166.5       4.29       0.10        20.
ENDDATA            834
ENDSUBENT          854
SUBENT        F0334004   20210714   20211005   20210930       F086
BIB                  5         13
REACTION   (5-B-10(D,P)5-B-11,PAR,DA)
SAMPLE     Thin self-supporting 10B targets were made by electron
           gun evaporation. The amount of 10B present was about
           130 ug/cm2.
ERR-ANALYS (DATA-ERR1) No information about source of uncertainty
            (from graphic bars).
           (DATA-ERR) Total r.m.s. errors including the absolute
           normalization
STATUS     (CURVE) Fig 10 from Nucl.Phys.,A92(1967)97
HISTORY    (20210714A) SD: SF9=EXP deleted from REACTION code.
           BIB updated. Accuracy of digitized data presentation
           revised. EN-ERR1 -> EN-ERR-DIG;DATA-ERR -> ERR-DIG;
           ERR-T -> DATA-ERR.
ENDBIB              13
COMMON               2          3
ANG        EN-ERR-DIG
ADEG       MEV
   90.      0.004
ENDCOMMON            3
DATA                 6        431
E-LVL      EN         DATA       ERR-DIG    DATA-ERR1  DATA-ERR
MEV        MEV        MB/SR      MB/SR      MB/SR      PER-CENT
       6.76      1.425      1.910      0.006      0.079        15.
       6.76      1.448      1.793      0.006      0.088        15.
       6.76      1.470      1.842      0.006      0.074        15.
       6.76      1.487      1.989      0.006      0.096        15.
       6.76      1.504      1.887      0.006      0.096        15.
       6.76      1.526      1.972      0.006      0.096        15.
       6.76      1.546      1.858      0.006      0.096        15.
       6.76      1.566      1.972      0.006      0.079        15.
       6.76      1.586      1.983      0.006      0.091        15.
       6.76      1.606      1.830      0.006      0.079        15.
       6.76      1.625      1.887      0.006      0.085        15.
       6.76      1.628      1.977      0.006      0.096        15.
       6.76      1.645      1.972      0.006      0.113        15.
       6.76      1.648      1.773      0.006      0.079        15.
       6.76      1.668      1.892      0.006      0.079        15.
       6.76      1.687      1.988      0.006      0.085        15.
       6.76      1.704      1.773      0.006      0.079        15.
       6.76      1.719      1.711      0.006      0.079        15.
       6.76      1.744      1.756      0.006      0.085        15.
       6.76      1.761      1.683      0.006      0.079        15.
       6.76      1.786      1.898      0.006      0.079        15.
       6.76      1.803      1.898      0.006      0.091        15.
       6.76      1.826      1.807      0.006      0.085        15.
       6.76      1.845      1.886      0.006      0.079        15.
       6.76      1.865      1.864      0.006      0.085        15.
       6.76      1.884      1.931      0.006      0.085        15.
       6.76      1.905      1.801      0.006      0.091        15.
       6.76      1.927      1.801      0.006      0.096        15.
       6.76      1.947      1.756      0.006      0.085        15.
       6.76      1.964      1.597      0.006      0.085        15.
       6.76      1.986      1.858      0.006      0.079        15.
       6.76      2.003      1.739      0.006      0.079        15.
       6.76      2.031      1.824      0.006      0.091        15.
       6.76      2.046      1.631      0.006      0.079        15.
       6.76      2.066      1.535      0.006      0.085        15.
       6.76      2.087      1.926      0.006      0.085        15.
       6.76      2.105      1.682      0.006      0.085        15.
       6.76      2.124      1.875      0.006      0.068        15.
       6.76      2.147      1.614      0.006      0.079        15.
       6.76      2.170      1.631      0.006      0.079        15.
       6.76      2.187      1.506      0.006      0.085        15.
       6.76      2.206      1.874      0.006      0.079        15.
       6.76      2.243      1.569      0.006      0.079        15.
       6.76      2.260      1.535      0.006      0.079        15.
       6.76      2.288      1.619      0.006      0.079        15.
       6.76      2.307      1.778      0.006      0.113        15.
       6.76      2.324      1.761      0.006      0.091        15.
       6.76      2.346      1.987      0.006      0.091        15.
       6.76      2.361      1.693      0.006      0.079        15.
       6.76      2.386      1.936      0.006      0.079        15.
       6.76      2.400      1.959      0.006      0.096        15.
       6.76      2.408      1.976      0.006      0.074        15.
       6.76      2.422      1.987      0.006      0.108        15.
       6.76      2.445      1.982      0.006      0.085        15.
       6.76      2.462      1.840      0.006      0.096        15.
       6.76      2.479      1.817      0.006      0.085        15.
       6.76      2.504      1.959      0.006      0.096        15.
       6.76      2.526      2.197      0.006      0.096        15.
       6.76      2.543      2.066      0.006      0.085        15.
       6.76      2.563      2.083      0.006      0.096        15.
       6.76      2.585      2.219      0.006      0.102        15.
       6.76      2.597      1.834      0.006      0.096        15.
       6.76      2.620      1.902      0.006      0.096        15.
       6.76      2.642      1.828      0.006      0.091        15.
       6.76      2.665      1.874      0.006      0.096        15.
       6.76      2.681      1.936      0.006      0.113        15.
       6.76      2.699      1.709      0.006      0.096        15.
       6.76      2.701      1.840      0.006      0.096        15.
       6.76      2.722      1.658      0.006      0.085        15.
       6.76      2.741      1.658      0.006      0.085        15.
       6.76      2.761      1.658      0.006      0.079        15.
       6.76      2.781      1.681      0.006      0.079        15.
       6.76      2.800      1.862      0.006      0.085        15.
       6.76      2.806      1.913      0.006      0.091        15.
       6.76      2.811      1.873      0.006      0.085        15.
       6.76      2.822      1.890      0.006      0.068        15.
       6.76      2.842      1.873      0.006      0.074        15.
       6.76      2.865      1.885      0.006      0.074        15.
       6.76      2.882      1.828      0.006      0.079        15.
       6.76      2.902      1.800      0.006      0.079        15.
       6.76      2.924      1.975      0.006      0.074        15.
       6.76      2.944      1.850      0.006      0.074        15.
       6.76      2.961      1.686      0.006      0.079        15.
       6.76      2.981      1.732      0.006      0.085        15.
       6.76      3.006      1.783      0.006      0.136        15.
       6.76      3.023      1.788      0.006      0.074        15.
       6.76      3.043      1.714      0.006      0.091        15.
       6.76      3.063      1.630      0.006      0.085        15.
       6.76      3.082      1.720      0.006      0.079        15.
       6.76      3.104      1.816      0.006      0.074        15.
       7.30      1.427      1.038      0.006      0.085        20.
       7.30      1.444      1.043      0.006      0.091        20.
       7.30      1.470      0.958      0.006      0.080        20.
       7.30      1.488      1.270      0.006      0.074        20.
       7.30      1.508      1.185      0.006      0.068        20.
       7.30      1.528      1.100      0.006      0.074        20.
       7.30      1.548      1.134      0.006      0.068        20.
       7.30      1.567      1.197      0.006      0.080        20.
       7.30      1.586      1.373      0.006      0.085        20.
       7.30      1.608      1.356      0.006      0.085        20.
       7.30      1.630      1.077      0.006      0.068        20.
       7.30      1.631      1.327      0.006      0.074        20.
       7.30      1.647      1.464      0.006      0.074        20.
       7.30      1.648      1.236      0.006      0.074        20.
       7.30      1.665      1.197      0.006      0.068        20.
       7.30      1.690      1.322      0.006      0.074        20.
       7.30      1.709      1.026      0.006      0.085        20.
       7.30      1.734      1.077      0.006      0.074        20.
       7.30      1.752      1.288      0.006      0.074        20.
       7.30      1.768      0.998      0.006      0.063        20.
       7.30      1.785      1.043      0.006      0.057        20.
       7.30      1.807      1.038      0.006      0.068        20.
       7.30      1.826      1.140      0.006      0.068        20.
       7.30      1.845      1.208      0.006      0.074        20.
       7.30      1.870      1.231      0.006      0.063        20.
       7.30      1.885      1.111      0.006      0.057        20.
       7.30      1.905      1.106      0.006      0.074        20.
       7.30      1.924      1.248      0.006      0.080        20.
       7.30      1.944      1.111      0.006      0.063        20.
       7.30      1.953      1.106      0.006      0.068        20.
       7.30      1.964      1.100      0.006      0.063        20.
       7.30      1.989      1.174      0.006      0.063        20.
       7.30      2.008      1.288      0.006      0.068        20.
       7.30      2.029      1.157      0.006      0.068        20.
       7.30      2.048      1.151      0.006      0.057        20.
       7.30      2.068      1.225      0.006      0.074        20.
       7.30      2.084      1.219      0.006      0.074        20.
       7.30      2.110      1.208      0.006      0.068        20.
       7.30      2.124      1.191      0.006      0.074        20.
       7.30      2.147      1.100      0.006      0.057        20.
       7.30      2.167      1.111      0.006      0.057        20.
       7.30      2.192      1.111      0.006      0.057        20.
       7.30      2.211      1.134      0.006      0.063        20.
       7.30      2.249      1.043      0.006      0.063        20.
       7.30      2.269      1.009      0.006      0.063        20.
       7.30      2.289      0.844      0.006      0.074        20.
       7.30      2.311      0.924      0.006      0.074        20.
       7.30      2.331      0.924      0.006      0.063        20.
       7.30      2.352      0.748      0.006      0.045        20.
       7.30      2.374      0.822      0.006      0.063        20.
       7.30      2.390      0.941      0.006      0.057        20.
       7.30      2.413      0.827      0.006      0.051        20.
       7.30      2.430      0.844      0.006      0.057        20.
       7.30      2.446      0.975      0.006      0.051        20.
       7.30      2.469      0.884      0.006      0.063        20.
       7.30      2.488      1.054      0.006      0.057        20.
       7.30      2.506      1.219      0.006      0.091        20.
       7.30      2.510      1.003      0.006      0.051        20.
       7.30      2.529      1.168      0.006      0.085        20.
       7.30      2.543      1.168      0.006      0.085        20.
       7.30      2.567      1.435      0.006      0.091        20.
       7.30      2.586      1.038      0.006      0.080        20.
       7.30      2.608      1.100      0.006      0.085        20.
       7.30      2.622      1.100      0.006      0.080        20.
       7.30      2.648      1.106      0.006      0.085        20.
       7.30      2.666      1.339      0.006      0.080        20.
       7.30      2.683      1.322      0.006      0.091        20.
       7.30      2.703      1.299      0.006      0.136        20.
       7.30      2.710      1.089      0.006      0.091        20.
       7.30      2.731      1.214      0.006      0.074        20.
       7.30      2.750      1.020      0.006      0.057        20.
       7.30      2.772      1.066      0.006      0.068        20.
       7.30      2.790      0.878      0.006      0.068        20.
       7.30      2.809      0.964      0.006      0.080        20.
       7.30      2.828      1.043      0.006      0.091        20.
       7.30      2.852      0.890      0.006      0.074        20.
       7.30      2.874      0.947      0.006      0.068        20.
       7.30      2.892      0.725      0.006      0.063        20.
       7.30      2.914      0.856      0.006      0.080        20.
       7.30      2.931      0.833      0.006      0.045        20.
       7.30      2.951      0.759      0.006      0.068        20.
       7.30      2.972      0.907      0.006      0.091        20.
       7.30      2.991      0.680      0.006      0.051        20.
       7.30      3.013      0.623      0.006      0.040        20.
       7.30      3.030      0.697      0.006      0.068        20.
       7.30      3.050      0.600      0.006      0.068        20.
       7.30      3.064      0.594      0.006      0.063        20.
       7.30      3.070      0.594      0.006      0.057        20.
       7.30      3.092      0.594      0.006      0.063        20.
       7.30      3.112      0.600      0.006      0.051        20.
       7.99      1.427      0.426      0.003      0.031        20.
       7.99      1.444      0.372      0.003      0.043        20.
       7.99      1.467      0.374      0.003      0.060        20.
       7.99      1.489      0.443      0.003      0.045        20.
       7.99      1.507      0.377      0.003      0.045        20.
       7.99      1.527      0.343      0.003      0.043        20.
       7.99      1.545      0.272      0.003      0.037        20.
       7.99      1.564      0.277      0.003      0.048        20.
       7.99      1.590      0.320      0.003      0.043        20.
       7.99      1.607      0.337      0.003      0.048        20.
       7.99      2.483      0.468      0.003      0.043        20.
       7.99      2.503      0.573      0.003      0.057        20.
       7.99      2.523      0.559      0.003      0.057        20.
       7.99      2.543      0.502      0.003      0.054        20.
       7.99      2.562      0.638      0.003      0.057        20.
       7.99      2.583      0.459      0.003      0.051        20.
       7.99      2.605      0.490      0.003      0.057        20.
       7.99      2.625      0.470      0.003      0.054        20.
       7.99      2.645      0.496      0.003      0.048        20.
       7.99      2.665      0.547      0.003      0.054        20.
       7.99      2.685      0.501      0.003      0.054        20.
       7.99      2.704      0.544      0.003      0.048        20.
       7.99      2.706      0.652      0.003      0.057        20.
       7.99      2.725      0.464      0.003      0.048        20.
       7.99      2.745      0.484      0.003      0.043        20.
       7.99      2.762      0.395      0.003      0.045        20.
       7.99      2.785      0.438      0.003      0.045        20.
       7.99      2.806      0.242      0.003      0.037        20.
       7.99      2.848      0.389      0.003      0.048        20.
       7.99      2.865      0.292      0.003      0.048        20.
       7.99      2.885      0.332      0.003      0.045        20.
       7.99      2.901      0.443      0.003      0.051        20.
       7.99      2.924      0.451      0.003      0.045        20.
       7.99      2.944      0.363      0.003      0.045        20.
       7.99      2.965      0.323      0.003      0.048        20.
       7.99      2.985      0.309      0.003      0.045        20.
       7.99      3.005      0.269      0.003      0.043        20.
       7.99      3.024      0.320      0.003      0.043        20.
       7.99      3.044      0.345      0.003      0.051        20.
       7.99      3.065      0.212      0.003      0.040        20.
       7.99      3.085      0.240      0.003      0.034        20.
       7.99      3.102      0.243      0.003      0.034        20.
       8.57      1.425      0.369      0.003      0.032        20.
       8.57      1.444      0.291      0.003      0.034        20.
       8.57      1.464      0.360      0.003      0.037        20.
       8.57      1.482      0.368      0.003      0.046        20.
       8.57      1.501      0.348      0.003      0.046        20.
       8.57      1.524      0.377      0.003      0.040        20.
       8.57      1.544      0.406      0.003      0.049        20.
       8.57      1.564      0.302      0.003      0.040        20.
       8.57      1.587      0.383      0.003      0.043        20.
       8.57      1.604      0.406      0.003      0.043        20.
       8.57      1.626      0.242      0.003      0.034        20.
       8.57      1.644      0.334      0.003      0.040        20.
       8.57      1.664      0.371      0.003      0.046        20.
       8.57      1.686      0.351      0.003      0.043        20.
       8.57      1.704      0.348      0.003      0.043        20.
       8.57      1.727      0.374      0.003      0.043        20.
       8.57      1.744      0.454      0.003      0.046        20.
       8.57      1.764      0.414      0.003      0.040        20.
       8.57      1.784      0.414      0.003      0.046        20.
       8.57      1.804      0.468      0.003      0.040        20.
       8.57      1.824      0.416      0.003      0.057        20.
       8.57      1.843      0.422      0.003      0.046        20.
       8.57      1.863      0.385      0.003      0.040        20.
       8.57      1.877      0.382      0.003      0.046        20.
       8.57      1.903      0.422      0.003      0.046        20.
       8.57      1.923      0.416      0.003      0.049        20.
       8.57      1.946      0.367      0.003      0.052        20.
       8.57      1.966      0.388      0.003      0.040        20.
       8.57      1.982      0.313      0.003      0.040        20.
       8.57      2.006      0.364      0.003      0.052        20.
       8.57      2.026      0.554      0.003      0.057        20.
       8.57      2.048      0.379      0.003      0.043        20.
       8.57      2.065      0.333      0.003      0.043        20.
       8.57      2.086      0.448      0.003      0.043        20.
       8.57      2.106      0.510      0.003      0.049        20.
       8.57      2.128      0.473      0.003      0.046        20.
       8.57      2.148      0.476      0.003      0.046        20.
       8.57      2.162      0.353      0.003      0.034        20.
       8.57      2.188      0.364      0.003      0.049        20.
       8.57      2.205      0.367      0.003      0.040        20.
       8.57      2.247      0.335      0.003      0.037        20.
       8.57      2.267      0.264      0.003      0.037        20.
       8.57      2.287      0.252      0.003      0.043        20.
       8.57      2.307      0.295      0.003      0.043        20.
       8.57      2.324      0.341      0.003      0.040        20.
       8.57      2.347      0.261      0.003      0.040        20.
       8.57      2.364      0.298      0.003      0.037        20.
       8.57      2.387      0.381      0.003      0.046        20.
       8.57      2.404      0.387      0.003      0.046        20.
       8.57      2.424      0.338      0.003      0.043        20.
       8.57      2.441      0.418      0.003      0.046        20.
       8.57      2.461      0.447      0.003      0.049        20.
       8.57      2.487      0.438      0.003      0.052        20.
       8.57      2.501      0.438      0.003      0.060        20.
       8.57      2.505      0.555      0.003      0.066        20.
       8.57      2.525      0.664      0.003      0.066        20.
       8.57      2.545      0.696      0.003      0.072        20.
       8.57      2.565      0.627      0.003      0.072        20.
       8.57      2.582      0.647      0.003      0.066        20.
       8.57      2.605      0.650      0.003      0.066        20.
       8.57      2.627      0.593      0.003      0.063        20.
       8.57      2.648      0.658      0.003      0.074        20.
       8.57      2.827      0.618      0.003      0.060        20.
       8.57      2.847      0.767      0.003      0.072        20.
       8.57      2.867      0.684      0.003      0.063        20.
       8.57      2.887      0.681      0.003      0.054        20.
       8.57      2.904      0.595      0.003      0.057        20.
       8.57      2.930      0.761      0.003      0.057        20.
       8.57      2.946      0.598      0.003      0.054        20.
       8.57      2.970      0.735      0.003      0.066        20.
       8.57      2.983      0.511      0.003      0.054        20.
       8.57      3.009      0.543      0.003      0.052        20.
       8.57      3.025      0.460      0.003      0.052        20.
       8.57      3.046      0.597      0.003      0.057        20.
       8.57      3.065      0.503      0.003      0.052        20.
       8.57      3.089      0.709      0.003      0.060        20.
       8.57      3.105      0.534      0.003      0.054        20.
       8.92      2.087      3.312      0.006      0.110        20.
       8.92      2.108      3.257      0.006      0.110        20.
       8.92      2.129      3.398      0.006      0.110        20.
       8.92      2.144      3.330      0.006      0.116        20.
       8.92      2.165      3.238      0.006      0.110        20.
       8.92      2.186      3.293      0.006      0.110        20.
       8.92      2.204      2.957      0.006      0.098        20.
       8.92      2.243      2.994      0.006      0.104        20.
       8.92      2.264      2.859      0.006      0.098        20.
       8.92      2.282      3.018      0.006      0.116        20.
       8.92      2.303      2.914      0.006      0.104        20.
       8.92      2.324      2.926      0.006      0.116        20.
       8.92      2.345      2.883      0.006      0.098        20.
       8.92      2.366      2.932      0.006      0.098        20.
       8.92      2.387      3.036      0.006      0.104        20.
       8.92      2.408      2.841      0.006      0.098        20.
       8.92      2.429      2.651      0.006      0.092        20.
       8.92      2.444      2.455      0.006      0.098        20.
       8.92      2.465      2.486      0.006      0.098        20.
       8.92      2.486      2.632      0.006      0.110        20.
       8.92      2.546      2.847      0.006      0.092        20.
       8.92      2.567      2.480      0.006      0.104        20.
       8.92      2.588      2.657      0.006      0.098        20.
       8.92      2.606      2.431      0.006      0.104        20.
       8.92      2.624      2.412      0.006      0.104        20.
       8.92      2.642      2.296      0.006      0.104        20.
       8.92      2.666      2.131      0.006      0.098        20.
       8.92      2.684      2.094      0.006      0.104        20.
       8.92      2.702      2.039      0.006      0.104        20.
       8.92      2.726      1.990      0.006      0.092        20.
       8.92      2.741      1.770      0.006      0.080        20.
       8.92      2.765      1.947      0.006      0.080        20.
       8.92      2.780      1.678      0.006      0.098        20.
       8.92      2.804      1.617      0.006      0.080        20.
       8.92      2.825      1.286      0.006      0.073        20.
       8.92      2.837      1.531      0.006      0.086        20.
       8.92      2.864      1.537      0.006      0.080        20.
       8.92      2.882      1.574      0.006      0.086        20.
       8.92      2.903      1.543      0.006      0.086        20.
       8.92      2.921      1.396      0.006      0.080        20.
       8.92      2.939      1.365      0.006      0.073        20.
       8.92      2.963      1.427      0.006      0.080        20.
       8.92      2.978      1.292      0.006      0.073        20.
       8.92      2.996      1.408      0.006      0.080        20.
       8.92      3.020      1.463      0.006      0.080        20.
       8.92      3.041      1.225      0.006      0.080        20.
       8.92      3.062      1.200      0.006      0.086        20.
       8.92      3.080      1.206      0.006      0.073        20.
       8.92      3.101      1.231      0.006      0.073        20.
       9.19      2.721      5.041      0.015      0.121        20.
       9.19      2.748      4.996      0.015      0.106        20.
       9.19      2.767      4.557      0.015      0.151        20.
       9.19      2.784      4.830      0.015      0.136        20.
       9.19      2.803      4.815      0.015      0.121        20.
       9.19      2.806      4.649      0.015      0.136        20.
       9.19      2.827      4.467      0.015      0.136        20.
       9.19      2.845      4.574      0.015      0.151        20.
       9.19      2.866      4.756      0.015      0.136        20.
       9.19      2.881      4.302      0.015      0.136        20.
       9.19      2.905      4.287      0.015      0.121        20.
       9.19      2.927      4.151      0.015      0.121        20.
       9.19      2.945      3.985      0.015      0.121        20.
       9.19      2.965      4.273      0.015      0.121        20.
       9.19      2.981      3.788      0.015      0.106        20.
       9.19      3.005      3.637      0.015      0.121        20.
       9.19      3.029      3.850      0.015      0.106        20.
       9.19      3.047      3.774      0.015      0.106        20.
       9.19      3.065      3.744      0.015      0.121        20.
       9.19      3.086      3.639      0.015      0.136        20.
       9.19      3.105      3.563      0.015      0.121        20.
       9.28      1.781      3.869      0.010      0.106        20.
       9.28      1.806      3.806      0.010      0.106        20.
       9.28      1.823      3.510      0.010      0.106        20.
       9.28      1.845      3.563      0.010      0.106        20.
       9.28      1.864      3.701      0.010      0.116        20.
       9.28      1.883      3.691      0.010      0.116        20.
       9.28      1.905      3.871      0.010      0.106        20.
       9.28      1.924      3.607      0.010      0.116        20.
       9.28      1.943      3.945      0.010      0.106        20.
       9.28      1.962      3.850      0.010      0.095        20.
       9.28      1.978      3.734      0.010      0.106        20.
       9.28      2.000      3.840      0.010      0.116        20.
       9.28      2.019      3.989      0.010      0.106        20.
       9.28      2.039      3.936      0.010      0.116        20.
       9.28      2.096      3.651      0.010      0.116        20.
       9.28      2.118      3.704      0.010      0.127        20.
       9.28      2.134      3.747      0.010      0.116        20.
       9.28      2.157      3.324      0.010      0.127        20.
       9.28      2.180      3.324      0.010      0.169        20.
       9.28      2.196      3.102      0.010      0.148        20.
       9.28      2.237      3.325      0.010      0.138        20.
       9.28      2.256      3.558      0.010      0.116        20.
       9.28      2.274      3.791      0.010      0.148        20.
       9.28      2.297      3.315      0.010      0.148        20.
       9.28      2.319      3.728      0.010      0.116        20.
       9.28      2.335      3.739      0.010      0.106        20.
       9.28      2.357      3.739      0.010      0.106        20.
       9.28      2.379      3.750      0.010      0.127        20.
       9.28      2.418      3.687      0.010      0.159        20.
       9.28      2.418      3.803      0.010      0.106        20.
       9.28      2.439      3.983      0.010      0.116        20.
       9.28      2.456      3.666      0.010      0.106        20.
       9.28      2.475      3.698      0.010      0.095        20.
       9.28      2.497      3.614      0.010      0.116        20.
       9.28      2.535      4.196      0.010      0.127        20.
       9.28      2.557      4.228      0.010      0.095        20.
       9.28      2.576      4.091      0.010      0.106        20.
       9.28      2.599      3.848      0.010      0.106        20.
       9.28      2.618      3.996      0.010      0.106        20.
       9.28      2.634      3.763      0.010      0.106        20.
       9.28      2.656      3.753      0.010      0.095        20.
       9.28      2.675      3.859      0.010      0.106        20.
       9.28      2.694      3.944      0.010      0.116        20.
       9.28      2.697      4.145      0.010      0.148        20.
       9.28      2.714      3.500      0.010      0.095        20.
       9.28      2.733      3.331      0.010      0.106        20.
       9.28      2.752      3.320      0.010      0.106        20.
       9.28      2.775      3.310      0.010      0.106        20.
       9.28      2.794      3.067      0.010      0.138        20.
       9.28      2.794      3.003      0.010      0.116        20.
       9.28      2.814      2.803      0.010      0.085        20.
       9.28      2.836      2.961      0.010      0.116        20.
       9.28      2.854      3.247      0.010      0.116        20.
       9.28      2.875      2.613      0.010      0.106        20.
       9.28      2.897      2.613      0.010      0.127        20.
       9.28      2.909      2.719      0.010      0.106        20.
       9.28      2.957      2.709      0.010      0.148        20.
       9.28      3.006      2.181      0.010      0.127        20.
       9.28      3.037      2.414      0.010      0.116        20.
       9.28      3.053      2.118      0.010      0.085        20.
       9.28      3.072      2.160      0.010      0.116        20.
       9.28      3.089      1.652      0.010      0.095        20.
ENDDATA            433
ENDSUBENT          455
SUBENT        F0334005   20210714   20211005   20210930       F086
BIB                  5         10
REACTION   (5-B-10(D,EL)5-B-10,,DA)
SAMPLE     Thin self-supporting 10B targets were made by electron
           gun evaporation. The amount of 10B present was about
           130 ug/cm2.
ERR-ANALYS (DATA-ERR) No information about source of uncertainty.
STATUS     (CURVE) Fig 10 from Nucl.Phys.,A92(1967)97
HISTORY    (20210714A) SD: SF9=EXP deleted from REACTION code.
           EN-SEC deleted. STATUS, ERR-ANALYS updated. Accuracy
           of digitized data presentation revised. EN-ERR1 ->
           EN-ERR-DIG; DATA-ERR -> ERR-DIG; DATA-ERR1 -> DATA-ERR.
ENDBIB              10
COMMON               3          3
ANG        EN-ERR-DIG ERR-DIG
ADEG       MEV        MB/SR
   90.      0.004      0.03
ENDCOMMON            3
DATA                 3         38
EN         DATA       DATA-ERR
MEV        MB/SR      MB/SR
      1.725      22.06       0.38
      1.737      22.45       0.45
      1.760      21.36       0.38
      1.779      20.47       0.38
      1.804      21.05       0.38
      1.823      19.77       0.38
      1.846      19.77       0.38
      1.862      19.78       0.39
      1.884      19.40       0.45
      1.900      18.31       0.45
      1.922      16.64       0.32
      1.938      16.65       0.38
      1.960      17.10       0.38
      1.976      16.01       0.32
      1.995      16.21       0.51
      2.040      16.09       0.32
      2.059      15.64       0.32
      2.075      14.87       0.32
      2.098      15.07       0.32
      2.113      15.20       0.32
      2.136      14.63       0.26
      2.155      14.18       0.19
      2.177      14.76       0.26
      2.196      14.83       0.32
      2.235      14.45       0.32
      2.257      14.13       0.26
      2.289      14.26       0.32
      2.337      13.69       0.32
      2.356      14.08       0.32
      2.378      13.31       0.26
      2.394      13.32       0.32
      2.419      14.09       0.32
      2.432      12.94       0.32
      2.458      13.26       0.26
      2.477      12.69       0.38
      2.496      13.33       0.26
      2.537      14.04       0.38
      2.556      13.73       0.38
ENDDATA             40
ENDSUBENT           59
ENDENTRY             5
