ENTRY            F0334   19990409   19990429
SUBENT        F0334001   19990409   19990429
BIB                 10         18
TITLE      Differential cross sections of 12C(d,p1)13C and
           10B(d,p)11B below E(d)=3.0 MeV
AUTHOR     (R.V.POORE,P.E.SHEARIN,D.R.TILLEY,R.M.WILLIAMSON)
INSTITUTE  (1USADKE)
REFERENCE  (J,NP/A,92,97,196702)
SAMPLE     Thin self-supporting 10B targets were made by electron
           gun evaporation. The amount of 10B present was about
           130 mu-g/cm2.
           Thin self-supporting 12C targets were prepared from a
           suspension of graphite in alcohol. The thicknesses of
           these targets were about 40 mu-g/cm2.
METHOD     (PHD)
FACILITY   (VDG)
DETECTOR   (SOLST) Semiconductor detectors (300 mu-m)
ERR-ANALYS (EN-ERR) Scale error
           (ANG-ERR) Error in the calibration detector angle.
HISTORY    (19850925C)
           (19990409A) CNPD: corrected 4-dig. year
ENDBIB              18
COMMON               3          3
EN-ERR     ANG-ERR    EN-RSL-FW
MEV        ADEG       MEV
 0.01       0.2        0.019
ENDCOMMON            3
ENDSUBENT           25
SUBENT        F0334002   19990409   19990429
BIB                  6          9
REACTION   (6-C-12(D,P)6-C-13,PAR,DA,,,EXP)
MONITOR    (6-C-12(D,P)6-C-13,PAR,DA,,,EXP)
MONIT-REF  (,KATMAN,J,NP,80,449,1966)
ERR-ANALYS (ANG2-ERR) Digitizing error
           (DATA-ERR) Digitizing error
           (DATA-ERR1) Error from graphic bars
           (ERR-1) Scale error
EN-SEC     (E-LVL,6-C-13)
STATUS     (CURVE) fig.2,3
ENDBIB               9
COMMON               2          3
E-LVL      ANG2-ERR
MEV        ADEG
  3.09      0.40
ENDCOMMON            3
DATA                 6        327
EN         ANG        DATA       DATA-ERR   DATA-ERR1  ERR-1
MEV        ADEG       MB/SR      MB/SR      MB/SR      PER-CENT
     0.9       39.86      11.12       0.03       0.5877    30.
     0.9       50.67       9.228      0.03       0.401     30.
     0.9       56.72       9.378      0.03       0.3475    30.
     0.9       61.94       9.477      0.03       0.3743    30.
     0.9       67.93       9.307      0.03       0.348     30.
     0.9       72.54       9.112      0.03       0.348     30.
     0.9       77.99       9.023      0.03       0.2945    30.
     0.9       83.61       8.398      0.03       0.2945    30.
     0.9       88.77       8.229      0.03       0.3475    30.
     0.9       93.59       7.767      0.03       0.4545    30.
     0.9       98.78       7.705      0.03       0.4817    30.
     0.9      104.3        6.519      0.03       0.4545    30.
     0.9      108.9        6.271      0.03       0.3743    30.
     0.9      114.2        6.904      0.03       0.3738    30.
     0.9      118.7        6.228      0.03       0.3738    30.
     0.9      122.7        6.783      0.03       0.348     30.
     0.9      128.2        5.597      0.03       0.401     30.
     0.9      137.3        4.94       0.03       0.3475    30.
     0.9      140.9        4.935      0.03       0.3213    30.
     0.9      146.3        3.535      0.03       0.348     30.
     0.9      149.1        4.894      0.03       0.4549    30.
     0.9      154.6        2.826      0.03       0.4277    30.
     1.07      25.04      18.96       0.04       2.894     20.
     1.07      34.5       16.71       0.04       1.222     20.
     1.07      44.41      12.61       0.04       0.579     20.
     1.07      50.82      11.26       0.04       0.3858    20.
     1.07      56.61       9.207      0.04                 20.
     1.07      61.7        7.667      0.04                 20.
     1.07      66.82       5.549      0.04       0.5142    20.
     1.07      72.56       4.267      0.04                 20.
     1.07      78.62       3.178      0.04                 20.
     1.07      83.32       2.41       0.04                 20.
     1.07      88.33       2.092      0.04                 20.
     1.07      93.35       1.581      0.04                 20.
     1.07      98.68       1.392      0.04                 20.
     1.07     103.4        1.139      0.04                 20.
     1.07     108.         1.656      0.04                 20.
     1.07     112.6        1.788      0.04                 20.
     1.07     123.2        2.182      0.04                 20.
     1.07     127.2        2.635      0.04                 20.
     1.07     131.8        3.217      0.04                 20.
     1.07     136.8        2.964      0.04                 20.
     1.07     141.1        3.289      0.04                 20.
     1.07     144.7        3.806      0.04                 20.
     1.07     150.1        3.809      0.04                 20.
     1.07     155.         4.392      0.04                 20.
     1.07     158.4        3.751      0.04                 20.
     1.07     166.9        5.365      0.04                 20.
     1.32      20.04      14.94       0.03       2.222     30.
     1.32      22.9       16.96       0.03       1.311     30.
     1.32      27.75      15.35       0.03       0.7689    30.
     1.32      39.45      13.09       0.03       0.6835    30.
     1.32      45.28      11.89       0.03       0.5984    30.
     1.32      50.88      10.88       0.03       0.5126    30.
     1.32      56.26      10.22       0.03       0.456     30.
     1.32      61.56       9.215      0.03       0.2851    30.
     1.32      67.3        8.781      0.03       0.142     30.
     1.32      72.25       8.717      0.03       0.4564    30.
     1.32      77.39       9.366      0.03       0.3414    30.
     1.32      82.19       9.844      0.03       0.371     30.
     1.32      88.22       9.438      0.03       0.3417    30.
     1.32      93.38      10.17       0.03       0.3987    30.
     1.32      98.1       10.31       0.03       0.4564    30.
     1.32     103.1       10.44       0.03       0.4557    30.
     1.32     108.2       11.12       0.03       0.3991    30.
     1.32     112.7       11.46       0.03       0.3991    30.
     1.32     118.2       11.17       0.03       0.4272    30.
     1.32     122.5       10.99       0.03       0.456     30.
     1.32     127.5       10.96       0.03       0.3991    30.
     1.32     131.8       11.66       0.03       0.4841    30.
     1.32     136.2       10.8        0.03       0.456     30.
     1.32     141.        11.08       0.03       0.456     30.
     1.32     145.6        9.622      0.03       0.4845    30.
     1.32     148.6        9.846      0.03       0.4557    30.
     1.32     149.5       11.18       0.03       0.4841    30.
     1.32     154.4        9.639      0.03       0.456     30.
     1.32     158.9       10.32       0.03       0.5411    30.
     1.32     163.6       10.2        0.03       0.4841    30.
     1.32     167.9        9.024      0.03       0.5411    30.
     1.37      30.87      12.88       0.03       1.079     30.
     1.37      39.23       6.927      0.03       0.5753    30.
     1.37      45.44       5.442      0.03       0.3955    30.
     1.37      50.74       3.815      0.03                 30.
     1.37      56.21       3.159      0.03                 30.
     1.37      60.9        3.079      0.03                 30.
     1.37      66.45       2.89       0.03                 30.
     1.37      72.01       2.773      0.03                 30.
     1.37      77.1        3.304      0.03                 30.
     1.37      82.51       3.943      0.03                 30.
     1.37      87.56       4.258      0.03                 30.
     1.37      92.68       4.969      0.03                 30.
     1.37      96.56       5.322      0.03                 30.
     1.37     102.8        5.708      0.03                 30.
     1.37     107.9        6.311      0.03                 30.
     1.37     112.7        6.627      0.03                 30.
     1.37     116.5        6.872      0.03                 30.
     1.37     121.9        7.582      0.03                 30.
     1.37     126.6        7.395      0.03                 30.
     1.37     131.2        8.215      0.03                 30.
     1.37     136.1        7.595      0.03                 30.
     1.37     140.6        8.559      0.03                 30.
     1.37     144.6        7.905      0.03                 30.
     1.37     149.         7.826      0.03                 30.
     1.37     153.7        7.818      0.03                 30.
     1.37     157.5        7.272      0.03                 30.
     1.37     162.5        7.444      0.03                 30.
     1.37     166.3        7.294      0.03                 30.
     1.452     20.56      17.66       0.3        2.493     50.
     1.452     23.08      18.55       0.3        1.884     50.
     1.452     40.59      11.33       0.3        0.6653    50.
     1.452     45.8       10.06       0.3                  50.
     1.452     50.95       9.686      0.3                  50.
     1.452     56.32      10.53       0.3                  50.
     1.452     61.47      10.09       0.3                  50.
     1.452     67.48       9.718      0.3                  50.
     1.452     72.62       9.673      0.3                  50.
     1.452     77.73       9.96       0.3                  50.
     1.452     82.6        9.582      0.3                  50.
     1.452     88.62       8.985      0.3                  50.
     1.452     93.78       8.385      0.3                  50.
     1.452     98.64       8.284      0.3                  50.
     1.452    103.2        8.182      0.3                  50.
     1.452    108.3        8.414      0.3                  50.
     1.452    112.3        8.754      0.3                  50.
     1.452    117.4        9.651      0.3                  50.
     1.452    122.5       10.27       0.3                  50.
     1.452    127.8       11.94       0.3                  50.
     1.452    131.9       14.55       0.3                  50.
     1.452    136.4       16.72       0.3                  50.
     1.452    140.6       17.01       0.3                  50.
     1.452    145.3       20.4        0.3                  50.
     1.452    150.        22.73       0.3        0.6653    50.
     1.452    154.7       24.24       0.3                  50.
     1.452    158.        26.68       0.3                  50.
     1.452    163.1       27.97       0.3        0.7201    50.
     1.452    167.1       27.31       0.3        0.7201    50.
     1.49      18.73      17.49       0.06       2.262     30.
     1.49      20.97      22.01       0.06       1.608     30.
     1.49      34.01      12.88       0.06       0.7143    30.
     1.49      39.16       8.823      0.06       0.7143    30.
     1.49      44.66       7.503      0.06                 30.
     1.49      50.19       7.314      0.06                 30.
     1.49      55.06       4.804      0.06                 30.
     1.49      60.91       5.507      0.06                 30.
     1.49      66.12       4.902      0.06                 30.
     1.49      72.26       4.711      0.06                 30.
     1.49      77.18       5.238      0.06                 30.
     1.49      82.41       5.704      0.06                 30.
     1.49      87.34       6.409      0.06                 30.
     1.49      91.96       7.292      0.06                 30.
     1.49      96.9        8.473      0.06                 30.
     1.49     102.1        8.761      0.06                 30.
     1.49     106.8       10.66       0.06                 30.
     1.49     112.        10.17       0.06       0.5946    30.
     1.49     117.3       13.43       0.06                 30.
     1.49     122.2       12.59       0.06                 30.
     1.49     126.5       13.12       0.06                 30.
     1.49     130.8       13.59       0.06                 30.
     1.49     136.3       14.29       0.06                 30.
     1.49     139.7       16.84       0.06                 30.
     1.49     144.9       15.58       0.06                 30.
     1.49     149.6       16.76       0.06                 30.
     1.49     153.6       17.23       0.06                 30.
     1.49     157.9       17.22       0.06                 30.
     1.49     162.2       16.68       0.06                 30.
     1.49     162.5       17.45       0.06                 30.
     1.49     167.1       17.15       0.06       0.5363    30.
     1.69      16.76      34.98       0.07       4.894     30.
     1.69      20.22      43.27       0.07       1.844     30.
     1.69      23.87      38.3        0.07       1.135     30.
     1.69      30.72      33.04       0.07       1.206     30.
     1.69      34.39      28.85       0.07       0.8506    30.
     1.69      38.72      26.93       0.07       0.8501    30.
     1.69      45.        22.1        0.07       0.9929    30.
     1.69      50.17      19.39       0.07                 30.
     1.69      55.65      16.83       0.07                 30.
     1.69      62.33      15.76       0.07                 30.
     1.69      66.06      13.41       0.07                 30.
     1.69      71.94      14.82       0.07                 30.
     1.69      76.31      14.46       0.07                 30.
     1.69      82.16      14.8        0.07                 30.
     1.69      88.28      14.51       0.07                 30.
     1.69      92.41      15.85       0.07                 30.
     1.69      97.66      15.63       0.07                 30.
     1.69     102.9       16.18       0.07       0.7806    30.
     1.69     107.9       16.46       0.07                 30.
     1.69     112.9       17.45       0.07                 30.
     1.69     116.9       15.38       0.07                 30.
     1.69     122.8       16.93       0.07                 30.
     1.69     127.2       16.71       0.07                 30.
     1.69     131.6       17.41       0.07                 30.
     1.69     136.5       16.56       0.07                 30.
     1.69     140.9       16.69       0.07                 30.
     1.69     145.6       16.68       0.07                 30.
     1.69     149.1       17.88       0.07                 30.
     1.69     154.6       16.81       0.07                 30.
     1.69     158.7       16.94       0.07                 30.
     1.69     163.7       16.87       0.07                 30.
     1.69     167.5       18.07       0.07       0.852     30.
     1.76      16.2      100.9        0.22       4.754     30.
     1.76      19.37      92.28       0.22       2.717     30.
     1.76      28.87      72.35       0.22       2.037     30.
     1.76      34.49      63.97       0.22       2.037     30.
     1.76      38.35      56.95       0.22       2.037     30.
     1.76      39.05      58.31       0.22                 30.
     1.76      44.68      45.85       0.22                 30.
     1.76      49.61      31.81       0.22                 30.
     1.76      55.92      25.01       0.22                 30.
     1.76      60.49      17.77       0.22                 30.
     1.76      66.09      12.78       0.22                 30.
     1.76      70.29       9.61       0.22                 30.
     1.76      76.23       7.795      0.22                 30.
     1.76      81.82       6.886      0.22                 30.
     1.76      86.01       7.109      0.22                 30.
     1.76      92.99       7.104      0.22                 30.
     1.76      97.17       8.233      0.22                 30.
     1.76     102.1        8.003      0.22       1.585     30.
     1.76     106.6        8.906      0.22                 30.
     1.76     110.8       10.03       0.22                 30.
     1.76     116.4       11.16       0.22                 30.
     1.76     120.9       11.39       0.22                 30.
     1.76     125.8       11.61       0.22                 30.
     1.76     131.        14.32       0.22                 30.
     1.76     135.5       14.32       0.22                 30.
     1.76     139.7       15.         0.22                 30.
     1.76     145.        14.54       0.22                 30.
     1.76     149.2       15.67       0.22                 30.
     1.76     153.7       16.8        0.22                 30.
     1.76     157.5       15.66       0.22                 30.
     1.76     161.7       16.11       0.22                 30.
     1.76     162.1       17.24       0.22                 30.
     1.76     167.7       16.56       0.22       1.585     30.
     1.809     14.81      84.89       0.18       5.649     20.
     1.809     17.8       77.91       0.18       2.826     20.
     1.809     21.39      65.88       0.18       3.568     20.
     1.809     25.89      62.47       0.18       2.676     20.
     1.809     33.07      44.06       0.18       1.635     20.
     1.809     33.07      46.88       0.18       1.488     20.
     1.809     37.25      32.17       0.18       1.635     20.
     1.809     43.25      27.28       0.18       1.189     20.
     1.809     48.34      17.63       0.18                 20.
     1.809     53.74      13.49       0.18                 20.
     1.809     59.14       9.191      0.18                 20.
     1.809     64.25       8.165      0.18                 20.
     1.809     69.06       7.733      0.18                 20.
     1.809     75.07       7.75       0.18                 20.
     1.809     80.18      10.89       0.18                 20.
     1.809     85.28       9.861      0.18                 20.
     1.809     90.69      11.66       0.18                 20.
     1.809     95.8       13.01       0.18                 20.
     1.809    100.9       13.92       0.18       2.082     20.
     1.809    105.4       13.64       0.18                 20.
     1.809    110.5       14.69       0.18                 20.
     1.809    115.        14.85       0.18                 20.
     1.809    120.1       15.17       0.18                 20.
     1.809    125.        15.33       0.18                 20.
     1.809    129.5       15.34       0.18                 20.
     1.809    134.9       15.65       0.18                 20.
     1.809    138.8       15.52       0.18                 20.
     1.809    143.3       16.12       0.18                 20.
     1.809    148.1       15.69       0.18                 20.
     1.809    156.8       16.46       0.18                 20.
     1.809    165.8       16.19       0.18       1.487     20.
     1.89      17.18      47.81       0.16       5.183     20.
     1.89      19.75      38.33       0.16       4.631     20.
     1.89      24.5       38.78       0.16       6.617     20.
     1.89      27.08      26.88       0.16       1.323     20.
     1.89      33.28      18.61       0.16       1.654     20.
     1.89      38.89      15.2        0.16                 20.
     1.89      44.23       9.808      0.16                 20.
     1.89      49.28       7.169      0.16                 20.
     1.89      55.42       7.289      0.16                 20.
     1.89      61.01       7.297      0.16                 20.
     1.89      66.31       8.96       0.16                 20.
     1.89      71.62      10.29       0.16                 20.
     1.89      77.2       12.29       0.16                 20.
     1.89      81.94      13.51       0.16                 20.
     1.89      86.96      14.62       0.16                 20.
     1.89      92.27      14.85       0.16                 20.
     1.89      96.74      15.29       0.16       0.772     20.
     1.89     102.6       13.76       0.16                 20.
     1.89     107.4       14.43       0.16                 20.
     1.89     112.4       13.22       0.16                 20.
     1.89     117.4       11.58       0.16                 20.
     1.89     122.2       10.7        0.16                 20.
     1.89     126.7       10.49       0.16                 20.
     1.89     131.4        8.399      0.16                 20.
     1.89     135.1        6.751      0.16                 20.
     1.89     141.         6.539      0.16                 20.
     1.89     144.9        5.553      0.16                 20.
     1.89     149.1        4.346      0.16                 20.
     1.89     153.5        3.581      0.16                 20.
     1.89     158.3        3.037      0.16                 20.
     1.89     163.9        2.936      0.16                 20.
     1.89     167.2        1.838      0.16                 20.
     2.088     15.86      62.24       0.15       5.269     20.
     2.088     19.72      61.51       0.15       3.367     20.
     2.088     24.93      45.41       0.15       1.757     20.
     2.088     28.28      36.62       0.15                 20.
     2.088     34.32      25.35       0.15                 20.
     2.088     38.85      17.73       0.15                 20.
     2.088     44.25      11.73       0.15                 20.
     2.088     50.52       7.627      0.15                 20.
     2.088     55.58       5.574      0.15                 20.
     2.088     61.22       5.424      0.15                 20.
     2.088     65.96       6.299      0.15                 20.
     2.088     71.57       7.906      0.15                 20.
     2.088     76.9        8.78       0.15                 20.
     2.088     81.92      11.85       0.15                 20.
     2.088     87.24      13.02       0.15                 20.
     2.088     92.57      14.33       0.15                 20.
     2.088     97.6       15.21       0.15                 20.
     2.088    102.3       15.5        0.15                 20.
     2.088    106.8       15.05       0.15       1.025     20.
     2.088    111.8       15.93       0.15                 20.
     2.088    116.9       15.05       0.15                 20.
     2.088    122.2       15.78       0.15                 20.
     2.088    126.1       13.73       0.15                 20.
     2.088    131.1       12.84       0.15                 20.
     2.088    135.9       13.28       0.15                 20.
     2.088    140.3       12.25       0.15                 20.
     2.088    144.5       11.22       0.15                 20.
     2.088    148.7       10.64       0.15                 20.
     2.088    153.7       10.49       0.15                 20.
     2.088    157.9       10.19       0.15                 20.
     2.088    162.6       10.48       0.15                 20.
     2.088    166.5        9.015      0.15       1.171     20.
ENDDATA            329
ENDSUBENT          347
SUBENT        F0334003   19990409   19990429
BIB                  4          7
REACTION   (5-B-10(D,P)5-B-11,PAR,DA,,,EXP)
ERR-ANALYS (ANG2-ERR) Digitizing error
           (DATA-ERR) From graphic bars and digitizing error
           (ERR-T) Total r.m.s. errors including the absolute
           normalization
STATUS     (CURVE) Fig 4
EN-SEC     (E-LVL,5-B-11)
ENDBIB               7
COMMON               1          3
ANG2-ERR
ADEG
  1.5
ENDCOMMON            3
DATA                 6        832
EN         E-LVL      ANG-CM     DATA-CM    DATA-ERR   ERR-T
MEV        MEV        ADEG       MB/SR      MB/SR      PER-CENT
     1.75       6.76      22.18       4.001      0.3264    15.
     1.75       6.76      25.76       4.486      0.3288    15.
     1.75       6.76      29.79       5.705      0.1632    15.
     1.75       6.76      33.03       5.619      0.1632    15.
     1.75       6.76      39.76       5.854      0.0427    15.
     1.75       6.76      44.4        5.357      0.2423    15.
     1.75       6.76      49.38       5.431      0.0427    15.
     1.75       6.76      54.07       5.016      0.0427    15.
     1.75       6.76      58.56       4.274      0.0427    15.
     1.75       6.76      64.8        3.694      0.0427    15.
     1.75       6.76      69.35       3.033      0.0427    15.
     1.75       6.76      74.14       2.782      0.0427    15.
     1.75       6.76      80.47       2.364      0.0427    15.
     1.75       6.76      83.66       2.196      0.0427    15.
     1.75       6.76      88.6        2.188      0.1632    15.
     1.75       6.76      95.03       1.934      0.2448    15.
     1.75       6.76     100.         2.008      0.1656    15.
     1.75       6.76     105.1        2.246      0.1656    15.
     1.75       6.76     110.1        2.32       0.1632    15.
     1.75       6.76     115.1        2.395      0.1632    15.
     1.75       6.76     119.9        2.306      0.0427    15.
     1.75       6.76     125.1        2.706      0.1632    15.
     1.75       6.76     128.5        2.783      0.1632    15.
     1.75       6.76     135.4        3.426      0.0427    15.
     1.75       6.76     138.8        3.503      0.0427    15.
     1.75       6.76     144.         3.904      0.0427    15.
     1.75       6.76     147.5        4.306      0.0427    15.
     1.75       6.76     154.1        4.378      0.2472    15.
     1.75       6.76     157.3        4.698      0.1656    15.
     1.75       6.76     161.         4.858      0.2448    15.
     1.75       7.3       41.47       0.9411     0.1093    20.
     1.75       7.3       46.61       1.096      0.0784    20.
     1.75       7.3       50.86       0.8453     0.0781    20.
     1.75       7.3       59.13       0.9686     0.0784    20.
     1.75       7.3       64.09       1.046      0.0468    20.
     1.75       7.3       68.75       0.9822     0.0937    20.
     1.75       7.3       75.07       0.9496     0.0621    20.
     1.75       7.3       80.32       1.152      0.0781    20.
     1.75       7.3       85.25       1.213      0.094     20.
     1.75       7.3       90.15       1.259      0.0781    20.
     1.75       7.3       95.05       1.305      0.0784    20.
     1.75       7.3      101.3        1.241      0.0781    20.
     1.75       7.3      105.6        1.366      0.0777    20.
     1.75       7.3      110.9        1.255      0.0628    20.
     1.75       7.3      117.4        1.285      0.0788    20.
     1.75       7.3      120.5        1.237      0.0781    20.
     1.75       7.3      125.3        1.267      0.0628    20.
     1.75       7.3      130.3        1.344      0.0628    20.
     1.75       7.3      134.9        1.25       0.0625    20.
     1.75       7.3      138.5        1.421      0.0621    20.
     1.75       7.3      144.8        1.388      0.0777    20.
     1.75       7.3      150.1        1.59       0.0784    20.
     1.75       7.3      153.6        1.73       0.1249    20.
     1.75       7.3      158.7        1.87       0.0784    20.
     1.75       7.3      163.8        2.025      0.094     20.
     1.75       8.57      29.73       0.5509     0.0557    20.
     1.75       8.57      34.42       0.6225     0.0637    20.
     1.75       8.57      39.08       0.5986     0.0557    20.
     1.75       8.57      43.76       0.6543     0.0557    20.
     1.75       8.57      49.97       0.5826     0.0796    20.
     1.75       8.57      54.65       0.6064     0.0637    20.
     1.75       8.57      59.27       0.4392     0.0478    20.
     1.75       8.57      65.5        0.4471     0.0796    20.
     1.75       8.57      70.17       0.4789     0.0637    20.
     1.75       8.57      74.85       0.5107     0.0557    20.
     1.75       8.57      79.49       0.4152     0.0557    20.
     1.75       8.57      84.17       0.447      0.0557    20.
     1.75       8.57      88.84       0.4549     0.0478    20.
     1.75       8.57      95.08       0.4947     0.0478    20.
     1.75       8.57      99.73       0.4309     0.0557    20.
     1.75       8.57     104.4        0.4627     0.0637    20.
     1.75       8.57     112.2        0.5105     0.0637    20.
     1.75       8.57     116.8        0.4388     0.0717    20.
     1.75       8.57     120.         0.5582     0.0717    20.
     1.75       8.57     123.1        0.6537     0.0557    20.
     1.75       8.57     129.4        0.6139     0.0637    20.
     1.75       8.92      23.69       7.345      0.6445    15.
     1.75       8.92      23.71       7.023      0.4832    15.
     1.75       8.92      28.52       7.828      0.6445    15.
     1.75       8.92      33.3        7.907      0.0762    15.
     1.75       8.92      39.72       8.631      0.3224    15.
     1.75       8.92      44.49       8.55       0.4029    15.
     1.75       8.92      49.23       7.744      0.2416    15.
     1.75       8.92      54.01       7.824      0.1611    15.
     1.75       8.92      60.35       7.179      0.0762    15.
     1.75       8.92      65.08       6.453      0.0762    15.
     1.75       8.92      69.81       5.567      0.3219    15.
     1.75       8.92     125.4        2.901      0.2416    15.
     1.75       8.92     130.2        3.061      0.1611    15.
     1.75       8.92     133.4        3.221      0.2414    15.
     1.75       8.92     139.8        3.301      0.0762    15.
     1.75       8.92     144.6        2.978      0.0762    15.
     1.75       8.92     147.7        3.139      0.0762    15.
     1.75       8.92     154.1        3.218      0.0762    15.
     1.75       8.92     158.9        3.057      0.1613    15.
     1.75       8.92     162.1        3.539      0.2414    15.
     1.75       9.28      33.83      12.09       0.08      20.
     1.75       9.28      39.34       7.649      0.3163    20.
     1.75       9.28      45.46       6.531      0.4773    20.
     1.75       9.28      53.04       4.777      0.4773    20.
     1.75       9.28      76.52       3.468      0.08      20.
     1.75       9.28      82.93       3.931      0.08      20.
     1.75       9.28      87.7        4.08       0.08      20.
     1.75       9.28      94.08       4.385      0.08      20.
     1.75       9.28      98.8        4.218      0.08      20.
     1.75       9.28     103.7        5.158      0.08      20.
     1.75       9.28     108.4        4.833      0.08      20.
     1.75       9.28     113.2        4.983      0.08      20.
     1.75       9.28     117.8        4.183      0.08      20.
     1.75       9.28     122.6        4.807      0.08      20.
     1.75       9.28     127.4        4.799      0.08      20.
     1.75       9.28     130.5        4.793      0.08      20.
     1.75       9.28     136.8        4.623      0.08      20.
     1.75       9.28     140.1        5.408      0.08      20.
     1.75       9.28     144.7        4.608      0.08      20.
     1.75       9.28     147.9        4.919      0.08      20.
     1.75       9.28     152.7        4.91       0.08      20.
     1.75       9.28     155.9        5.221      0.08      20.
     1.75       9.28     162.2        4.893      0.08      20.
     2.         6.76      18.98       2.897      0.3244    15.
     2.         6.76      22.42       4.031      0.2446    15.
     2.         6.76      24.1        4.354      0.4055    15.
     2.         6.76      27.52       5.326      0.2782    15.
     2.         6.76      32.46       5.648      0.2433    15.
     2.         6.76      37.38       5.89       0.2433    15.
     2.         6.76      42.23       5.726      0.2782    15.
     2.         6.76      48.68       5.398      0.2782    15.
     2.         6.76      53.35       4.18       0.2782    15.
     2.         6.76      58.19       3.935      0.2782    15.
     2.         6.76      62.93       3.122      0.2782    15.
     2.         6.76      67.76       2.795      0.2426    15.
     2.         6.76      75.84       2.468      0.0818    15.
     2.         6.76      80.62       1.898      0.2782    15.
     2.         6.76      83.85       1.734      0.2782    15.
     2.         6.76      88.72       1.732      0.2782    15.
     2.         6.76      95.19       1.486      0.2782    15.
     2.         6.76      98.44       1.485      0.2782    15.
     2.         6.76     103.3        1.645      0.2782    15.
     2.         6.76     109.9        1.723      0.2782    15.
     2.         6.76     114.8        1.803      0.2782    15.
     2.         6.76     118.         1.882      0.2782    15.
     2.         6.76     122.9        2.042      0.2782    15.
     2.         6.76     127.9        2.689      0.1622    15.
     2.         6.76     134.4        2.605      0.2782    15.
     2.         6.76     137.8        3.171      0.2782    15.
     2.         6.76     142.6        3.251      0.1622    15.
     2.         6.76     147.7        4.06       0.2433    15.
     2.         6.76     152.6        4.22       0.2782    15.
     2.         6.76     155.9        4.624      0.2782    15.
     2.         6.76     160.9        5.27       0.2433    15.
     2.         7.3       41.03       1.015      0.0104    20.
     2.         7.3       47.26       0.9983     0.0104    20.
     2.         7.3       52.38       1.263      0.0104    20.
     2.         7.3       58.55       1.215      0.0104    20.
     2.         7.3       63.03       1.089      0.0937    20.
     2.         7.3       67.85       1.167      0.0781    20.
     2.         7.3       72.92       1.4        0.0468    20.
     2.         7.3       77.45       1.306      0.0624    20.
     2.         7.3       83.6        1.242      0.0781    20.
     2.         7.3       86.54       1.132      0.0778    20.
     2.         7.3       91.03       1.007      0.0622    20.
     2.         7.3       97.3        1.021      0.0312    20.
     2.         7.3      103.1        0.7393     0.0627    20.
     2.         7.3      107.9        0.8322     0.0781    20.
     2.         7.3      114.         0.7219     0.0471    20.
     2.         7.3      117.1        0.7214     0.0624    20.
     2.         7.3      123.4        0.7516     0.0783    20.
     2.         7.3      126.7        0.8135     0.0627    20.
     2.         7.3      131.         0.5942     0.0624    20.
     2.         7.3      135.9        0.7652     0.0781    20.
     2.         7.3      140.6        0.7644     0.0939    20.
     2.         7.3      147.2        0.9819     0.0783    20.
     2.         7.3      150.3        0.9658     0.0781    20.
     2.         7.3      153.5        0.9965     0.109     20.
     2.         7.3      158.2        0.9957     0.109     20.
     2.         8.57      22.88       0.7505     0.1599    20.
     2.         8.57      24.88       0.4787     0.088     20.
     2.         8.57      29.69       0.4389     0.08      20.
     2.         8.57      34.32       0.5111     0.0799    20.
     2.         8.57      40.4        0.6712     0.0639    20.
     2.         8.57      43.71       0.5754     0.08      20.
     2.         8.57      50.02       0.5836     0.0639    20.
     2.         8.57      54.59       0.6958     0.0719    20.
     2.         8.57      59.61       0.512      0.056     20.
     2.         8.57      65.96       0.4963     0.048     20.
     2.         8.57      70.82       0.4245     0.064     20.
     2.         8.57      78.76       0.4008     0.056     20.
     2.         8.57      83.56       0.361      0.064     20.
     2.         8.57      92.8        0.5214     0.0559    20.
     2.         8.57      96.14       0.4095     0.056     20.
     2.         8.57     100.9        0.3937     0.04      20.
     2.         8.57     104.3        0.2419     0.0399    20.
     2.         8.92      18.66       6.652      0.0671    15.
     2.         8.92      20.31       6.894      0.0671    15.
     2.         8.92      21.97       7.378      0.0671    15.
     2.         8.92      23.62       7.701      0.0671    15.
     2.         8.92      31.82       8.345      0.0671    15.
     2.         8.92      33.47       8.748      0.2421    15.
     2.         8.92      38.36       8.667      0.3229    15.
     2.         8.92      43.25       8.424      0.0671    15.
     2.         8.92      49.74       7.778      0.0671    15.
     2.         8.92      59.45       6.243      0.0671    15.
     2.         8.92      65.93       5.193      0.0671    15.
     2.         8.92      82.16       3.576      0.0671    15.
     2.         8.92     106.6        2.201      0.2421    15.
     2.         8.92     111.5        2.281      0.2421    15.
     2.         8.92     118.         2.118      0.0671    15.
     2.         8.92     121.3        2.118      0.1614    15.
     2.         8.92     126.1        1.794      0.2421    15.
     2.         8.92     131.1        2.117      0.3226    15.
     2.         8.92     137.6        2.196      0.1617    15.
     2.         8.92     140.9        2.357      0.2421    15.
     2.         8.92     149.         1.953      0.2421    15.
     2.         8.92     153.9        2.517      0.2421    15.
     2.         8.92     158.8        2.516      0.0809    15.
     2.         8.92     163.7        2.354      0.1614    15.
     2.         9.19      18.83      34.77       0.2642    20.
     2.         9.19      21.62      28.16       0.2642    20.
     2.         9.19      27.52      18.06       0.2642    20.
     2.         9.19      38.93      11.07       0.2642    20.
     2.         9.19      43.66       6.539      0.2642    20.
     2.         9.19      50.44       5.122      0.2642    20.
     2.         9.19      55.62       5.101      0.2642    20.
     2.         9.19      59.01       4.393      0.2642    20.
     2.         9.19      65.96       4.712      0.2642    20.
     2.         9.19      70.94       2.609      0.2642    20.
     2.         9.19      74.64       5.024      0.2642    20.
     2.         9.19      79.68       3.615      0.2642    20.
     2.         9.19     117.9        5.544      0.2642    20.
     2.         9.19     126.5        5.161      0.2642    20.
     2.         9.19     130.         5.495      0.2642    20.
     2.         9.19     135.1        4.779      0.2642    20.
     2.         9.19     138.7        5.807      0.2642    20.
     2.         9.19     143.9        5.438      0.2642    20.
     2.         9.19     147.3        5.424      0.2642    20.
     2.         9.19     150.8        5.411      0.2642    20.
     2.         9.19     156.1        6.431      0.2642    20.
     2.         9.19     159.5        6.07       0.2642    20.
     2.         9.28      19.66      23.35       0.1457    20.
     2.         9.28      23.6       17.7        0.1457    20.
     2.         9.28      27.19       9.865      0.1457    20.
     2.         9.28      33.94      11.58       0.1457    20.
     2.         9.28      37.7        4.837      0.1457    20.
     2.         9.28      43.9        3.104      0.1457    20.
     2.         9.28      50.37       3.094      0.1457    20.
     2.         9.28      56.54       1.205      0.1457    20.
     2.         9.28      94.05       3.028      0.1457    20.
     2.         9.28      97.44       3.963      0.1457    20.
     2.         9.28     105.4        3.168      0.1457    20.
     2.         9.28     124.9        3.451      0.1457    20.
     2.         9.28     129.8        3.757      0.1457    20.
     2.         9.28     133.1        4.222      0.1457    20.
     2.         9.28     137.9        3.902      0.1457    20.
     2.         9.28     141.3        4.68       0.1457    20.
     2.         9.28     146.         4.203      0.1457    20.
     2.         9.28     150.9        4.509      0.1457    20.
     2.         9.28     155.8        4.814      0.1457    20.
     2.         9.28     159.2        5.749      0.1457    20.
     2.         9.28     165.7        5.896      0.1457    20.
     2.25       6.76      20.64       3.686      0.0612    15.
     2.25       6.76      22.4        3.922      0.0612    15.
     2.25       6.76      22.49       4.081      0.0612    15.
     2.25       6.76      22.9        4.798      0.0612    15.
     2.25       6.76      27.77       4.791      0.0612    15.
     2.25       6.76      31.62       5.821      0.0612    15.
     2.25       6.76      36.63       6.053      0.0612    15.
     2.25       6.76      41.36       5.808      0.0612    15.
     2.25       6.76      46.19       5.721      0.0612    15.
     2.25       6.76      50.6        4.919      0.0612    15.
     2.25       6.76      55.01       4.116      0.0612    15.
     2.25       6.76      59.43       3.314      0.0612    15.
     2.25       6.76      65.79       3.066      0.0612    15.
     2.25       6.76      71.78       2.181      0.0612    15.
     2.25       6.76      76.42       1.777      0.0612    15.
     2.25       6.76      81.25       1.691      0.0612    15.
     2.25       6.76      92.75       1.913      0.2388    15.
     2.25       6.76      97.49       1.668      0.0612    15.
     2.25       6.76     102.4        1.821      0.1592    15.
     2.25       6.76     107.4        1.893      0.0612    15.
     2.25       6.76     112.3        2.046      0.0612    15.
     2.25       6.76     117.3        2.198      0.1592    15.
     2.25       6.76     120.6        2.273      0.1592    15.
     2.25       6.76     125.6        2.426      0.1592    15.
     2.25       6.76     130.7        2.897      0.1614    15.
     2.25       6.76     135.5        2.731      0.2388    15.
     2.25       6.76     140.6        3.201      0.2388    15.
     2.25       6.76     145.5        3.274      0.0796    15.
     2.25       6.76     150.6        3.507      0.1592    15.
     2.25       6.76     153.9        3.741      0.1592    15.
     2.25       6.76     157.4        4.214      0.2388    15.
     2.25       6.76     162.3        4.128      0.1592    15.
     2.25       7.3       43.41       1.084      0.0623    20.
     2.25       7.3       46.53       1.053      0.0619    20.
     2.25       7.3       51.11       0.9581     0.0778    20.
     2.25       7.3       57.67       1.05       0.109     20.
     2.25       7.3       62.62       1.127      0.0467    20.
     2.25       7.3       67.         0.9394     0.0931    20.
     2.25       7.3       73.47       0.9848     0.0778    20.
     2.25       7.3       80.23       1.17       0.0937    20.
     2.25       7.3       86.08       0.92       0.0782    20.
     2.25       7.3       90.85       0.919      0.0782    20.
     2.25       7.3       95.7        0.9492     0.0626    20.
     2.25       7.3       98.59       0.8084     0.0934    20.
     2.25       7.3      105.1        0.885      0.0778    20.
     2.25       7.3      108.3        0.8844     0.0778    20.
     2.25       7.3      114.5        0.7897     0.0778    20.
     2.25       7.3      118.8        0.5708     0.0778    20.
     2.25       7.3      123.8        0.6943     0.0623    20.
     2.25       7.3      130.4        0.7709     0.0623    20.
     2.25       7.3      133.2        0.599      0.0467    20.
     2.25       7.3      136.4        0.6139     0.0623    20.
     2.25       7.3      144.2        0.5345     0.0626    20.
     2.25       7.3      145.9        0.5809     0.0619    20.
     2.25       7.3      153.6        0.4392     0.0623    20.
     2.25       7.3      155.4        0.5323     0.0623    20.
     2.25       7.3      161.7        0.5154     0.0778    20.
     2.25       8.57      25.37       0.7103     0.088     20.
     2.25       8.57      30.         0.5423     0.064     20.
     2.25       8.57      33.06       0.4143     0.056     20.
     2.25       8.57      37.91       0.5181     0.088     20.
     2.25       8.57      44.3        0.582      0.072     20.
     2.25       8.57      48.98       0.4779     0.064     20.
     2.25       8.57      55.37       0.5338     0.064     20.
     2.25       8.57      60.03       0.4137     0.056     20.
     2.25       8.57      63.21       0.4296     0.04      20.
     2.25       8.57      69.6        0.4775     0.0479    20.
     2.25       8.57      72.72       0.4135     0.0399    20.
     2.25       8.57      80.58       0.3253     0.048     20.
     2.25       8.57      85.27       0.2453     0.064     20.
     2.25       8.57      91.68       0.3251     0.056     20.
     2.25       8.57      96.43       0.317      0.048     20.
     2.25       8.92      21.74       8.015      0.0615    15.
     2.25       8.92      23.42       8.502      0.0615    15.
     2.25       8.92      25.1        8.989      0.3256    15.
     2.25       8.92      28.4        9.476      0.0615    15.
     2.25       8.92      31.67       9.638      0.0615    15.
     2.25       8.92      36.59       9.962      0.0615    15.
     2.25       8.92      41.35       8.985      0.0615    15.
     2.25       8.92      46.17       8.496      0.0615    15.
     2.25       8.92      50.95       7.6        0.0615    15.
     2.25       8.92      55.75       6.949      0.3247    15.
     2.25       8.92      63.74       5.646      0.2443    15.
     2.25       8.92      92.71       3.118      0.3251    15.
     2.25       8.92      97.5        2.304      0.1626    15.
     2.25       8.92     107.2        2.138      0.0615    15.
     2.25       8.92     112.1        2.218      0.0615    15.
     2.25       8.92     115.4        2.217      0.0615    15.
     2.25       8.92     121.9        2.459      0.0615    15.
     2.25       8.92     126.8        2.214      0.2438    15.
     2.25       8.92     130.         2.538      0.2438    15.
     2.25       8.92     136.6        2.699      0.0615    15.
     2.25       8.92     141.4        2.698      0.0615    15.
     2.25       8.92     144.6        2.453      0.0615    15.
     2.25       8.92     149.5        2.533      0.0615    15.
     2.25       8.92     152.8        2.938      0.2438    15.
     2.25       8.92     157.8        3.262      0.0615    15.
     2.25       8.92     162.6        3.342      0.2438    15.
     2.25       9.19      17.12      36.04       0.2837    20.
     2.25       9.19      22.07      26.01       0.2837    20.
     2.25       9.19      25.33      18.05       0.2837    20.
     2.25       9.19      35.49       6.974      0.2837    20.
     2.25       9.19      44.23       7.31       0.2837    20.
     2.25       9.19      49.42       5.575      0.2837    20.
     2.25       9.19      56.37       4.184      0.2837    20.
     2.25       9.19      61.62       4.524      0.2837    20.
     2.25       9.19      65.09       3.828      0.2837    20.
     2.25       9.19      73.83       4.164      0.2837    20.
     2.25       9.19     117.5        4.806      0.2837    20.
     2.25       9.19     122.8        4.8        0.2837    20.
     2.25       9.19     128.         4.449      0.2837    20.
     2.25       9.19     133.2        4.789      0.2837    20.
     2.25       9.19     136.7        4.093      0.2837    20.
     2.25       9.19     142.         4.779      0.2837    20.
     2.25       9.19     145.4        4.083      0.2837    20.
     2.25       9.19     150.7        5.115      0.2837    20.
     2.25       9.19     154.2        4.419      0.2837    20.
     2.25       9.19     157.7        5.453      0.2837    20.
     2.25       9.19     162.9        4.755      0.2837    20.
     2.25       9.28      21.67      10.7        0.4819    20.
     2.25       9.28      29.55       9.728      0.1607    20.
     2.25       9.28      35.4        6.184      0.1607    20.
     2.25       9.28      39.67       2.803      0.1607    20.
     2.25       9.28      44.26       1.35       0.1607    20.
     2.25       9.28      87.88       3.047      0.1607    20.
     2.25       9.28      94.33       3.198      0.1607    20.
     2.25       9.28     100.8        3.187      0.1607    20.
     2.25       9.28     113.6        3.167      0.1607    20.
     2.25       9.28     118.5        3.48       0.1607    20.
     2.25       9.28     124.9        3.47       0.1607    20.
     2.25       9.28     129.6        3.141      0.1607    20.
     2.25       9.28     132.9        3.457      0.1607    20.
     2.25       9.28     136.1        3.291      0.1607    20.
     2.25       9.28     142.6        3.763      0.1607    20.
     2.25       9.28     147.3        3.273      0.1607    20.
     2.25       9.28     150.7        4.392      0.1607    20.
     2.25       9.28     155.5        4.224      0.1607    20.
     2.25       9.28     160.4        4.538      0.1607    20.
     2.25       9.28     163.6        4.533      0.1607    20.
     2.5        6.76      23.71       5.328      0.3261    15.
     2.5        6.76      25.66       5.78       0.2612    15.
     2.5        6.76      31.09       6.489      0.0411    15.
     2.5        6.76      33.         6.877      0.1946    15.
     2.5        6.76      39.47       6.611      0.2595    15.
     2.5        6.76      44.15       6.152      0.1946    15.
     2.5        6.76      48.54       5.238      0.193     15.
     2.5        6.76      54.58       4.323      0.0411    15.
     2.5        6.76      58.85       3.215      0.0411    15.
     2.5        6.76      65.06       2.56       0.0411    15.
     2.5        6.76      71.4        2.099      0.0411    15.
     2.5        6.76      76.25       1.9        0.0411    15.
     2.5        6.76      81.05       1.635      0.0411    15.
     2.5        6.76      87.56       1.434      0.0411    15.
     2.5        6.76      92.49       1.364      0.0411    15.
     2.5        6.76      95.98       1.62       0.1281    15.
     2.5        6.76     101.2        2.005      0.0411    15.
     2.5        6.76     107.8        1.933      0.0411    15.
     2.5        6.76     110.9        1.671      0.0411    15.
     2.5        6.76     119.4        1.987      0.0411    15.
     2.5        6.76     122.8        2.113      0.0411    15.
     2.5        6.76     128.         2.368      0.1946    15.
     2.5        6.76     131.4        2.494      0.193     15.
     2.5        6.76     138.         2.423      0.1946    15.
     2.5        6.76     143.2        2.872      0.0411    15.
     2.5        6.76     146.6        2.999      0.0411    15.
     2.5        6.76     151.6        3.059      0.1946    15.
     2.5        6.76     156.6        2.989      0.0411    15.
     2.5        6.76     159.9        2.986      0.0411    15.
     2.5        6.76     165.1        3.305      0.1298    15.
     2.5        7.3       39.33       1.222      0.0785    20.
     2.5        7.3       45.1        1.048      0.0941    20.
     2.5        7.3       49.75       1.047      0.0624    20.
     2.5        7.3       53.9        0.843      0.0781    20.
     2.5        7.3       58.65       0.8887     0.0941    20.
     2.5        7.3       65.         0.9496     0.0781    20.
     2.5        7.3       69.95       1.073      0.0068    20.
     2.5        7.3       77.65       1.056      0.0068    20.
     2.5        7.3       82.22       1.023      0.0068    20.
     2.5        7.3       91.21       0.8962     0.0068    20.
     2.5        7.3       95.93       0.9263     0.0785    20.
     2.5        7.3      100.3        0.8158     0.0068    20.
     2.5        7.3      101.9        0.8155     0.1093    20.
     2.5        7.3      106.3        0.7206     0.0944    20.
     2.5        7.3      110.7        0.6414     0.0468    20.
     2.5        7.3      115.2        0.5622     0.0624    20.
     2.5        7.3      120.2        0.7016     0.0624    20.
     2.5        7.3      124.7        0.6692     0.0624    20.
     2.5        7.3      129.5        0.7305     0.0628    20.
     2.5        7.3      135.3        0.5572     0.0624    20.
     2.5        7.3      138.4        0.572      0.0624    20.
     2.5        7.3      144.7        0.5861     0.0941    20.
     2.5        7.3      147.9        0.6478     0.0781    20.
     2.5        7.3      152.5        0.631      0.0624    20.
     2.5        7.3      155.6        0.6146     0.0777    20.
     2.5        7.3      161.8        0.6131     0.0781    20.
     2.5        8.92      19.75       8.161      0.0529    15.
     2.5        8.92      23.17       8.973      0.0529    15.
     2.5        8.92      25.         9.867      0.4892    15.
     2.5        8.92      31.55      10.27       0.4892    15.
     2.5        8.92      34.59       9.535      0.4078    15.
     2.5        8.92      37.91       9.94       0.0529    15.
     2.5        8.92      48.76       8.143      0.0529    15.
     2.5        8.92      87.78       2.83       0.1627    15.
     2.5        8.92      94.07       2.175      0.2461    15.
     2.5        8.92      97.32       2.254      0.1627    15.
     2.5        8.92     102.1        1.844      0.1627    15.
     2.5        8.92     105.3        2.005      0.1617    15.
     2.5        8.92     110.2        2.002      0.2441    15.
     2.5        8.92     116.6        2.161      0.3265    15.
     2.5        8.92     121.5        2.321      0.2441    15.
     2.5        8.92     124.7        2.319      0.2441    15.
     2.5        8.92     131.2        2.477      0.0529    15.
     2.5        8.92     136.1        2.556      0.0529    15.
     2.5        8.92     142.6        2.796      0.1637    15.
     2.5        8.92     144.2        2.958      0.1627    15.
     2.5        8.92     147.5        3.037      0.0529    15.
     2.5        8.92     152.4        3.278      0.3255    15.
     2.5        8.92     155.7        3.602      0.0529    15.
     2.5        8.92     162.2        4.004      0.2451    15.
     2.5        9.19      16.06      39.17       0.157     20.
     2.5        9.19      19.19      34.97       0.157     20.
     2.5        9.19      26.21      16.8        0.157     20.
     2.5        9.19      31.33      14.34       0.157     20.
     2.5        9.19      36.26      10.14       0.157     20.
     2.5        9.19      43.05       6.619      0.157     20.
     2.5        9.19      48.32       5.551      0.157     20.
     2.5        9.19      53.58       4.483      0.157     20.
     2.5        9.19      60.72       4.106      0.157     20.
     2.5        9.19      65.99       3.038      0.157     20.
     2.5        9.19      93.07       4.672      0.157     20.
     2.5        9.19      96.58       3.96       0.157     20.
     2.5        9.19     100.2        3.945      0.157     20.
     2.5        9.19     109.3        5.303      0.157     20.
     2.5        9.19     114.5        3.887      0.157     20.
     2.5        9.19     119.9        3.865      0.157     20.
     2.5        9.19     123.5        4.199      0.157     20.
     2.5        9.19     127.1        3.836      0.157     20.
     2.5        9.19     130.6        3.821      0.157     20.
     2.5        9.19     136.1        4.497      0.157     20.
     2.5        9.19     141.5        4.823      0.157     20.
     2.5        9.19     146.9        4.801      0.157     20.
     2.5        9.19     150.6        5.484      0.157     20.
     2.5        9.19     155.9        5.462      0.157     20.
     2.5        9.19     157.8        6.501      0.157     20.
     2.5        9.19     161.5        6.835      0.157     20.
     2.5        9.28      18.75      28.71       0.2343    20.
     2.5        9.28      30.46       8.769      0.2343    20.
     2.5        9.28      33.39       4.021      0.2343    20.
     2.5        9.28      39.66       2.745      0.2343    20.
     2.5        9.28      88.71       3.6        0.2343    20.
     2.5        9.28      95.02       3.272      0.2343    20.
     2.5        9.28      98.17       2.95       0.2343    20.
     2.5        9.28     104.5        3.57       0.2343    20.
     2.5        9.28     110.8        3.242      0.2343    20.
     2.5        9.28     114.         2.92       0.2343    20.
     2.5        9.28     118.8        3.543      0.2343    20.
     2.5        9.28     121.9        2.905      0.2343    20.
     2.5        9.28     129.8        3.522      0.2343    20.
     2.5        9.28     133.         3.2        0.2343    20.
     2.5        9.28     136.1        3.194      0.2343    20.
     2.5        9.28     140.9        3.817      0.2343    20.
     2.5        9.28     145.6        3.492      0.2343    20.
     2.5        9.28     152.         4.428      0.2343    20.
     2.5        9.28     156.7        4.419      0.2343    20.
     2.5        9.28     161.5        4.726      0.2343    20.
     2.5        9.28     164.7        5.036      0.2343    20.
     2.75       6.76      17.16       4.61       0.5658    15.
     2.75       6.76      18.72       4.367      0.0394    15.
     2.75       6.76      22.55       5.893      0.0394    15.
     2.75       6.76      24.51       6.776      0.4825    15.
     2.75       6.76      28.09       7.577      0.2413    15.
     2.75       6.76      31.24       7.173      0.2413    15.
     2.75       6.76      37.79       7.087      0.2413    15.
     2.75       6.76      42.29       5.876      0.0394    15.
     2.75       6.76      50.2        4.984      0.0394    15.
     2.75       6.76      54.76       3.935      0.0394    15.
     2.75       6.76      57.74       3.047      0.0394    15.
     2.75       6.76      64.12       2.479      0.0394    15.
     2.75       6.76      70.44       1.749      0.0394    15.
     2.75       6.76      75.34       1.664      0.0394    15.
     2.75       6.76      80.25       1.58       0.0394    15.
     2.75       6.76      85.16       1.495      0.0394    15.
     2.75       6.76      90.09       1.491      0.0394    15.
     2.75       6.76      95.11       1.728      0.0394    15.
     2.75       6.76     101.8        1.883      0.0394    15.
     2.75       6.76     108.2        1.637      0.0394    15.
     2.75       6.76     111.7        2.036      0.0394    15.
     2.75       6.76     116.5        1.71       0.0394    15.
     2.75       6.76     121.6        2.108      0.0394    15.
     2.75       6.76     126.4        1.862      0.0394    15.
     2.75       6.76     129.9        2.262      0.0394    15.
     2.75       6.76     138.1        2.335      0.0804    15.
     2.75       6.76     143.1        2.331      0.1608    15.
     2.75       7.3       37.83       1.137      0.1405    20.
     2.75       7.3       41.72       1.464      0.0778    20.
     2.75       7.3       48.86       1.213      0.1089    20.
     2.75       7.3       52.68       0.869      0.0934    20.
     2.75       7.3       58.99       0.9142     0.0626    20.
     2.75       7.3       62.42       1.054      0.0778    20.
     2.75       7.3       68.47       0.9898     0.0774    20.
     2.75       7.3       74.32       0.8482     0.1093    20.
     2.75       7.3       79.12       0.9093     0.0934    20.
     2.75       7.3       83.77       0.9082     0.0938    20.
     2.75       7.3       88.41       0.907      0.0778    20.
     2.75       7.3       94.98       1.061      0.0626    20.
     2.75       7.3      100.5        0.7639     0.0778    20.
     2.75       7.3      103.7        0.8254     0.0623    20.
     2.75       7.3      109.9        0.8239     0.0626    20.
     2.75       7.3      114.1        0.6516     0.1089    20.
     2.75       7.3      118.7        0.6037     0.0623    20.
     2.75       7.3      125.1        0.6956     0.0934    20.
     2.75       7.3      128.3        0.726      0.0782    20.
     2.75       7.3      137.6        0.7548     0.0934    20.
     2.75       7.3      142.4        0.8004     0.0626    20.
     2.75       7.3      147.         0.7993     0.0619    20.
     2.75       7.3      150.1        0.7985     0.0778    20.
     2.75       7.3      155.1        0.9219     0.1245    20.
     2.75       7.3      159.7        0.9052     0.0774    20.
     2.75       8.92      18.04       8.848      1.116     15.
     2.75       8.92      19.51       8.449      0.3184    15.
     2.75       8.92      22.7        8.446      0.3197    15.
     2.75       8.92      26.47      10.11       0.4789    15.
     2.75       8.92      29.98      11.07       0.4776    15.
     2.75       8.92      36.19      10.51       0.398     15.
     2.75       8.92      40.86      10.1        0.0495    15.
     2.75       8.92      45.25       8.905      0.0495    15.
     2.75       8.92      49.62       7.627      0.0495    15.
     2.75       8.92      53.91       6.111      0.0495    15.
     2.75       8.92      82.87       1.867      0.2388    15.
     2.75       8.92      87.67       1.863      0.2388    15.
     2.75       8.92      92.52       2.018      0.1592    15.
     2.75       8.92      97.13       1.457      0.0495    15.
     2.75       8.92     101.9        1.453      0.2388    15.
     2.75       8.92     106.7        1.369      0.2388    15.
     2.75       8.92     111.5        1.365      0.0495    15.
     2.75       8.92     116.3        1.521      0.0495    15.
     2.75       8.92     121.2        1.755      0.0495    15.
     2.75       8.92     126.1        1.911      0.0495    15.
     2.75       8.92     131.         2.225      0.0495    15.
     2.75       8.92     140.7        2.695      0.1592    15.
     2.75       8.92     142.4        2.773      0.2375    15.
     2.75       8.92     147.2        2.928      0.2388    15.
     2.75       8.92     153.7        3.161      0.1605    15.
     2.75       8.92     157.         3.636      0.0495    15.
     2.75       9.19      17.14      45.35       0.1556    20.
     2.75       9.19      22.99      33.78       0.1556    20.
     2.75       9.19      33.84      19.38       0.1556    20.
     2.75       9.19      39.83       9.209      0.1556    20.
     2.75       9.19      46.62       6.731      0.1556    20.
     2.75       9.19      51.76       5.31       0.1556    20.
     2.75       9.19      56.86       3.54       0.1556    20.
     2.75       9.19      67.63       5.596      0.1556    20.
     2.75       9.19      73.02       6.624      0.1556    20.
     2.75       9.19      79.95       5.546      0.1556    20.
     2.75       9.19      85.19       5.175      0.1556    20.
     2.75       9.19      90.47       5.153      0.1556    20.
     2.75       9.19      92.13       4.096      0.1556    20.
     2.75       9.19      99.17       4.068      0.1556    20.
     2.75       9.19     102.6        3.004      0.1556    20.
     2.75       9.19     109.6        2.626      0.1556    20.
     2.75       9.19     113.1        2.261      0.1556    20.
     2.75       9.19     118.4        2.59       0.1556    20.
     2.75       9.19     123.7        3.268      0.1556    20.
     2.75       9.19     129.         2.897      0.1556    20.
     2.75       9.19     132.6        3.582      0.1556    20.
     2.75       9.19     141.4        4.246      0.1556    20.
     2.75       9.19     146.7        3.875      0.1556    20.
     2.75       9.19     150.3        4.91       0.1556    20.
     2.75       9.19     155.6        4.889      0.1556    20.
     2.75       9.19     159.2        5.924      0.1556    20.
     2.75       9.19     164.5        5.902      0.1556    20.
     2.75       9.28      17.59      24.3        0.1111    20.
     2.75       9.28      18.17      18.34       0.1111    20.
     2.75       9.28      21.99      12.54       0.1111    20.
     2.75       9.28      26.17       8.934      0.1111    20.
     2.75       9.28      33.87       7.199      0.1111    20.
     2.75       9.28      78.1        3.838      0.1111    20.
     2.75       9.28      84.39       3.201      0.1111    20.
     2.75       9.28      87.53       2.882      0.1111    20.
     2.75       9.28      93.99       3.185      0.1111    20.
     2.75       9.28      98.73       2.864      0.1111    20.
     2.75       9.28     103.4        2.23       0.1111    20.
     2.75       9.28     108.2        2.066      0.1111    20.
     2.75       9.28     113.         2.214      0.1111    20.
     2.75       9.28     119.3        1.734      0.1111    20.
     2.75       9.28     124.2        2.039      0.1111    20.
     2.75       9.28     127.4        2.347      0.1111    20.
     2.75       9.28     132.3        2.809      0.1111    20.
     2.75       9.28     141.9        2.95       0.1111    20.
     2.75       9.28     146.7        2.942      0.1111    20.
     2.75       9.28     150.1        3.72       0.1111    20.
     2.75       9.28     154.9        3.556      0.1111    20.
     2.75       9.28     159.8        4.487      0.1111    20.
     2.75       9.28     164.6        4.323      0.1111    20.
     3.         6.76      23.22       7.343      0.0772    15.
     3.         6.76      30.46       8.466      0.0772    15.
     3.         6.76      49.35       4.551      0.0772    15.
     3.         6.76      55.06       3.165      0.0772    15.
     3.         6.76      61.21       2.508      0.0772    15.
     3.         6.76      66.06       2.42       0.0772    15.
     3.         6.76      70.82       2.17       0.0772    15.
     3.         6.76      75.54       1.839      0.0772    15.
     3.         6.76      82.03       1.748      0.0772    15.
     3.         6.76      86.84       1.579      0.0772    15.
     3.         6.76      93.39       1.569      0.1618    15.
     3.         6.76      96.76       1.726      0.2427    15.
     3.         6.76     103.3        1.717      0.0772    15.
     3.         6.76     108.1        1.467      0.2427    15.
     3.         6.76     111.4        1.543      0.2427    15.
     3.         6.76     116.4        1.778      0.1618    15.
     3.         6.76     121.6        2.175      0.0834    15.
     3.         6.76     126.2        1.682      0.2427    15.
     3.         6.76     129.7        2.001      0.1618    15.
     3.         6.76     136.2        1.991      0.2427    15.
     3.         7.3       53.02       0.9545     0.0781    20.
     3.         7.3       56.18       0.9692     0.0785    20.
     3.         7.3       60.95       0.9991     0.0776    20.
     3.         7.3       66.53       0.7631     0.0776    20.
     3.         7.3       71.13       0.7306     0.0781    20.
     3.         7.3       77.41       0.7444     0.0625    20.
     3.         7.3       83.21       0.5865     0.0937    20.
     3.         7.3       88.29       0.7257     0.0781    20.
     3.         7.3       92.61       0.5995     0.0625    20.
     3.         7.3       97.56       0.6919     0.0937    20.
     3.         7.3      102.2        0.6905     0.0625    20.
     3.         7.3      106.3        0.4862     0.0937    20.
     3.         7.3      111.3        0.5786     0.0937    20.
     3.         7.3      116.2        0.6397     0.0625    20.
     3.         7.3      119.3        0.6389     0.0932    20.
     3.         7.3      127.5        0.7928     0.0785    20.
     3.         7.3      130.5        0.7607     0.0937    20.
     3.         7.3      135.5        0.8531     0.0941    20.
     3.         7.3      141.4        0.742      0.0781    20.
     3.         7.3      145.4        1.038      0.0785    20.
     3.         7.3      149.6        0.8647     0.0932    20.
     3.         7.3      154.4        0.9103     0.0785    20.
     3.         7.3      157.4        0.8938     0.1098    20.
     3.         7.3      160.8        0.9866     0.0941    20.
     3.         7.99      20.52       0.6022     0.0871    20.
     3.         7.99      22.13       0.5309     0.0792    20.
     3.         7.99      26.96       0.3963     0.0475    20.
     3.         7.99      30.08       0.6022     0.0633    20.
     3.         7.99      31.73       0.436      0.0633    20.
     3.         7.99      33.29       0.5152     0.0792    20.
     3.         7.99      34.92       0.4202     0.1584    20.
     3.         7.99      36.51       0.4281     0.0713    20.
     3.         7.99      42.82       0.6261     0.0713    20.
     3.         7.99      47.63       0.5232     0.0633    20.
     3.         7.99      53.99       0.5549     0.0554    20.
     3.         7.99      58.78       0.5312     0.0792    20.
     3.         7.99      65.16       0.5313     0.0633    20.
     3.         7.99      85.92       0.3968     0.0712    20.
     3.         7.99      89.12       0.3652     0.0792    20.
     3.         7.99      93.93       0.2702     0.0554    20.
     3.         7.99     100.3        0.3257     0.0633    20.
     3.         7.99     105.         0.3891     0.0554    20.
     3.         7.99     109.8        0.4208     0.0475    20.
     3.         7.99     114.6        0.3812     0.0475    20.
     3.         7.99     119.4        0.4446     0.0475    20.
     3.         7.99     124.2        0.3655     0.0633    20.
     3.         7.99     128.9        0.5318     0.0475    20.
     3.         7.99     132.1        0.4923     0.0634    20.
     3.         7.99     140.         0.6586     0.0792    20.
     3.         7.99     143.2        0.6982     0.0554    20.
     3.         7.99     146.4        0.6507     0.0792    20.
     3.         7.99     151.1        0.6983     0.0633    20.
     3.         7.99     157.6        0.6113     0.0713    20.
     3.         7.99     160.6        0.8568     0.0713    20.
     3.         8.57      18.98       0.8498     0.1273    20.
     3.         8.57      20.5        0.595      0.1274    20.
     3.         8.57      28.56       1.041      0.207     20.
     3.         8.57      30.07       0.7539     0.0955    20.
     3.         8.57      33.22       0.6742     0.0796    20.
     3.         8.57      34.78       0.5946     0.0192    20.
     3.         8.57      36.38       0.6264     0.0192    20.
     3.         8.57      39.56       0.6581     0.0192    20.
     3.         8.57      46.01       1.024      0.1274    20.
     3.         8.57      49.1        0.7215     0.0956    20.
     3.         8.57      53.89       0.8169     0.0955    20.
     3.         8.57      60.2        0.6894     0.0796    20.
     3.         8.57      66.61       0.8803     0.0956    20.
     3.         8.57      69.78       0.8802     0.1115    20.
     3.         8.57      74.49       0.7049     0.0636    20.
     3.         8.57      79.28       0.8003     0.0636    20.
     3.         8.57      85.59       0.6727     0.0636    20.
     3.         8.57      96.7        0.6565     0.0796    20.
     3.         8.57     131.6        0.7351     0.0637    20.
     3.         8.57     134.8        0.7828     0.0637    20.
     3.         8.57     139.6        0.9259     0.0796    20.
     3.         8.57     144.4        1.165      0.0956    20.
     3.         8.57     146.1        1.34       0.1115    20.
     3.         8.57     152.5        1.483      0.0956    20.
     3.         8.57     157.3        1.769      0.1115    20.
     3.         8.57     163.7        1.928      0.1115    20.
     3.         8.92      16.44       7.645      0.0853    15.
     3.         8.92      20.43       8.834      0.0853    15.
     3.         8.92      24.09       9.466      0.0853    15.
     3.         8.92      26.06      10.02       0.0853    15.
     3.         8.92      32.91      10.49       0.0853    15.
     3.         8.92      38.5       10.16       0.0853    15.
     3.         8.92      39.29       8.809      0.2364    15.
     3.         8.92      44.56       7.925      0.0853    15.
     3.         8.92      50.05       6.086      0.2364    15.
     3.         8.92      81.75       1.265      0.2364    15.
     3.         8.92      93.21       1.169      0.0853    15.
     3.         8.92      96.4        1.006      0.0853    15.
     3.         8.92      96.54       1.244      0.0853    15.
     3.         8.92     101.4        1.079      0.0853    15.
     3.         8.92     107.9        0.9899     0.0853    15.
     3.         8.92     112.9        1.142      0.0853    15.
     3.         8.92     116.4        1.456      0.0853    15.
     3.         8.92     123.1        1.606      0.0853    15.
     3.         8.92     126.4        1.681      0.0853    15.
     3.         8.92     131.4        1.833      0.0853    15.
     3.         8.92     136.4        1.986      0.0853    15.
     3.         8.92     141.5        2.138      0.0853    15.
     3.         8.92     146.6        2.45       0.1614    15.
     3.         8.92     149.8        2.365      0.0853    15.
     3.         8.92     155.         2.836      0.0853    15.
     3.         8.92     160.1        3.068      0.0853    15.
     3.         8.92     163.7        3.541      0.2387    15.
     3.         9.19      17.93      38.91       0.2609    20.
     3.         9.19      23.29      40.3        0.2609    20.
     3.         9.19      25.17      28.94       0.2609    20.
     3.         9.19      29.44      22.53       0.2609    20.
     3.         9.19      35.74      18.24       0.2609    20.
     3.         9.19      40.07      12.18       0.2609    20.
     3.         9.19      46.51       8.955      0.2609    20.
     3.         9.19      51.23       5.735      0.2609    20.
     3.         9.19      56.25       4.642      0.2609    20.
     3.         9.19      63.08       4.247      0.2609    20.
     3.         9.19      73.61       5.604      0.2609    20.
     3.         9.19      78.77       5.573      0.2609    20.
     3.         9.19      82.06       4.49       0.2609    20.
     3.         9.19      87.23       4.46       0.2609    20.
     3.         9.19      94.16       4.774      0.2609    20.
     3.         9.19      99.22       4.035      0.2609    20.
     3.         9.19     102.6        3.306      0.2609    20.
     3.         9.19     109.4        2.911      0.2609    20.
     3.         9.19     112.8        2.536      0.2609    20.
     3.         9.19     116.3        2.871      0.2609    20.
     3.         9.19     121.5        3.195      0.2609    20.
     3.         9.19     126.6        2.455      0.2609    20.
     3.         9.19     131.8        3.134      0.2609    20.
     3.         9.19     136.9        2.749      0.2609    20.
     3.         9.19     140.5        3.438      0.2609    20.
     3.         9.19     145.7        3.762      0.2609    20.
     3.         9.19     150.9        3.731      0.2609    20.
     3.         9.19     154.4        4.066      0.2609    20.
     3.         9.19     157.8        4.4        0.2609    20.
     3.         9.19     163.1        5.078      0.2609    20.
     3.         9.28      18.73      17.48       0.95      20.
     3.         9.28      21.9       17.31       0.1011    20.
     3.         9.28      24.53      14.93       0.1011    20.
     3.         9.28      30.41      12.69       0.1011    20.
     3.         9.28      85.83       2.898      0.1011    20.
     3.         9.28      89.         2.732      0.1011    20.
     3.         9.28      95.31       2.242      0.1011    20.
     3.         9.28     100.1        2.23       0.1011    20.
     3.         9.28     104.9        2.061      0.1011    20.
     3.         9.28     108.         1.737      0.1011    20.
     3.         9.28     112.8        1.725      0.1011    20.
     3.         9.28     119.4        2.185      0.1011    20.
     3.         9.28     124.1        1.857      0.1011    20.
     3.         9.28     130.6        2.158      0.1011    20.
     3.         9.28     133.9        2.625      0.1011    20.
     3.         9.28     137.1        2.301      0.1011    20.
     3.         9.28     143.5        2.444      0.1011    20.
     3.         9.28     148.5        3.066      0.1011    20.
     3.         9.28     153.3        3.055      0.1011    20.
     3.         9.28     155.1        3.684      0.1011    20.
     3.         9.28     161.6        3.827      0.1011    20.
     3.         9.28     166.5        4.291      0.1011    20.
ENDDATA            834
ENDSUBENT          850
SUBENT        F0334004   19990409   19990429
BIB                  4          8
REACTION   (5-B-10(D,P)5-B-11,PAR,DA,,,EXP)
ERR-ANALYS (EN-ERR1) Digitizing error
           (DATA-ERR) Digitizing error
           (DATA-ERR1) Error from graphic bars
           (ERR-T) Total r.m.s. errors including the absolute
           normalization
STATUS     (CURVE) Fig 10
EN-SEC     (E-LVL,5-B-11)
ENDBIB               8
COMMON               2          3
ANG        EN-ERR1
ADEG       MEV
   90.      0.004
ENDCOMMON            3
DATA                 6        431
EN         E-LVL      DATA       DATA-ERR   DATA-ERR1  ERR-T
MEV        MEV        MB/SR      MB/SR      MB/SR      PER-CENT
     1.425      6.76       1.91   0.6000E-02     0.0793    15.
     1.425      8.57       0.3686 0.3000E-02     0.0315    20.
     1.427      7.3        1.038  0.6000E-02     0.0852    20.
     1.427      7.99       0.4258 0.3000E-02     0.0313    20.
     1.444      7.3        1.043  0.6000E-02     0.0909    20.
     1.444      7.99       0.3717 0.3000E-02     0.0426    20.
     1.444      8.57       0.2912 0.3000E-02     0.0344    20.
     1.448      6.76       1.793  0.6000E-02     0.0881    15.
     1.464      8.57       0.3599 0.3000E-02     0.0373    20.
     1.467      7.99       0.3744 0.3000E-02     0.0597    20.
     1.47       6.76       1.842  0.6000E-02     0.0736    15.
     1.47       7.3        0.958  0.6000E-02     0.0795    20.
     1.482      8.57       0.3685 0.3000E-02     0.0458    20.
     1.487      6.76       1.989  0.6000E-02     0.0963    15.
     1.488      7.3        1.27   0.6000E-02     0.0739    20.
     1.489      7.99       0.4425 0.3000E-02     0.0455    20.
     1.501      8.57       0.3484 0.3000E-02     0.0458    20.
     1.504      6.76       1.887  0.6000E-02     0.0963    15.
     1.507      7.99       0.377  0.3000E-02     0.0455    20.
     1.508      7.3        1.185  0.6000E-02     0.0682    20.
     1.524      8.57       0.377  0.3000E-02     0.0401    20.
     1.526      6.76       1.972  0.6000E-02     0.0963    15.
     1.527      7.99       0.3428 0.3000E-02     0.0426    20.
     1.528      7.3        1.1    0.6000E-02     0.0739    20.
     1.544      8.57       0.4056 0.3000E-02     0.0487    20.
     1.545      7.99       0.2716 0.3000E-02     0.037     20.
     1.546      6.76       1.858  0.6000E-02     0.0963    15.
     1.548      7.3        1.134  0.6000E-02     0.0682    20.
     1.564      7.99       0.2772 0.3000E-02     0.0483    20.
     1.564      8.57       0.3024 0.3000E-02     0.0401    20.
     1.566      6.76       1.972  0.6000E-02     0.0793    15.
     1.567      7.3        1.197  0.6000E-02     0.0795    20.
     1.586      6.76       1.983  0.6000E-02     0.0906    15.
     1.586      7.3        1.373  0.6000E-02     0.0852    20.
     1.587      8.57       0.3826 0.3000E-02     0.043     20.
     1.59       7.99       0.3197 0.3000E-02     0.0426    20.
     1.604      8.57       0.4055 0.3000E-02     0.043     20.
     1.606      6.76       1.83   0.6000E-02     0.0793    15.
     1.607      7.99       0.3366 0.3000E-02     0.0483    20.
     1.608      7.3        1.356  0.6000E-02     0.0852    20.
     1.625      6.76       1.887  0.6000E-02     0.0849    15.
     1.626      8.57       0.2421 0.3000E-02     0.0344    20.
     1.628      6.76       1.977  0.6000E-02     0.0963    15.
     1.63       7.3        1.077  0.6000E-02     0.0682    20.
     1.631      7.3        1.327  0.6000E-02     0.0739    20.
     1.644      8.57       0.3338 0.3000E-02     0.0401    20.
     1.645      6.76       1.972  0.6000E-02     0.1132    15.
     1.647      7.3        1.464  0.6000E-02     0.0739    20.
     1.648      6.76       1.773  0.6000E-02     0.0793    15.
     1.648      7.3        1.236  0.6000E-02     0.0739    20.
     1.664      8.57       0.371  0.3000E-02     0.0458    20.
     1.665      7.3        1.197  0.6000E-02     0.0682    20.
     1.668      6.76       1.892  0.6000E-02     0.0793    15.
     1.686      8.57       0.3509 0.3000E-02     0.043     20.
     1.687      6.76       1.988  0.6000E-02     0.0849    15.
     1.69       7.3        1.322  0.6000E-02     0.0739    20.
     1.704      6.76       1.773  0.6000E-02     0.0793    15.
     1.704      8.57       0.348  0.3000E-02     0.043     20.
     1.709      7.3        1.026  0.6000E-02     0.0852    20.
     1.719      6.76       1.711  0.6000E-02     0.0793    15.
     1.727      8.57       0.3737 0.3000E-02     0.043     20.
     1.734      7.3        1.077  0.6000E-02     0.0739    20.
     1.744      6.76       1.756  0.6000E-02     0.0849    15.
     1.744      8.57       0.4539 0.3000E-02     0.0458    20.
     1.752      7.3        1.288  0.6000E-02     0.0739    20.
     1.761      6.76       1.683  0.6000E-02     0.0793    15.
     1.764      8.57       0.4138 0.3000E-02     0.0401    20.
     1.768      7.3        0.9977 0.6000E-02     0.0625    20.
     1.781      9.28       3.869  0.1000E-01     0.1058    20.
     1.784      8.57       0.4137 0.3000E-02     0.0458    20.
     1.785      7.3        1.043  0.6000E-02     0.0568    20.
     1.786      6.76       1.898  0.6000E-02     0.0793    15.
     1.803      6.76       1.898  0.6000E-02     0.0906    15.
     1.804      8.57       0.4681 0.3000E-02     0.0401    20.
     1.806      9.28       3.806  0.1000E-01     0.1058    20.
     1.807      7.3        1.038  0.6000E-02     0.0682    20.
     1.823      9.28       3.51   0.1000E-01     0.1058    20.
     1.824      8.57       0.4165 0.3000E-02     0.0573    20.
     1.826      6.76       1.807  0.6000E-02     0.0849    15.
     1.826      7.3        1.14   0.6000E-02     0.0682    20.
     1.843      8.57       0.4222 0.3000E-02     0.0458    20.
     1.845      6.76       1.886  0.6000E-02     0.0793    15.
     1.845      7.3        1.208  0.6000E-02     0.0739    20.
     1.845      9.28       3.563  0.1000E-01     0.1058    20.
     1.863      8.57       0.3849 0.3000E-02     0.0401    20.
     1.864      9.28       3.701  0.1000E-01     0.1164    20.
     1.865      6.76       1.864  0.6000E-02     0.0849    15.
     1.87       7.3        1.231  0.6000E-02     0.0625    20.
     1.877      8.57       0.382  0.3000E-02     0.0459    20.
     1.883      9.28       3.691  0.1000E-01     0.1164    20.
     1.884      6.76       1.931  0.6000E-02     0.0849    15.
     1.885      7.3        1.111  0.6000E-02     0.0568    20.
     1.903      8.57       0.4221 0.3000E-02     0.0458    20.
     1.905      6.76       1.801  0.6000E-02     0.0906    15.
     1.905      7.3        1.106  0.6000E-02     0.0739    20.
     1.905      9.28       3.871  0.1000E-01     0.1058    20.
     1.923      8.57       0.4163 0.3000E-02     0.0487    20.
     1.924      7.3        1.248  0.6000E-02     0.0795    20.
     1.924      9.28       3.607  0.1000E-01     0.1164    20.
     1.927      6.76       1.801  0.6000E-02     0.0963    15.
     1.943      9.28       3.945  0.1000E-01     0.1058    20.
     1.944      7.3        1.111  0.6000E-02     0.0625    20.
     1.946      8.57       0.3675 0.3000E-02     0.0516    20.
     1.947      6.76       1.756  0.6000E-02     0.0849    15.
     1.953      7.3        1.106  0.6000E-02     0.0682    20.
     1.962      9.28       3.85   0.1000E-01     0.0952    20.
     1.964      6.76       1.597  0.6000E-02     0.0849    15.
     1.964      7.3        1.1    0.6000E-02     0.0625    20.
     1.966      8.57       0.3876 0.3000E-02     0.0401    20.
     1.978      9.28       3.734  0.1000E-01     0.1058    20.
     1.982      8.57       0.313  0.3000E-02     0.0401    20.
     1.986      6.76       1.858  0.6000E-02     0.0793    15.
     1.989      7.3        1.174  0.6000E-02     0.0625    20.
     2.         9.28       3.84   0.1000E-01     0.1164    20.
     2.003      6.76       1.739  0.6000E-02     0.0793    15.
     2.006      8.57       0.3645 0.3000E-02     0.0516    20.
     2.008      7.3        1.288  0.6000E-02     0.0682    20.
     2.019      9.28       3.989  0.1000E-01     0.1059    20.
     2.026      8.57       0.5536 0.3000E-02     0.0573    20.
     2.029      7.3        1.157  0.6000E-02     0.0682    20.
     2.031      6.76       1.824  0.6000E-02     0.0906    15.
     2.039      9.28       3.936  0.1000E-01     0.1164    20.
     2.046      6.76       1.631  0.6000E-02     0.0793    15.
     2.048      7.3        1.151  0.6000E-02     0.0568    20.
     2.048      8.57       0.3788 0.3000E-02     0.043     20.
     2.065      8.57       0.3329 0.3000E-02     0.043     20.
     2.066      6.76       1.535  0.6000E-02     0.0849    15.
     2.068      7.3        1.225  0.6000E-02     0.0739    20.
     2.084      7.3        1.219  0.6000E-02     0.0739    20.
     2.086      8.57       0.4475 0.3000E-02     0.043     20.
     2.087      6.76       1.926  0.6000E-02     0.0849    15.
     2.087      8.92       3.312  0.6000E-02     0.1102    20.
     2.096      9.28       3.651  0.1000E-01     0.1164    20.
     2.105      6.76       1.682  0.6000E-02     0.0849    15.
     2.106      8.57       0.5105 0.3000E-02     0.0487    20.
     2.108      8.92       3.257  0.6000E-02     0.1102    20.
     2.11       7.3        1.208  0.6000E-02     0.0682    20.
     2.118      9.28       3.704  0.1000E-01     0.127     20.
     2.124      6.76       1.875  0.6000E-02     0.0679    15.
     2.124      7.3        1.191  0.6000E-02     0.0739    20.
     2.128      8.57       0.4732 0.3000E-02     0.0458    20.
     2.129      8.92       3.398  0.6000E-02     0.1102    20.
     2.134      9.28       3.747  0.1000E-01     0.1164    20.
     2.144      8.92       3.33   0.6000E-02     0.1163    20.
     2.147      6.76       1.614  0.6000E-02     0.0793    15.
     2.147      7.3        1.1    0.6000E-02     0.0568    20.
     2.148      8.57       0.476  0.3000E-02     0.0458    20.
     2.157      9.28       3.324  0.1000E-01     0.127     20.
     2.162      8.57       0.3528 0.3000E-02     0.0344    20.
     2.165      8.92       3.238  0.6000E-02     0.1102    20.
     2.167      7.3        1.111  0.6000E-02     0.0568    20.
     2.17       6.76       1.631  0.6000E-02     0.0793    15.
     2.18       9.28       3.324  0.1000E-01     0.1693    20.
     2.186      8.92       3.293  0.6000E-02     0.1102    20.
     2.187      6.76       1.506  0.6000E-02     0.0849    15.
     2.188      8.57       0.3642 0.3000E-02     0.0487    20.
     2.192      7.3        1.111  0.6000E-02     0.0568    20.
     2.196      9.28       3.102  0.1000E-01     0.1481    20.
     2.204      8.92       2.957  0.6000E-02     0.0979    20.
     2.205      8.57       0.367  0.3000E-02     0.0401    20.
     2.206      6.76       1.874  0.6000E-02     0.0793    15.
     2.211      7.3        1.134  0.6000E-02     0.0625    20.
     2.237      9.28       3.325  0.1000E-01     0.1376    20.
     2.243      6.76       1.569  0.6000E-02     0.0793    15.
     2.243      8.92       2.994  0.6000E-02     0.1041    20.
     2.247      8.57       0.3354 0.3000E-02     0.0372    20.
     2.249      7.3        1.043  0.6000E-02     0.0625    20.
     2.256      9.28       3.558  0.1000E-01     0.1164    20.
     2.26       6.76       1.535  0.6000E-02     0.0793    15.
     2.264      8.92       2.859  0.6000E-02     0.0979    20.
     2.267      8.57       0.2637 0.3000E-02     0.0372    20.
     2.269      7.3        1.009  0.6000E-02     0.0625    20.
     2.274      9.28       3.791  0.1000E-01     0.1481    20.
     2.282      8.92       3.018  0.6000E-02     0.1163    20.
     2.287      8.57       0.2522 0.3000E-02     0.043     20.
     2.288      6.76       1.619  0.6000E-02     0.0793    15.
     2.289      7.3        0.8443 0.6000E-02     0.0739    20.
     2.297      9.28       3.315  0.1000E-01     0.1482    20.
     2.303      8.92       2.914  0.6000E-02     0.1041    20.
     2.307      6.76       1.778  0.6000E-02     0.1133    15.
     2.307      8.57       0.2952 0.3000E-02     0.043     20.
     2.311      7.3        0.9239 0.6000E-02     0.0739    20.
     2.319      9.28       3.728  0.1000E-01     0.1164    20.
     2.324      6.76       1.761  0.6000E-02     0.0906    15.
     2.324      8.57       0.341  0.3000E-02     0.0401    20.
     2.324      8.92       2.926  0.6000E-02     0.1163    20.
     2.331      7.3        0.9239 0.6000E-02     0.0625    20.
     2.335      9.28       3.739  0.1000E-01     0.1058    20.
     2.345      8.92       2.883  0.6000E-02     0.0979    20.
     2.346      6.76       1.987  0.6000E-02     0.0906    15.
     2.347      8.57       0.2607 0.3000E-02     0.0401    20.
     2.352      7.3        0.7477 0.6000E-02     0.0454    20.
     2.357      9.28       3.739  0.1000E-01     0.1059    20.
     2.361      6.76       1.693  0.6000E-02     0.0793    15.
     2.364      8.57       0.2979 0.3000E-02     0.0373    20.
     2.366      8.92       2.932  0.6000E-02     0.0979    20.
     2.374      7.3        0.8216 0.6000E-02     0.0625    20.
     2.379      9.28       3.75   0.1000E-01     0.127     20.
     2.386      6.76       1.936  0.6000E-02     0.0793    15.
     2.387      8.57       0.381  0.3000E-02     0.0458    20.
     2.387      8.92       3.036  0.6000E-02     0.1041    20.
     2.39       7.3        0.9409 0.6000E-02     0.0568    20.
     2.4        6.76       1.959  0.6000E-02     0.0963    15.
     2.404      8.57       0.3867 0.3000E-02     0.0458    20.
     2.408      6.76       1.976  0.6000E-02     0.0736    15.
     2.408      8.92       2.841  0.6000E-02     0.0979    20.
     2.413      7.3        0.8273 0.6000E-02     0.0511    20.
     2.418      9.28       3.803  0.1000E-01     0.1058    20.
     2.418      9.28       3.687  0.1000E-01     0.1587    20.
     2.422      6.76       1.987  0.6000E-02     0.1076    15.
     2.424      8.57       0.3379 0.3000E-02     0.043     20.
     2.429      8.92       2.651  0.6000E-02     0.0918    20.
     2.43       7.3        0.8443 0.6000E-02     0.0568    20.
     2.439      9.28       3.983  0.1000E-01     0.1164    20.
     2.441      8.57       0.4181 0.3000E-02     0.0458    20.
     2.444      8.92       2.455  0.6000E-02     0.0979    20.
     2.445      6.76       1.982  0.6000E-02     0.0849    15.
     2.446      7.3        0.975  0.6000E-02     0.0511    20.
     2.456      9.28       3.666  0.1000E-01     0.1059    20.
     2.461      8.57       0.4467 0.3000E-02     0.0487    20.
     2.462      6.76       1.84   0.6000E-02     0.0963    15.
     2.465      8.92       2.486  0.6000E-02     0.0979    20.
     2.469      7.3        0.8841 0.6000E-02     0.0625    20.
     2.475      9.28       3.698  0.1000E-01     0.0953    20.
     2.479      6.76       1.817  0.6000E-02     0.0849    15.
     2.483      7.99       0.4681 0.3000E-02     0.0426    20.
     2.486      8.92       2.632  0.6000E-02     0.1102    20.
     2.487      8.57       0.4381 0.3000E-02     0.0516    20.
     2.488      7.3        1.054  0.6000E-02     0.0568    20.
     2.497      9.28       3.614  0.1000E-01     0.1164    20.
     2.501      8.57       0.438  0.3000E-02     0.0602    20.
     2.503      7.99       0.5732 0.3000E-02     0.0569    20.
     2.504      6.76       1.959  0.6000E-02     0.0963    15.
     2.505      8.57       0.5555 0.3000E-02     0.0659    20.
     2.506      7.3        1.219  0.6000E-02     0.0909    20.
     2.51       7.3        1.003  0.6000E-02     0.0511    20.
     2.523      7.99       0.5589 0.3000E-02     0.0569    20.
     2.525      8.57       0.6643 0.3000E-02     0.0659    20.
     2.526      6.76       2.197  0.6000E-02     0.0963    15.
     2.529      7.3        1.168  0.6000E-02     0.0852    20.
     2.535      9.28       4.196  0.1000E-01     0.1269    20.
     2.543      6.76       2.066  0.6000E-02     0.0849    15.
     2.543      7.3        1.168  0.6000E-02     0.0852    20.
     2.543      7.99       0.5019 0.3000E-02     0.054     20.
     2.545      8.57       0.6958 0.3000E-02     0.0716    20.
     2.546      8.92       2.847  0.6000E-02     0.0918    20.
     2.557      9.28       4.228  0.1000E-01     0.0952    20.
     2.562      7.99       0.6382 0.3000E-02     0.0569    20.
     2.563      6.76       2.083  0.6000E-02     0.0963    15.
     2.565      8.57       0.627  0.3000E-02     0.0716    20.
     2.567      7.3        1.435  0.6000E-02     0.0909    20.
     2.567      8.92       2.48   0.6000E-02     0.1041    20.
     2.576      9.28       4.091  0.1000E-01     0.1058    20.
     2.582      8.57       0.647  0.3000E-02     0.0659    20.
     2.583      7.99       0.459  0.3000E-02     0.0512    20.
     2.585      6.76       2.219  0.6000E-02     0.1019    15.
     2.586      7.3        1.038  0.6000E-02     0.0795    20.
     2.588      8.92       2.657  0.6000E-02     0.0979    20.
     2.597      6.76       1.834  0.6000E-02     0.0963    15.
     2.599      9.28       3.848  0.1000E-01     0.1058    20.
     2.605      7.99       0.4902 0.3000E-02     0.0569    20.
     2.605      8.57       0.6499 0.3000E-02     0.0659    20.
     2.606      8.92       2.431  0.6000E-02     0.1041    20.
     2.608      7.3        1.1    0.6000E-02     0.0852    20.
     2.618      9.28       3.996  0.1000E-01     0.1058    20.
     2.62       6.76       1.902  0.6000E-02     0.0963    15.
     2.622      7.3        1.1    0.6000E-02     0.0795    20.
     2.624      8.92       2.412  0.6000E-02     0.1041    20.
     2.625      7.99       0.4701 0.3000E-02     0.054     20.
     2.627      8.57       0.5925 0.3000E-02     0.063     20.
     2.634      9.28       3.763  0.1000E-01     0.1058    20.
     2.642      6.76       1.828  0.6000E-02     0.0906    15.
     2.642      8.92       2.296  0.6000E-02     0.1041    20.
     2.645      7.99       0.4956 0.3000E-02     0.0483    20.
     2.648      7.3        1.106  0.6000E-02     0.0852    20.
     2.648      8.57       0.6584 0.3000E-02     0.0745    20.
     2.656      9.28       3.753  0.1000E-01     0.0952    20.
     2.665      6.76       1.874  0.6000E-02     0.0963    15.
     2.665      7.99       0.5467 0.3000E-02     0.054     20.
     2.666      7.3        1.339  0.6000E-02     0.0795    20.
     2.666      8.92       2.131  0.6000E-02     0.0979    20.
     2.675      9.28       3.859  0.1000E-01     0.1058    20.
     2.681      6.76       1.936  0.6000E-02     0.1132    15.
     2.683      7.3        1.322  0.6000E-02     0.0909    20.
     2.684      8.92       2.094  0.6000E-02     0.1041    20.
     2.685      7.99       0.5011 0.3000E-02     0.054     20.
     2.694      9.28       3.944  0.1000E-01     0.1164    20.
     2.697      9.28       4.145  0.1000E-01     0.1481    20.
     2.699      6.76       1.709  0.6000E-02     0.0963    15.
     2.701      6.76       1.84   0.6000E-02     0.0963    15.
     2.702      8.92       2.039  0.6000E-02     0.1041    20.
     2.703      7.3        1.299  0.6000E-02     0.1364    20.
     2.704      7.99       0.5436 0.3000E-02     0.0483    20.
     2.706      7.99       0.6516 0.3000E-02     0.0569    20.
     2.71       7.3        1.089  0.6000E-02     0.0909    20.
     2.714      9.28       3.5    0.1000E-01     0.0952    20.
     2.721      9.19       5.041      0.015      0.1213    20.
     2.722      6.76       1.658  0.6000E-02     0.0849    15.
     2.725      7.99       0.4639 0.3000E-02     0.0483    20.
     2.726      8.92       1.99   0.6000E-02     0.0918    20.
     2.731      7.3        1.214  0.6000E-02     0.0739    20.
     2.733      9.28       3.331  0.1000E-01     0.1058    20.
     2.741      6.76       1.658  0.6000E-02     0.0849    15.
     2.741      8.92       1.77   0.6000E-02     0.0796    20.
     2.745      7.99       0.4837 0.3000E-02     0.0426    20.
     2.748      9.19       4.996      0.015      0.1061    20.
     2.75       7.3        1.02   0.6000E-02     0.0568    20.
     2.752      9.28       3.32   0.1000E-01     0.1058    20.
     2.761      6.76       1.658  0.6000E-02     0.0793    15.
     2.762      7.99       0.3954 0.3000E-02     0.0455    20.
     2.765      8.92       1.947  0.6000E-02     0.0796    20.
     2.767      9.19       4.557      0.015      0.1515    20.
     2.772      7.3        1.066  0.6000E-02     0.0682    20.
     2.775      9.28       3.31   0.1000E-01     0.1059    20.
     2.78       8.92       1.678  0.6000E-02     0.0979    20.
     2.781      6.76       1.681  0.6000E-02     0.0793    15.
     2.784      9.19       4.83       0.015      0.1364    20.
     2.785      7.99       0.438  0.3000E-02     0.0455    20.
     2.79       7.3        0.8784 0.6000E-02     0.0682    20.
     2.794      9.28       3.067  0.1000E-01     0.1376    20.
     2.794      9.28       3.003  0.1000E-01     0.1164    20.
     2.8        6.76       1.862  0.6000E-02     0.0849    15.
     2.803      9.19       4.815      0.015      0.1212    20.
     2.804      8.92       1.617  0.6000E-02     0.0796    20.
     2.806      6.76       1.913  0.6000E-02     0.0906    15.
     2.806      7.99       0.2417 0.3000E-02     0.037     20.
     2.806      9.19       4.649      0.015      0.1364    20.
     2.809      7.3        0.9636 0.6000E-02     0.0795    20.
     2.811      6.76       1.873  0.6000E-02     0.0849    15.
     2.814      9.28       2.803  0.1000E-01     0.0847    20.
     2.822      6.76       1.89   0.6000E-02     0.068     15.
     2.825      8.92       1.286  0.6000E-02     0.0734    20.
     2.827      8.57       0.6179 0.3000E-02     0.0602    20.
     2.827      9.19       4.467      0.015      0.1364    20.
     2.828      7.3        1.043  0.6000E-02     0.0909    20.
     2.836      9.28       2.961  0.1000E-01     0.1164    20.
     2.837      8.92       1.531  0.6000E-02     0.0857    20.
     2.842      6.76       1.873  0.6000E-02     0.0736    15.
     2.845      9.19       4.574      0.015      0.1515    20.
     2.847      8.57       0.7668 0.3000E-02     0.0716    20.
     2.848      7.99       0.3893 0.3000E-02     0.0483    20.
     2.852      7.3        0.8898 0.6000E-02     0.0739    20.
     2.854      9.28       3.247  0.1000E-01     0.1164    20.
     2.864      8.92       1.537  0.6000E-02     0.0796    20.
     2.865      6.76       1.885  0.6000E-02     0.0736    15.
     2.865      7.99       0.2925 0.3000E-02     0.0483    20.
     2.866      9.19       4.756      0.015      0.1364    20.
     2.867      8.57       0.6837 0.3000E-02     0.063     20.
     2.874      7.3        0.9466 0.6000E-02     0.0682    20.
     2.875      9.28       2.613  0.1000E-01     0.1058    20.
     2.881      9.19       4.302      0.015      0.1363    20.
     2.882      6.76       1.828  0.6000E-02     0.0793    15.
     2.882      8.92       1.574  0.6000E-02     0.0857    20.
     2.885      7.99       0.3322 0.3000E-02     0.0455    20.
     2.887      8.57       0.6808 0.3000E-02     0.0544    20.
     2.892      7.3        0.725  0.6000E-02     0.0625    20.
     2.897      9.28       2.613  0.1000E-01     0.1269    20.
     2.901      7.99       0.443  0.3000E-02     0.0512    20.
     2.902      6.76       1.8    0.6000E-02     0.0793    15.
     2.903      8.92       1.543  0.6000E-02     0.0857    20.
     2.904      8.57       0.5948 0.3000E-02     0.0573    20.
     2.905      9.19       4.287      0.015      0.1212    20.
     2.909      9.28       2.719  0.1000E-01     0.1058    20.
     2.914      7.3        0.8557 0.6000E-02     0.0795    20.
     2.921      8.92       1.396  0.6000E-02     0.0796    20.
     2.924      6.76       1.975  0.6000E-02     0.0736    15.
     2.924      7.99       0.4514 0.3000E-02     0.0455    20.
     2.927      9.19       4.151      0.015      0.1212    20.
     2.93       8.57       0.7609 0.3000E-02     0.0573    20.
     2.931      7.3        0.833  0.6000E-02     0.0454    20.
     2.939      8.92       1.365  0.6000E-02     0.0734    20.
     2.944      6.76       1.85   0.6000E-02     0.0736    15.
     2.944      7.99       0.3631 0.3000E-02     0.0455    20.
     2.945      9.19       3.985      0.015      0.1212    20.
     2.946      8.57       0.5976 0.3000E-02     0.0544    20.
     2.951      7.3        0.7591 0.6000E-02     0.0682    20.
     2.957      9.28       2.709  0.1000E-01     0.1481    20.
     2.961      6.76       1.686  0.6000E-02     0.0793    15.
     2.963      8.92       1.427  0.6000E-02     0.0796    20.
     2.965      7.99       0.3232 0.3000E-02     0.0483    20.
     2.965      9.19       4.273      0.015      0.1212    20.
     2.97       8.57       0.7351 0.3000E-02     0.0659    20.
     2.972      7.3        0.9068 0.6000E-02     0.0909    20.
     2.978      8.92       1.292  0.6000E-02     0.0734    20.
     2.981      6.76       1.732  0.6000E-02     0.0849    15.
     2.981      9.19       3.788      0.015      0.1061    20.
     2.983      8.57       0.5115 0.3000E-02     0.0544    20.
     2.985      7.99       0.3089 0.3000E-02     0.0455    20.
     2.991      7.3        0.6796 0.6000E-02     0.0511    20.
     2.996      8.92       1.408  0.6000E-02     0.0796    20.
     3.005      7.99       0.269  0.3000E-02     0.0427    20.
     3.005      9.19       3.637      0.015      0.1212    20.
     3.006      6.76       1.783  0.6000E-02     0.1358    15.
     3.006      9.28       2.181  0.1000E-01     0.127     20.
     3.009      8.57       0.543  0.3000E-02     0.0516    20.
     3.013      7.3        0.6227 0.6000E-02     0.0398    20.
     3.02       8.92       1.463  0.6000E-02     0.0796    20.
     3.023      6.76       1.788  0.6000E-02     0.0736    15.
     3.024      7.99       0.32   0.3000E-02     0.0426    20.
     3.025      8.57       0.4599 0.3000E-02     0.0516    20.
     3.029      9.19       3.85       0.015      0.1061    20.
     3.03       7.3        0.6966 0.6000E-02     0.0682    20.
     3.037      9.28       2.414  0.1000E-01     0.1164    20.
     3.041      8.92       1.225  0.6000E-02     0.0796    20.
     3.043      6.76       1.714  0.6000E-02     0.0906    15.
     3.044      7.99       0.3455 0.3000E-02     0.0512    20.
     3.046      8.57       0.5974 0.3000E-02     0.0573    20.
     3.047      9.19       3.774      0.015      0.106     20.
     3.05       7.3        0.6    0.6000E-02     0.0682    20.
     3.053      9.28       2.118  0.1000E-01     0.0847    20.
     3.062      8.92       1.2    0.6000E-02     0.0857    20.
     3.063      6.76       1.63   0.6000E-02     0.0849    15.
     3.064      7.3        0.5943 0.6000E-02     0.0625    20.
     3.065      7.99       0.2118 0.3000E-02     0.0398    20.
     3.065      8.57       0.5028 0.3000E-02     0.0516    20.
     3.065      9.19       3.744      0.015      0.1212    20.
     3.07       7.3        0.5943 0.6000E-02     0.0568    20.
     3.072      9.28       2.16   0.1000E-01     0.1164    20.
     3.08       8.92       1.206  0.6000E-02     0.0734    20.
     3.082      6.76       1.72   0.6000E-02     0.0793    15.
     3.085      7.99       0.2401 0.3000E-02     0.0341    20.
     3.086      9.19       3.639      0.015      0.1364    20.
     3.089      8.57       0.709  0.3000E-02     0.0602    20.
     3.089      9.28       1.652  0.1000E-01     0.0952    20.
     3.092      7.3        0.5943 0.6000E-02     0.0625    20.
     3.101      8.92       1.231  0.6000E-02     0.0734    20.
     3.102      7.99       0.2428 0.3000E-02     0.0341    20.
     3.104      6.76       1.816  0.6000E-02     0.0736    15.
     3.105      8.57       0.5342 0.3000E-02     0.0544    20.
     3.105      9.19       3.563      0.015      0.1212    20.
     3.112      7.3        0.6    0.6000E-02     0.0511    20.
ENDDATA            433
ENDSUBENT          450
SUBENT        F0334005   19990409   19990429
BIB                  3          5
REACTION   (5-B-10(D,EL)5-B-10,,DA,,,EXP)
ERR-ANALYS (EN-ERR1) Digitizing error
           (DATA-ERR) Digitizing error
           (DATA-ERR1) Error from graphic bars
STATUS     (CURVE) Fig 10
ENDBIB               5
COMMON               3          3
ANG        EN-ERR1    DATA-ERR
ADEG       MEV        MB/SR
   90.      0.004      0.03
ENDCOMMON            3
DATA                 3         38
EN         DATA       DATA-ERR1
MEV        MB/SR      MB/SR
     1.725     22.06       0.3846
     1.737     22.45       0.4492
     1.76      21.36       0.3846
     1.779     20.47       0.3841
     1.804     21.05       0.3846
     1.823     19.77       0.3846
     1.846     19.77       0.3846
     1.862     19.78       0.3851
     1.884     19.4        0.4487
     1.9       18.31       0.4482
     1.922     16.64       0.3205
     1.938     16.65       0.3846
     1.96      17.1        0.3846
     1.976     16.01       0.3205
     1.995     16.21       0.5128
     2.04      16.09       0.3205
     2.059     15.64       0.3205
     2.075     14.87       0.3205
     2.098     15.07       0.321
     2.113     15.2        0.32
     2.136     14.63       0.2564
     2.155     14.18       0.1923
     2.177     14.76       0.2564
     2.196     14.83       0.321
     2.235     14.45       0.3205
     2.257     14.13       0.2564
     2.289     14.26       0.32
     2.337     13.69       0.321
     2.356     14.08       0.3205
     2.378     13.31       0.2564
     2.394     13.32       0.3205
     2.419     14.09       0.3205
     2.432     12.94       0.3205
     2.458     13.26       0.2564
     2.477     12.69       0.3846
     2.496     13.33       0.2569
     2.537     14.04       0.3846
     2.556     13.73       0.3841
ENDDATA             40
ENDSUBENT           54
ENDENTRY             5
