ENTRY            F0356   20030717   20031024
SUBENT        F0356001   20030717   20031024
BIB                 10         20
TITLE      Optical model analysis of the elastic scattering of
           20-24 MeV alpha-particles by 12C, 14N, 16O and 20Ne
AUTHOR     (J.B.A.England,E.Casal,A.Garcia,T.Picazo,J.Aguilar,
           H.M.Sen Gupta)
INSTITUTE  (2UK BIR,2SPNVAL,2SPNSPN,3BANDAC)
REFERENCE  (J,NP/A,284,29,1977)
FACILITY   (CYCLO,2UK BIR) Radial Ridge AVF cyclotron
SAMPLE     gaseous target
METHOD     (EXTB)
DETECTOR   (PLATE) Ilford K1 emulsions, size 125 mm X 50 mm and
           100 mu-mm thick.
ERR-ANALYS (ANG-ERR) Digitizing error
           (DATA-ERR) Digitizing error
           (ERR-S) Statistical error from graphic bars. Data
           points with no error bars indicate that the errors are
           less that the size of the circles.
           (ERR-1) Systematic errors
           Ther elative errors shown are due purely to the
           statistical accuracy of the measurements.
HISTORY    (20030707C)
ENDBIB              20
COMMON               3          3
ERR-1      ANG-ERR    DATA-ERR
PER-CENT   ADEG       PER-CENT
   5.0       0.5        0.3
ENDCOMMON            3
ENDSUBENT           27
SUBENT        F0356002   20030717   20031024
BIB                  2          2
REACTION   (6-C-12(A,EL)6-C-12,,DA)
STATUS     (CURVE) Fig.1
ENDBIB               2
NOCOMMON             0          0
DATA                 4        205
EN         ANG-CM     DATA-CM    ERR-S
MEV        ADEG       MB/SR      MB/SR
  23.30      19.61      427.8
  23.30      23.38      101.4
  23.30      25.98      71.04
  23.30      29.64      131.3
  23.30      32.37      260.7
  23.30      36.43      268.6
  23.30      39.21      223.3
  23.30      42.94      109.6
  23.30      45.95      37.09
  23.30      48.40      11.86      2.014
  23.30      52.64      14.50      2.707
  23.30      55.17      36.15
  23.30      58.66      59.62
  23.30      61.58      94.20
  23.30      65.11      61.47
  23.30      67.90      46.92
  23.30      70.68      35.31
  23.30      74.05      14.80      2.764
  23.30      76.30      7.157      1.582
  23.30      79.10      3.770     0.7681
  23.30      80.97      2.678     0.5001
  23.30      82.62      2.837     0.5297
  23.30      83.90      3.617     0.4955
  23.30      85.38      3.322     0.5644
  23.30      88.19      1.561     0.2915
  23.30      90.43     0.9216
  23.30      93.91      1.753     0.4811
  23.30      96.65      2.692
  23.30      99.19      6.523
  23.30      101.8      11.23
  23.30      104.7      15.16
  23.30      107.1      18.01
  23.30      109.8      20.20      2.442
  23.30      114.8      19.66      2.694
  23.30      119.3      16.13
  23.30      124.0      24.42
  23.30      127.7      34.44      4.163
  23.30      132.2      24.84      4.637
  23.30      136.6      22.83      5.047
  23.30      140.5      11.53      1.958
  23.30      144.6      9.866      2.354
  23.30      148.4      16.51      3.364
  23.30      152.6      22.95      3.519
  23.30      156.2      20.79      3.882
  23.30      159.7      17.29      3.822
  23.30      163.2      12.47      2.328
  23.30      165.4      29.78      3.128
  23.30      167.1      15.68      2.665
  23.30      168.9      50.55      6.924
  23.30      170.6      112.4      17.24
  23.30      173.7      314.3      74.99
  21.80      12.75      2258.
  21.80      16.46      1726.
  21.80      20.21      696.0
  21.80      23.26      137.9
  21.80      26.43      81.57
  21.80      29.71      154.8
  21.80      32.82      266.0
  21.80      36.51      274.0
  21.80      40.04      157.6
  21.80      43.04      83.23      14.09
  21.80      46.31      9.606      1.626
  21.80      49.60      15.59      2.128
  21.80      52.49      40.46      8.210
  21.80      55.59      77.88
  21.80      58.90      100.7
  21.80      62.04      97.99
  21.80      65.40      51.02      6.962
  21.80      68.18      41.86      8.495
  21.80      71.40      10.56      2.142
  21.80      73.87      3.588
  21.80      77.23      1.816     0.3685
  21.80      79.74      5.829      1.385
  21.80      83.07      5.593      1.040
  21.80      85.86      4.095     0.8310
  21.80      89.03      2.163     0.5522
  21.80      93.50      1.209     0.4440
  21.80      99.70      3.833     0.7128
  21.80      105.2      4.620     0.9373
  21.80      109.7      1.711     0.5626
  21.80      114.7      1.366     0.4234
  21.80      119.4      5.058     0.9405
  21.80      124.6      11.56      1.391
  21.80      128.8      14.53      1.520
  21.80      132.9      10.49      1.432
  21.80      136.9      10.07
  21.80      141.2      6.678      1.470
  21.80      145.2      11.48      2.527
  21.80      149.1      7.398      1.629
  21.80      153.2      4.906     0.9123
  21.80      156.5      10.29      2.264
  21.80      159.8      10.60      2.332
  21.80      163.7      14.71      2.736
  21.80      167.1      32.19      7.087
  21.80      169.3      104.8      16.01
  21.80      171.3      135.5
  21.80      172.3      336.5      68.29
  21.80      174.9      416.9      77.52
  20.60      16.84      1697.
  20.60      19.84      650.9
  20.60      22.69      120.2
  20.60      25.73      25.27
  20.60      27.68      117.0
  20.60      30.78      257.5
  20.60      35.95      250.6
  20.60      39.11      154.1
  20.60      42.84      67.26
  20.60      46.09      7.529
  20.60      48.85      9.077
  20.60      52.10      39.14
  20.60      55.19      93.84
  20.60      58.31      119.8
  20.60      61.46      105.4
  20.60      65.16      94.12      16.06
  20.60      68.12      68.75
  20.60      71.30      32.22
  20.60      74.11      13.85      1.906
  20.60      76.89      10.56      1.452
  20.60      80.06      5.394     0.9202
  20.60      82.44      8.659      1.191
  20.60      85.57      10.00      1.706
  20.60      88.15      10.75      2.387
  20.60      91.11      8.807      2.427
  20.60      94.26      7.530      1.285
  20.60      96.68      4.501     0.9208
  20.60      99.31      2.079     0.4981
  20.60      101.9     0.6907     0.1413
  20.60      104.9     0.6165     0.1156
  20.60      106.9     0.5826     0.1293
  20.60      109.7      1.682     0.7241
  20.60      112.0      3.596     0.9258
  20.60      114.2      6.200      1.058
  20.60      119.0      8.034      1.506
  20.60      121.4      7.926      1.486
  20.60      123.6      9.284      1.740
  20.60      125.7      5.960      1.117
  20.60      127.5      5.472     0.8424
  20.60      129.7      5.097     0.9556
  20.60      131.4      2.388     0.4885
  20.60      134.0     0.9977     0.3499
  20.60      135.7      1.874
  20.60      135.7      2.357
  20.60      137.7      2.015     0.4122
  20.60      139.7      1.698     0.5954
  20.60      141.6      1.332     0.2724
  20.60      143.6      1.879     0.8087
  20.60      145.5      1.076     0.2387
  20.60      147.3      1.726     0.3831
  20.60      149.2      1.434     0.3182
  20.60      151.4      1.609     0.3291
  20.60      153.4      2.438     0.4989
  20.60      155.2      3.249     0.9551
  20.60      156.9      4.454     0.7598
  20.60      158.9      6.107      1.249
  20.60      160.3      12.15      1.870
  20.60      162.3      12.69      2.816
  20.60      164.3      21.88      3.009
  20.60      165.4      39.36      10.14
  20.60      167.6      49.53      9.286
  20.20      14.12      2186.
  20.20      17.26      1926.
  20.20      20.26      778.5
  20.20      23.83      254.5
  20.20      26.51      32.64
  20.20      29.85      24.26      4.907
  20.20      33.11      82.15
  20.20      35.86      117.2
  20.20      39.76      71.44
  20.20      42.92      44.17      7.450
  20.20      45.75      14.64      1.991
  20.20      49.10      9.446      1.438
  20.20      52.01      17.89      3.618
  20.20      55.30      36.36
  20.20      58.24      52.60
  20.20      61.54      68.92      12.77
  20.20      64.88      51.24
  20.20      70.82      25.64      3.902
  20.20      73.98      17.01      3.153
  20.20      76.98      6.975      1.652
  20.20      82.49      11.15      1.881
  20.20      88.39      14.42      2.431
  20.20      93.58      9.047      1.526
  20.20      96.73      7.219      1.837
  20.20      98.83      1.802     0.3953
  20.20      101.9      2.759     0.8015
  20.20      104.7      3.563     0.6604
  20.20      109.7      4.738      1.206
  20.20      111.8      10.05      1.206
  20.20      114.6      14.74
  20.20      119.4      15.40
  20.20      123.8      13.58      1.630
  20.20      128.8      12.31
  20.20      136.2      4.643     0.8605
  20.20      141.0      5.590     0.9428
  20.20      144.9      5.923     0.9989
  20.20      148.2      5.602      1.038
  20.20      152.5      3.826     0.5204
  20.20      156.4      2.886     0.3463
  20.20      160.0      8.243      2.394
  20.20      163.9      11.59      1.209
  20.20      167.1      40.96      8.283
  20.20      169.5      43.99      8.153
  20.20      170.8      76.48      14.17
  20.20      172.2      123.9      31.52
  20.20      174.1      212.3      50.28
ENDDATA            207
ENDSUBENT          214
SUBENT        F0356003   20030717   20031024
BIB                  2          2
REACTION   (7-N-14(A,EL)7-N-14,,DA)
STATUS     (CURVE) Fig.2
ENDBIB               2
NOCOMMON             0          0
DATA                 4        227
EN         ANG-CM     DATA-CM    ERR-S
MEV        ADEG       MB/SR      MB/SR
  23.10      14.37      4522.
  23.10      16.81      2302.
  23.10      20.39      801.9
  23.10      22.88      68.13
  23.10      25.40      74.29
  23.10      28.56      171.1
  23.10      31.99      200.3
  23.10      35.96      221.8
  23.10      38.05      108.2
  23.10      41.04      52.85
  23.10      43.87      21.78
  23.10      47.27      30.21
  23.10      50.11      51.73
  23.10      53.37      53.34
  23.10      56.10      48.43
  23.10      61.77      30.98
  23.10      67.85      14.74
  23.10      71.14      11.96      1.618
  23.10      74.25      9.981      1.511
  23.10      77.50      11.04
  23.10      80.21      11.54
  23.10      82.71      16.00
  23.10      85.21      5.043
  23.10      88.35      3.220     0.4875
  23.10      90.84      4.654
  23.10      93.26      11.66
  23.10      95.93      17.34
  23.10      101.2      24.42
  23.10      106.4      16.75
  23.10      111.0      11.17
  23.10      116.2      18.89
  23.10      121.6      35.78
  23.10      124.9      33.90
  23.10      127.6      34.94
  23.10      129.8      29.14
  23.10      134.0      17.11      2.590
  23.10      138.2      20.04      3.694
  23.10      141.9      37.91
  23.10      144.8      40.76
  23.10      148.2      51.94
  23.10      151.1      49.90
  23.10      154.7      43.46      6.580
  23.10      158.8      36.80
  23.10      162.2      45.59
  23.10      166.1      68.83
  23.10      169.5      105.3      17.67
  23.10      173.8      202.1      33.91
  22.50      14.50      2305.
  22.50      19.58      512.9
  22.50      22.67      100.2
  22.50      26.03      46.29
  22.50      29.37      112.9
  22.50      32.59      157.5
  22.50      35.16      123.6
  22.50      38.67      73.95
  22.50      40.92      38.29
  22.50      44.28      16.23
  22.50      47.72      17.23
  22.50      50.58      25.44
  22.50      53.26      33.96
  22.50      56.15      39.29
  22.50      59.99      27.92
  22.50      62.92      23.22
  22.50      64.95      16.96
  22.50      68.66      8.068
  22.50      71.60      6.069
  22.50      74.29      7.873
  22.50      76.99      8.848
  22.50      80.08      8.374
  22.50      83.23      4.729
  22.50      85.49      2.379     0.4469
  22.50      88.25      1.714     0.4733
  22.50      90.64      5.982
  22.50      93.32      8.457
  22.50      96.36      11.62
  22.50      101.2      15.77
  22.50      103.8      13.68
  22.50      106.5      11.38
  22.50      109.1      6.901
  22.50      113.9      11.12
  22.50      116.1      16.64
  22.50      117.9      21.57
  22.50      120.6      26.05
  22.50      122.9      24.64
  22.50      125.3      23.65
  22.50      127.7      21.12
  22.50      129.9      17.55      3.599
  22.50      131.7      14.59
  22.50      134.3      8.846      1.219
  22.50      136.3      10.99
  22.50      137.9      14.24
  22.50      140.4      19.28
  22.50      144.3      28.90
  22.50      148.8      29.84
  22.50      151.7      33.07
  22.50      156.6      26.38
  22.50      158.3      21.92
  22.50      160.5      23.25
  22.50      162.4      31.93
  22.50      164.6      35.87
  22.50      166.0      54.43
  22.50      168.1      64.76
  22.50      169.7      81.57
  22.50      171.9      131.2      22.42
  21.70      13.87      5445.
  21.70      16.83      3357.
  21.70      20.20      1330.
  21.70      22.90      353.0
  21.70      25.55      130.2
  21.70      27.92      121.4
  21.70      28.78      173.6
  21.70      32.19      241.7
  21.70      35.44      252.9
  21.70      38.40      158.2
  21.70      40.73      41.38
  21.70      43.73      18.11
  21.70      45.39      14.02
  21.70      47.16      20.36
  21.70      50.15      44.76
  21.70      53.37      65.97
  21.70      56.24      87.97
  21.70      59.33      78.65
  21.70      61.19      54.32
  21.70      61.91      55.93
  21.70      68.39      18.98
  21.70      71.13      15.57
  21.70      74.08      9.739
  21.70      77.30      14.98
  21.70      79.85      13.58
  21.70      82.61      9.524      2.108
  21.70      85.90      7.382      1.634
  21.70      88.42      8.779
  21.70      91.14      8.923
  21.70      93.10      11.89      1.825
  21.70      96.00      12.26
  21.70      101.1      13.41      1.623
  21.70      106.5      11.18      1.902
  21.70      109.3      8.787      1.495
  21.70      111.6      12.76      2.385
  21.70      115.9      24.34
  21.70      121.1      34.43
  21.70      125.2      33.08
  21.70      127.4      29.98
  21.70      130.2      28.78      4.896
  21.70      134.2      18.81      2.887
  21.70      136.4      17.54      2.123
  21.70      138.7      27.75
  21.70      142.8      35.48
  21.70      144.4      44.01
  21.70      146.8      42.24
  21.70      148.8      53.16
  21.70      151.3      46.83
  21.70      155.3      49.03
  21.70      158.6      54.31
  21.70      162.4      56.85      8.727
  21.70      166.1      65.76
  21.70      166.1      75.85
  21.70      167.9      88.87      10.76
  21.70      169.9      118.4      16.24
  21.70      172.3      102.8
  19.80      12.40      3658.
  19.80      15.36      1995.
  19.80      18.73      753.5
  19.80      21.75      236.7
  19.80      25.66      85.73
  19.80      29.07      124.1
  19.80      31.41      147.3
  19.80      34.87      119.4
  19.80      38.01      72.92
  19.80      40.81      34.04
  19.80      43.67      8.897
  19.80      47.47      8.793
  19.80      50.09      24.04
  19.80      52.56      48.15
  19.80      56.36      49.65
  19.80      59.11      36.44
  19.80      62.03      30.38
  19.80      65.49      27.57
  19.80      68.26      16.84
  19.80      70.70      7.639
  19.80      74.22      3.722
  19.80      77.40      8.118
  19.80      79.94      7.793
  19.80      82.68      6.496
  19.80      85.39      6.885
  19.80      87.82      3.598
  19.80      90.54      3.358
  19.80      93.27      3.179     0.5880
  19.80      96.13      4.868
  19.80      99.37      6.117
  19.80      101.5      6.859
  19.80      103.8      9.782
  19.80      106.0      11.28
  19.80      108.9      12.13
  19.80      111.1      14.40      2.663
  19.80      113.6      15.26      3.080
  19.80      116.0      12.72
  19.80      118.2      25.47
  19.80      121.0      24.11
  19.80      123.5      33.90
  19.80      125.8      30.32      3.632
  19.80      127.8      28.69      2.985
  19.80      130.0      27.15
  19.80      131.9      20.20      3.399
  19.80      134.2      21.71      2.600
  19.80      136.4      19.14
  19.80      138.4      25.43
  19.80      140.4      30.17
  19.80      142.5      32.89      4.464
  19.80      144.7      41.89      7.050
  19.80      147.0      44.39      6.743
  19.80      148.5      51.18
  19.80      151.0      70.97
  19.80      153.0      69.08
  19.80      155.3      67.25
  19.80      157.3      65.46
  19.80      158.8      56.08
  19.80      160.8      60.27
  19.80      162.2      75.64
  19.80      164.7      71.60
  19.80      166.3      103.5
  19.80      167.6      133.6
  19.80      170.1      235.7
  19.80      172.2      287.6
  19.80      174.2      318.0
  19.80      178.3      429.1
  19.80      179.8      441.8      52.92
ENDDATA            229
ENDSUBENT          236
SUBENT        F0356004   20030717   20031024
BIB                  2          2
REACTION   (8-O-16(A,EL)8-O-16,,DA)
STATUS     (CURVE) Fig.3
ENDBIB               2
NOCOMMON             0          0
DATA                 4        190
EN         ANG-CM     DATA-CM    ERR-S
MEV        ADEG       MB/SR      MB/SR
  23.20      12.70      4213.
  23.20      16.05      2521.
  23.20      18.75      746.9
  23.20      22.19      221.4
  23.20      25.17      142.3
  23.20      28.97      192.8
  23.20      31.72      177.3
  23.20      34.69      120.6
  23.20      37.60      29.25
  23.20      43.31      20.23
  23.20      46.32      48.61
  23.20      49.39      65.83
  23.20      52.67      75.08
  23.20      55.44      55.67
  23.20      61.10      12.77
  23.20      63.63      3.472
  23.20      67.00      1.852
  23.20      69.68      3.200
  23.20      72.59      3.445
  23.20      75.72      2.949
  23.20      78.00      1.402     0.2871
  23.20      83.19      3.676
  23.20      86.03      7.763
  23.20      88.19      9.920
  23.20      90.73      11.64
  23.20      94.20      12.53
  23.20      96.73      15.35
  23.20      99.64      17.25
  23.20      102.0      24.02
  23.20      104.5      26.99
  23.20      107.3      25.54
  23.20      109.8      24.51
  23.20      111.1      20.07
  23.20      111.7      18.42
  23.20      114.3      10.26
  23.20      116.6      8.286
  23.20      118.7      12.40
  23.20      120.8      21.41
  23.20      123.3      32.97
  23.20      125.7      43.36
  23.20      127.3      58.66
  23.20      129.7      59.61
  23.20      132.6      63.26
  23.20      135.2      41.83
  23.20      137.2      28.86
  23.20      139.5      12.77
  23.20      140.9      5.566      1.044
  23.20      142.8      12.09
  23.20      145.3      28.21      5.777
  23.20      149.4      60.47
  23.20      153.8      79.66
  23.20      158.0      52.73
  23.20      159.9      28.92
  23.20      161.9      11.91
  23.20      163.7      7.869      1.344
  23.20      165.6      25.16      3.878
  23.20      167.6      81.63
  23.20      169.4      122.1      25.01
  23.20      171.7      257.7
  21.50      13.87      5346.
  21.50      16.49      2643.
  21.50      22.57      260.8
  21.50      23.88      184.7
  21.50      25.89      190.3
  21.50      27.88      239.9
  21.50      29.69      281.4
  21.50      31.71      251.1
  21.50      34.68      168.0
  21.50      37.16      53.15
  21.50      40.47      7.187
  21.50      40.85      6.224
  21.50      43.45      26.72
  21.50      46.63      80.01
  21.50      49.71      111.7
  21.50      52.81      116.8
  21.50      55.74      113.7
  21.50      58.17      65.85
  21.50      61.18      25.86
  21.50      64.32      19.42      2.373
  21.50      66.74      12.44
  21.50      70.00      17.62      1.870
  21.50      72.90      21.91
  21.50      75.81      24.27
  21.50      79.11      23.97
  21.50      82.86      8.764
  21.50      86.56      5.701     0.9790
  21.50      88.68      1.726     0.2965
  21.50      91.78      1.941     0.4338
  21.50      93.89      4.680      1.046
  21.50      96.76      8.223      1.694
  21.50      99.05      19.83
  21.50      102.0      23.28
  21.50      104.5      27.71
  21.50      107.2      26.20
  21.50      108.3      27.38
  21.50      109.8      25.14
  21.50      112.1      14.14
  21.50      113.4      8.673
  21.50      116.1      9.748      2.008
  21.50      119.0      18.95      4.234
  21.50      121.7      32.34
  21.50      126.0      79.22
  21.50      128.3      89.02
  21.50      130.9      93.10
  21.50      132.9      72.96
  21.50      135.0      47.41
  21.50      137.9      32.66
  21.50      138.6      15.90
  21.50      140.6      11.76      2.628
  21.50      142.9      26.77
  21.50      145.6      59.23      10.17
  21.50      147.7      92.70
  21.50      149.5      151.5
  21.50      151.7      191.0
  21.50      153.9      183.1
  21.50      156.6      161.1
  21.50      157.9      106.2
  21.50      159.6      68.99
  21.50      161.8      14.78
  21.50      163.5      9.199
  21.50      166.1      32.27
  21.50      168.0      116.5
  21.50      170.3      348.6
  21.50      172.0      594.8
  21.50      174.2      587.1
  20.10      13.23      4875.      902.1
  20.10      16.01      3060.
  20.10      19.57      1205.
  20.10      22.63      247.4
  20.10      23.94      181.3
  20.10      25.60      138.7      21.08
  20.10      28.52      162.3      24.67
  20.10      31.96      225.1      41.66
  20.10      34.91      165.1
  20.10      38.46      70.79
  20.10      40.40      20.11      3.387
  20.10      43.79      6.403      1.078
  20.10      46.38      36.55
  20.10      49.25      69.19
  20.10      52.33      98.72
  20.10      55.61      106.1
  20.10      58.93      78.99
  20.10      61.52      51.01
  20.10      64.51      25.18
  20.10      67.29      15.81      2.403
  20.10      69.70      11.43      1.737
  20.10      72.96      16.54      2.514
  20.10      75.69      18.29
  20.10      78.62      17.31
  20.10      81.33      23.66
  20.10      83.90      22.08
  20.10      86.48      16.66      3.939
  20.10      89.06      13.30      2.022
  20.10      91.99      12.24      2.264
  20.10      94.75      10.05
  20.10      96.95      9.782      1.647
  20.10      99.31      12.28
  20.10      104.2      17.79
  20.10      107.5      19.40
  20.10      109.9      21.14
  20.10      112.3      12.19
  20.10      114.5      11.05      1.862
  20.10      116.5      14.07
  20.10      119.0      27.80
  20.10      121.3      45.67
  20.10      123.8      69.91
  20.10      126.2      84.13
  20.10      128.4      85.43
  20.10      130.9      90.52
  20.10      132.8      76.46
  20.10      134.3      30.93
  20.10      137.3      17.34
  20.10      138.5      8.083
  20.10      141.1      18.92
  20.10      143.1      45.53
  20.10      145.7      103.6      14.07
  20.10      147.7      135.7      27.41
  20.10      150.1      226.1
  20.10      152.2      226.4      38.13
  20.10      154.6      211.2
  20.10      156.3      183.5      37.05
  20.10      158.0      102.8
  20.10      159.7      45.28
  20.10      161.3      13.61
  20.10      163.8      36.70
  20.10      165.8      140.9      28.46
  20.10      168.0      252.0
  20.10      170.3      526.6
  20.10      172.4      1268.
  20.10      174.0      1637.      302.9
ENDDATA            192
ENDSUBENT          199
SUBENT        F0356005   20030717   20031024
BIB                  2          2
REACTION   (10-NE-20(A,EL)10-NE-20,,DA)
STATUS     (CURVE) Fig.4
ENDBIB               2
NOCOMMON             0          0
DATA                 4        306
EN         ANG-CM     DATA-CM    ERR-S
MEV        ADEG       MB/SR      MB/SR
  23.00      14.52      3240.
  23.00      17.78      743.2
  23.00      20.87      269.3
  23.00      24.18      254.1
  23.00      27.67      280.7
  23.00      29.87      229.7
  23.00      32.59      79.74
  23.00      36.45      68.09
  23.00      38.24      16.78      2.577
  23.00      41.04      67.06
  23.00      44.53      68.96
  23.00      47.65      54.05
  23.00      50.39      35.70
  23.00      52.92      8.425
  23.00      56.17      1.494     0.4109
  23.00      59.15      6.323      1.291
  23.00      61.01      11.69
  23.00      64.14      15.99
  23.00      66.88      9.024
  23.00      69.61      4.415     0.7514
  23.00      72.18      3.131     0.5331
  23.00      75.46      1.488     0.2043
  23.00      78.03      1.385     0.2128
  23.00      80.25      2.283     0.5056
  23.00      83.19      2.558     0.3929
  23.00      86.13      2.380     0.4052
  23.00      88.33      2.279     0.4265
  23.00      91.10      2.783
  23.00      94.04      2.903     0.4459
  23.00      96.61      2.625     0.3603
  23.00      98.79      1.614     0.2747
  23.00      101.4      1.524     0.2851
  23.00      103.8      1.942
  23.00      108.4      3.199     0.8219
  23.00      112.1      3.385     0.6332
  23.00      113.7      3.106     0.4771
  23.00      115.9      2.081     0.3892
  23.00      118.5      1.752     0.3577
  23.00      120.3      1.279     0.2611
  23.00      122.5      1.242     0.2324
  23.00      125.1     0.8939     0.2137
  23.00      127.1      1.296     0.2869
  23.00      130.0      1.431     0.3421
  23.00      132.1      2.196     0.4485
  23.00      134.2      1.222     0.3584
  23.00      136.1     0.9581     0.1956
  23.00      138.6     0.6237     0.1491
  23.00      140.5     0.8538     0.2041
  23.00      142.9      1.203     0.2048
  23.00      144.9      1.152     0.1960
  23.00      147.3      1.168     0.1988
  23.00      149.5     0.6781     0.1742
  23.00      151.3     0.3995     0.1321
  23.00      153.7     0.4051     0.1496
  23.00      155.7      1.010     0.2416
  23.00      158.1      1.182     0.2826
  23.00      160.5      1.251     0.3214
  23.00      162.2     0.9002     0.2313
  23.00      164.4     0.7912     0.2617
  23.00      166.2     0.7157     0.2643
  23.00      168.4      1.863     0.8385
  23.00      170.9      5.843      1.607
  22.50      14.80      3568.
  22.50      17.31      835.1
  22.50      20.76      292.2
  22.50      23.51      260.3
  22.50      26.83      309.0
  22.50      30.12      248.9
  22.50      32.46      74.39
  22.50      34.78      12.16
  22.50      38.10      19.24
  22.50      40.90      55.69
  22.50      44.03      66.12
  22.50      47.15      56.41
  22.50      49.34      37.16
  22.50      52.60      11.93
  22.50      55.10      2.284     0.3911
  22.50      58.25      3.828
  22.50      61.03      7.409
  22.50      63.64      19.39
  22.50      66.94      13.92
  22.50      69.12      7.720
  22.50      71.83      2.821
  22.50      74.37      1.316     0.1817
  22.50      78.06      1.703     0.2632
  22.50      80.10      2.775
  22.50      83.06      4.268
  22.50      85.99      4.026
  22.50      87.63      2.434     0.4168
  22.50      90.55      1.580     0.2706
  22.50      93.12      1.513     0.2591
  22.50      95.70      2.074     0.4260
  22.50      98.29      2.802     0.4331
  22.50      100.9      3.280     0.5618
  22.50      102.9      2.192     0.3027
  22.50      108.4      2.009     0.4476
  22.50      111.2      2.526     0.4326
  22.50      112.8      2.713     0.4647
  22.50      115.4      2.831     0.4375
  22.50      117.6      3.994     0.8902
  22.50      120.4      4.609     0.9467
  22.50      122.6      3.262     0.6140
  22.50      124.4      2.000     0.4457
  22.50      126.9      1.915     0.3604
  22.50      129.1     0.8197     0.1971
  22.50      132.1     0.9189     0.2713
  22.50      133.6      1.996     0.3757
  22.50      135.8      2.053     0.4575
  22.50      138.1      2.237     0.4209
  22.50      140.5      2.267     0.3883
  22.50      142.8      2.693     0.6001
  22.50      144.9     0.9426     0.1936
  22.50      146.9     0.8278     0.1279
  22.50      149.3     0.8273     0.1844
  22.50      151.5      1.011     0.3175
  22.50      153.2      1.875     0.4848
  22.50      155.6      2.102     0.6208
  22.50      157.8      1.873     0.4842
  22.50      160.2      2.192     0.5274
  22.50      162.0     0.9799     0.3263
  22.50      164.7     0.6936     0.2444
  22.50      166.1      1.485     0.4945
  22.50      168.3      6.158      1.704
  22.50      170.4      13.18      2.938
  21.90      18.31      1413.
  21.90      20.82      431.7
  21.90      23.74      235.1
  21.90      26.70      413.1
  21.90      29.62      274.2
  21.90      32.89      114.2
  21.90      35.19      17.24
  21.90      37.91      9.127      2.474
  21.90      41.05      12.26      2.059
  21.90      44.24      46.81
  21.90      47.39      83.41
  21.90      50.32      67.44
  21.90      52.66      27.71
  21.90      55.74      11.22
  21.90      58.45      3.527     0.8312
  21.90      61.05      6.374      1.502
  21.90      63.84      13.08
  21.90      66.42      17.83
  21.90      69.36      16.60
  21.90      71.53      7.965
  21.90      74.85      9.695      1.952
  21.90      77.55      2.920     0.5387
  21.90      80.62     0.9845     0.3395
  21.90      83.00     0.8307     0.2252
  21.90      85.61      1.935     0.3896
  21.90      87.84      3.306     0.7220
  21.90      90.59      3.036     0.6629
  21.90      96.09      2.385     0.5207
  21.90      98.64      1.245     0.2090
  21.90      101.2     0.5116     0.1387
  21.90      103.7     0.3164     0.1533
  21.90      108.4      2.093     0.5300
  21.90      111.0      3.194     0.6429
  21.90      113.6      3.623     0.6684
  21.90      115.6      2.509     0.5480
  21.90      118.1      2.473     0.5827
  21.90      120.5      1.618     0.4098
  21.90      122.3      1.687     0.2833
  21.90      125.1      1.290     0.3266
  21.90      127.1     0.8682     0.2046
  21.90      129.7      1.363     0.3940
  21.90      131.7      2.534     0.5533
  21.90      134.1      3.129     0.6298
  21.90      136.1      2.640     0.5765
  21.90      138.7      2.458     0.3329
  21.90      140.6      2.164     0.4357
  21.90      142.7      1.437     0.2892
  21.90      147.5      1.561     0.3410
  21.90      149.5     0.8876     0.2894
  21.90      151.6      1.771     0.3867
  21.90      153.6      2.591     0.7022
  21.90      155.6      2.008     0.4043
  21.90      158.4      3.288      1.011
  21.90      160.2      2.936      1.125
  21.90      162.6      2.621     0.8544
  21.90      164.4      1.294     0.5998
  21.90      166.2     0.3843     0.2366
  21.90      168.6      1.107     0.6561
  21.90      170.5      2.578      1.359
  20.60      14.73      2787.
  20.60      17.58      770.7
  20.60      20.56      101.5
  20.60      23.16      149.0
  20.60      27.03      197.9
  20.60      29.98      200.5
  20.60      32.48      81.53
  20.60      35.17      27.93
  20.60      38.16      4.303     0.8036
  20.60      40.47      18.96
  20.60      44.00      33.02
  20.60      47.33      45.14
  20.60      50.08      41.98
  20.60      52.78      20.55
  20.60      55.09      6.371
  20.60      58.13      2.121     0.4689
  20.60      60.75      4.143
  20.60      63.74      8.444
  20.60      66.70      10.90
  20.60      69.64      11.20
  20.60      72.19      7.506
  20.60      74.89      3.780
  20.60      77.61      2.195
  20.60      80.11     0.7416     0.1385
  20.60      82.66     0.5335     0.1273
  20.60      85.20     0.3574     0.9166E-01
  20.60      87.76     0.3052     0.6747E-01
  20.60      90.72     0.3830     0.1051
  20.60      92.93     0.3993     0.1096
  20.60      95.65     0.2456     0.5004E-01
  20.60      98.40     0.2350     0.4388E-01
  20.60      100.4     0.2036     0.5961E-01
  20.60      103.5     0.1948     0.6431E-01
  20.60      107.9     0.2211     0.7300E-01
  20.60      110.8     0.4571     0.9316E-01
  20.60      112.8     0.6714     0.1368
  20.60      115.4     0.8307     0.2130
  20.60      117.6     0.8787     0.2097
  20.60      120.0     0.8531     0.1886
  20.60      122.2     0.7936     0.1617
  20.60      125.0     0.9818     0.2343
  20.60      127.0     0.8385     0.2150
  20.60      129.3     0.6479     0.1433
  20.60      131.6     0.6756     0.1612
  20.60      133.7     0.5372     0.1003
  20.60      135.6     0.4589     0.8569E-01
  20.60      138.3     0.4329     0.8084E-01
  20.60      140.3     0.3750     0.7643E-01
  20.60      142.7     0.3966     0.7407E-01
  20.60      144.6      1.259     0.2565
  20.60      147.2      1.294     0.2860
  20.60      149.6      1.349     0.3219
  20.60      150.9      2.455     0.4172
  20.60      153.1      2.710     0.5523
  20.60      155.5      2.282     0.4260
  20.60      157.5      1.789     0.4268
  20.60      159.9      2.032     0.4848
  20.60      162.1      1.304     0.2883
  20.60      164.3      1.503     0.4400
  20.60      166.5      1.523     0.4741
  20.60      168.2      4.251      1.015
  20.60      170.6      5.040      1.476
  20.20      20.74      4013.
  20.20      23.25      1750.
  20.20      26.78      3050.
  20.20      29.91      3318.
  20.20      32.81      2068.
  20.20      35.26      441.7
  20.20      38.43      78.32      13.32
  20.20      41.22      118.3      22.12
  20.20      43.71      415.4
  20.20      46.88      788.8
  20.20      49.80      567.1
  20.20      52.70      385.1
  20.20      55.57      152.0
  20.20      58.06      53.51      10.00
  20.20      60.95      31.05      4.767
  20.20      63.77      67.05      12.54
  20.20      66.73      81.78
  20.20      69.67      91.54      18.68
  20.20      72.03      59.57
  20.20      75.33      56.98      8.748
  20.20      77.85      27.86      3.822
  20.20      80.38      17.37
  20.20      83.11      13.61      3.495
  20.20      85.41      4.335      1.036
  20.20      88.29      2.060     0.6422
  20.20      90.77      6.359      1.298
  20.20      93.76      12.07      2.464
  20.20      96.00      17.24      3.517
  20.20      98.74      15.58      2.912
  20.20      101.1      14.48      2.955
  20.20      103.8      8.054      1.924
  20.20      106.0      6.134      1.251
  20.20      108.4      8.755      2.406
  20.20      111.0      9.663      2.139
  20.20      113.6      7.790      1.861
  20.20      115.5      19.98      5.129
  20.20      118.6      18.31      3.423
  20.20      120.3      26.90      4.576
  20.20      122.9      28.45      5.804
  20.20      125.2      24.63      5.885
  20.20      127.4      20.43      4.523
  20.20      129.4      18.21      4.351
  20.20      131.4      13.48      2.520
  20.20      134.2      12.53      2.343
  20.20      135.8      6.972      1.916
  20.20      138.2      12.15      2.904
  20.20      140.8      11.47      2.144
  20.20      142.5      28.58      6.326
  20.20      144.7      23.04      5.505
  20.20      147.1      31.06      5.285
  20.20      149.0      34.79      8.312
  20.20      151.7      43.05      6.609
  20.20      153.6      28.42      6.294
  20.20      156.1      33.69      9.259
  20.20      158.1      16.48      5.449
  20.20      160.2      9.432      4.241
  20.20      161.9      10.72      4.168
  20.20      164.3      9.019      3.870
  20.20      166.2      24.14      6.634
  20.20      168.3      71.40      23.61
  20.20      170.6      185.7      57.89
ENDDATA            308
ENDSUBENT          315
ENDENTRY             5
