ENTRY            F0371   20220601   20221017   20221011       F091
SUBENT        F0371001   20220601   20221017   20221011       F091
BIB                  9         11
TITLE      Energy dependence of the cross section for the
           d + 10B - 3alpha and p + 11B - 3alpha reactions
AUTHOR     (V.Valkovic,D.Miljanic,R.B.Liebert,G.C.Phillips)
INSTITUTE  (1USARIC)
REFERENCE  (J,NP/A,239,260,1975)
FACILITY   (VDG,1USARIC)
SAMPLE     Self-supported 10B targets.
METHOD     (COINC)
DETECTOR   (SOLST) Three solid state detectors.
HISTORY    (19851227C)
           (20220601A) SD: Corrections in all Subents.
ENDBIB              11
NOCOMMON             0          0
ENDSUBENT           14
SUBENT        F0371002   20220601   20221017   20221011       F091
BIB                  6         10
REACTION   (5-B-10(D,A)4-BE-8,PAR,DA)
MONITOR    ((MONIT)5-B-10(D,P)5-B-11,PAR,DA)
MONIT-REF  (,M.Croissiaux,J,APH,13,409,1960) The relative cross
           sections were determined.
           (,L.L.Lee+,J,BAP,10,510,1965) The absolute cross
           sections were determined.
ERR-ANALYS (DATA-ERR) No information about source of uncertainty
STATUS     (CURVE) Fig.4 from Nucl.Phys.,A239(1975)260
HISTORY    (20220601A) SD: SF9=EXP deleted from REACTION code.
           EN-ERR -> EN-ERR-DIG.
ENDBIB              10
COMMON               6          3
E-LVL      ANG-NRM    E-LVL-NRM  EN-NRM     EN-ERR-DIG MONIT
MEV        ADEG       MEV        MEV        MEV        MB/SR
 0.0         70.       0.            4.        0.01      1.230
ENDCOMMON            3
DATA                 4        199
ANG        EN         DATA       DATA-ERR
ADEG       MEV        MB/SR      MB/SR
        20.       2.50      0.598      0.009
        20.       2.55      0.724      0.009
        20.       2.59      0.696      0.009
        20.       2.66      0.780      0.009
        20.       2.70      0.794      0.084
        20.       2.74      0.794      0.084
        20.       2.81      0.780      0.056
        20.       2.85      0.752      0.070
        20.       2.90      0.850      0.070
        20.       2.94      0.934      0.084
        20.       2.99      0.906      0.070
        20.       3.05      0.934      0.056
        20.       3.09      0.976      0.098
        20.       3.14      1.004      0.098
        20.       3.23      1.131      0.140
        20.       3.29      1.243      0.154
        20.       3.33      1.285      0.070
        20.       3.38      1.187      0.084
        20.       3.45      1.243      0.070
        20.       3.50      1.144      0.098
        20.       3.53      1.186      0.084
        20.       3.58      1.172      0.140
        20.       3.63      1.186      0.084
        20.       3.69      1.046      0.098
        20.       3.76      1.228      0.098
        20.       3.81      1.074      0.098
        20.       3.85      1.102      0.112
        20.       3.90      1.059      0.098
        20.       3.94      1.130      0.112
        20.       4.05      1.101      0.112
        20.       4.06      1.143      0.098
        20.       4.13      1.270      0.126
        20.       4.20      1.115      0.070
        20.       4.24      1.101      0.098
        20.       4.29      1.059      0.098
        20.       4.34      1.241      0.126
        20.       4.40      1.199      0.112
        20.       4.45      1.269      0.112
        20.       4.49      1.241      0.126
        40.       2.50      0.836      0.055
        40.       2.57      0.933      0.069
        40.       2.59      0.975      0.069
        40.       2.66      1.044      0.056
        40.       2.70      1.003      0.069
        40.       2.75      1.072      0.042
        40.       2.79      1.099      0.083
        40.       2.85      1.030      0.055
        40.       2.89      1.044      0.042
        40.       2.96      1.196      0.069
        40.       3.01      1.141      0.069
        40.       3.05      1.127      0.056
        40.       3.09      1.210      0.083
        40.       3.14      1.168      0.083
        40.       3.25      1.265      0.069
        40.       3.30      1.279      0.083
        40.       3.36      1.265      0.097
        40.       3.44      1.196      0.111
        40.       3.46      1.154      0.083
        40.       3.49      1.306      0.097
        40.       3.54      1.140      0.111
        40.       3.60      1.375      0.125
        40.       3.64      1.154      0.083
        40.       3.70      1.167      0.097
        40.       3.74      1.431      0.083
        40.       3.78      1.334      0.083
        40.       3.85      1.334      0.111
        40.       3.89      1.209      0.111
        40.       3.93      1.250      0.083
        40.       3.97      1.319      0.125
        40.       4.04      1.430      0.139
        40.       4.09      1.500      0.152
        40.       4.14      1.541      0.125
        40.       4.18      1.597      0.139
        40.       4.24      1.402      0.069
        40.       4.29      1.472      0.111
        40.       4.33      1.777      0.125
        40.       4.39      1.735      0.125
        40.       4.43      1.624      0.111
        40.       4.51      1.638      0.139
        70.       2.52      0.968      0.007
        70.       2.56      0.968      0.007
        70.       2.61      0.981      0.007
        70.       2.67      1.008      0.007
        70.       2.71      0.981      0.007
        70.       2.76      1.022      0.007
        70.       2.80      1.021      0.055
        70.       2.81      0.994      0.068
        70.       2.85      0.994      0.068
        70.       2.91      1.035      0.055
        70.       2.95      1.048      0.055
        70.       3.00      1.048      0.055
        70.       3.04      1.103      0.041
        70.       3.11      1.102      0.041
        70.       3.15      1.130      0.055
        70.       3.20      1.143      0.068
        70.       3.24      1.211      0.041
        70.       3.30      1.170      0.068
        70.       3.35      1.211      0.068
        70.       3.46      1.252      0.041
        70.       3.50      1.279      0.068
        70.       3.54      1.320      0.068
        70.       3.60      1.251      0.068
        70.       3.64      1.251      0.068
        70.       3.70      1.319      0.082
        70.       3.74      1.333      0.055
        70.       3.79      1.292      0.055
        70.       3.86      1.305      0.041
        70.       3.90      1.319      0.055
        70.       3.94      1.305      0.055
        70.       3.99      1.332      0.055
        70.       4.04      1.414      0.068
        70.       4.08      1.427      0.055
        70.       4.14      1.509      0.068
        70.       4.19      1.454      0.082
        70.       4.25      1.509      0.082
        70.       4.31      1.549      0.055
        70.       4.33      1.604      0.096
        70.       4.39      1.658      0.082
        70.       4.45      1.549      0.096
        70.       4.49      1.494      0.109
       130.       2.52      1.113      0.055
       130.       2.56      1.058      0.083
       130.       2.60      1.030      0.069
       130.       2.66      1.016      0.069
       130.       2.70      0.906      0.055
       130.       2.75      0.864      0.055
       130.       2.79      0.864      0.055
       130.       2.85      0.712      0.041
       130.       2.89      0.726      0.055
       130.       2.94      0.754      0.069
       130.       2.98      0.629      0.041
       130.       3.02      0.629      0.055
       130.       3.08      0.602      0.055
       130.       3.14      0.588      0.055
       130.       3.24      0.560      0.055
       130.       3.29      0.532      0.055
       130.       3.33      0.519      0.009
       130.       3.40      0.518      0.041
       130.       3.45      0.532      0.055
       130.       3.49      0.560      0.041
       130.       3.53      0.518      0.041
       130.       3.60      0.587      0.055
       130.       3.65      0.560      0.055
       130.       3.69      0.587      0.069
       130.       3.74      0.574      0.069
       130.       3.80      0.587      0.069
       130.       3.85      0.601      0.083
       130.       3.88      0.615      0.055
       130.       3.93      0.587      0.069
       130.       3.97      0.601      0.041
       130.       4.05      0.725      0.055
       130.       4.09      0.725      0.041
       130.       4.13      0.794      0.097
       130.       4.17      0.766      0.055
       130.       4.24      0.683      0.055
       130.       4.28      0.725      0.069
       130.       4.32      0.808      0.083
       130.       4.39      0.822      0.069
       130.       4.44      0.766      0.041
       130.       4.49      0.835      0.083
       150.       2.49      0.882      0.011
       150.       2.56      0.937      0.041
       150.       2.60      0.855      0.011
       150.       2.65      0.950      0.041
       150.       2.70      0.801      0.011
       150.       2.74      0.747      0.011
       150.       2.80      0.774      0.041
       150.       2.82      0.733      0.041
       150.       2.88      0.720      0.054
       150.       2.94      0.774      0.041
       150.       2.98      0.693      0.054
       150.       3.04      0.693      0.054
       150.       3.09      0.706      0.041
       150.       3.14      0.774      0.054
       150.       3.20      0.720      0.027
       150.       3.24      0.720      0.054
       150.       3.28      0.707      0.054
       150.       3.35      0.748      0.054
       150.       3.40      0.720      0.027
       150.       3.45      0.720      0.041
       150.       3.48      0.680      0.054
       150.       3.53      0.748      0.041
       150.       3.57      0.693      0.041
       150.       3.65      0.707      0.068
       150.       3.68      0.734      0.054
       150.       3.73      0.762      0.054
       150.       3.79      0.775      0.054
       150.       3.83      0.762      0.068
       150.       3.88      0.816      0.068
       150.       3.92      0.803      0.041
       150.       3.97      0.789      0.054
       150.       4.04      0.830      0.054
       150.       4.07      0.844      0.095
       150.       4.13      0.939      0.054
       150.       4.19      0.952      0.068
       150.       4.21      1.020      0.054
       150.       4.28      0.980      0.068
       150.       4.32      1.156      0.068
       150.       4.37      1.170      0.082
ENDDATA            201
ENDSUBENT          220
SUBENT        F0371003   20220601   20221017   20221011       F091
BIB                  7         13
REACTION   (5-B-11(P,EL)5-B-11,,DA)
MONITOR    ((MONIT)5-B-11(P,A)4-BE-8,PAR,DA)
MONIT-REF  (,K.L.Warsh+,J,NC/B,55,443,1968)
           (,W.B.Thompson+,C,69MONTRL,,154,1969)
ERR-ANALYS (DATA-ERR) No information about source of uncertainty
COMMENT    The monit value has been determined from the
           consideration of the 11B(p,alpha0) angular distribution
           measurement at Ep=10.0 MeV (,K.L.Warsh+, see REL-REF)
           and excitation function measurements for sigma(lab)=
           52 and 82 degr. (W.B.Thompson+,C,69MONTRL,154,1969)
STATUS     (CURVE) Fig.6 from Nucl.Phys.,A239(1975)260
HISTORY    (20220601A) SD: SF9=EXP deleted from REACTION code.
           EN-ERR -> EN-ERR-DIG.
ENDBIB              13
COMMON               6          3
ANG        EN-ERR-DIG EN-NRM     E-LVL-NRM  ANG-NRM    MONIT
ADEG       MEV        MEV        MEV        ADEG       MB/SR
  140.0     0.03        10.0      0.0         140.0     0.335
ENDCOMMON            3
DATA                 3         35
EN         DATA       DATA-ERR
MEV        MB/SR      MB/SR
       7.49      20.15       0.42
       7.58      15.81       0.42
       7.71      14.61       0.42
       7.76      11.45       0.34
       7.88      12.21       0.34
       7.98      17.82       0.34
       8.08      19.17       0.17
       8.28      17.54       0.09
       8.40      18.97       0.26
       8.49      18.80       0.26
       8.59      16.15       0.26
       8.69      14.10       0.34
       8.74      14.52       0.34
       8.79      14.86       0.09
       8.84      15.11       0.09
       8.90      14.85       0.09
       8.93      15.95       0.34
       9.00      16.03       0.26
       9.07      15.52       0.34
       9.09      14.92       0.25
       9.13      14.83       0.09
       9.20      15.16       0.26
       9.24      13.89       0.42
       9.31      13.80       0.17
       9.35      13.79       0.09
       9.40      14.13       0.09
       9.51      12.84       0.26
       9.58      13.18       0.34
       9.69      11.89       0.42
       9.80      11.37       0.34
       9.90       9.75       0.26
       9.99       9.74       0.42
      10.13       9.22       0.42
      10.29       9.72       0.42
      10.54       9.44       0.26
ENDDATA             37
ENDSUBENT           59
SUBENT        F0371004   20220601   20221017   20221011       F091
BIB                  7         13
REACTION   (5-B-11(P,INL)5-B-11,PAR,DA)
MONITOR    ((MONIT)5-B-11(P,A)4-BE-8,PAR,DA)
MONIT-REF  (,K.L.Warsh+,J,NC/B,55,443,1968)
           (,W.B.Thompson+,C,69MONTRL,,154,1969)
ERR-ANALYS (DATA-ERR) No information about source of uncertainty
COMMENT    The monit value has been determined from the
           consideration of the 11B(p,alpha0) angular distribution
           measurement at Ep=10.0 MeV (,K.L.Warsh+, see REL-REF)
           and excitation function measurements for sigma(lab)=
           52 and 82 degr. (W.B.Thompson+,C,69MONTRL,154,1969)
STATUS     (CURVE) Fig.6 from Nucl.Phys.,A239(1975)260
HISTORY    (20220601A) SD: SF9=EXP deleted from REACTION code.
           EN-ERR -> EN-ERR-DIG.
ENDBIB              13
COMMON               7          6
E-LVL      ANG        EN-ERR-DIG EN-NRM     E-LVL-NRM  ANG-NRM
MONIT
MEV        ADEG       MEV        MEV        MEV        ADEG
MB/SR
  2.120      140.0     0.03        10.0      0.0         140.0
 0.335
ENDCOMMON            6
DATA                 3         35
EN         DATA       DATA-ERR
MEV        MB/SR      MB/SR
       7.51      3.507      0.106
       7.59      3.907      0.191
       7.71      4.794      0.169
       7.83      4.325      0.175
       7.91      3.646      0.106
       8.01      3.389      0.127
       8.08      3.240      0.169
       8.30      2.875      0.127
       8.41      2.935      0.106
       8.50      2.827      0.148
       8.61      2.761      0.127
       8.69      3.014      0.085
       8.76      3.012      0.127
       8.80      2.905      0.085
       8.87      2.883      0.064
       8.92      3.114      0.085
       8.97      3.346      0.127
       9.00      3.409      0.106
       9.05      3.535      0.105
       9.13      3.300      0.106
       9.18      3.447      0.106
       9.22      3.298      0.085
       9.24      3.234      0.085
       9.32      2.787      0.105
       9.39      2.786      0.106
       9.44      2.679      0.063
       9.50      2.508      0.106
       9.62      2.654      0.106
       9.70      2.419      0.064
       9.81      2.310      0.085
       9.90      2.012      0.106
      10.01      2.073      0.085
      10.13      2.091      0.106
      10.33      2.086      0.106
      10.52      2.379      0.085
ENDDATA             37
ENDSUBENT           62
ENDENTRY             4
