ENTRY            F0380   20220420   20220916   20220913       F089
SUBENT        F0380001   20220420   20220916   20220913       F089
BIB                 10         21
TITLE      14C production by the reaction 11B(alpha,p)14C
AUTHOR     (R.A.Dayras,Z.E.Switkowski,T.A.Tombrello)
INSTITUTE  (1USACAL)
REFERENCE  (J,NP/A,261,365,1976)
FACILITY   (VDGT,1USACAL)
SAMPLE     Most of the data were taken with 20 ug/cm2 target,
           vacuum evaporated by electron beam bombardment of
           97.15% isotopically enriched 11B onto a 20 ug/cm2
           carbon backing. The reaction cross section was
           determined absolutely from the measurements on a
           self-supporting 11B target (20.2+-0.6 ug/cm2 of 11B
           and 4.7+-0.2 ug/cm2 of oxygen).
DETECTOR   (SIBAR) Four silicon surface-barrier detectors.
           An additional fixed-position detector located at
           22.5 degr. was used as a monitor.
METHOD     (BCINT)
ERR-ANALYS (ERR-1) Error in target thickness
           (ERR-2) Error in beam current integration
           (ERR-T,,10.) Total error
HISTORY    (19860129C)
           (20220420A) SD: Corrections in all Subents.
ENDBIB              21
COMMON               2          3
ERR-1      ERR-2
PER-CENT   PER-CENT
  5.0        5.0
ENDCOMMON            3
ENDSUBENT           28
SUBENT        F0380002   20220420   20220916   20220913       F089
BIB                  4          5
REACTION   (5-B-11(A,P)6-C-14,PAR,DA)
ERR-ANALYS (ERR-S) Statistical error
STATUS     (CURVE) Fig 2 from Nucl.Phys.,A261(1976)365
HISTORY    (20220420A) SD: SF9=EXP deleted from REACTION code.
           ANG-ERR -> ANG-ERR-D; DATA-ERR -> ERR-S.
ENDBIB               5
COMMON               2          3
E-LVL      ANG-ERR-D
MEV        ADEG
 0.           1.0
ENDCOMMON            3
DATA                 4         51
EN         ANG-CM     DATA-CM    ERR-S
MEV        ADEG       MB/SR      MB/SR
      1.572        3.9     1.0140     0.0080
      1.572       16.8     0.9823     0.0080
      1.572       39.5     0.7757     0.0080
      1.572       50.3     0.6417     0.0080
      1.572       60.2     0.5692     0.0080
      1.572       79.0     0.4654     0.0080
      1.572       90.8     0.4236     0.0080
      1.572      108.7     0.4738     0.0080
      1.572      126.6     0.5341     0.0080
      1.572      139.5     0.5641     0.0080
      1.572      152.4     0.5735     0.0080
      1.572      166.3     0.6136     0.0080
      2.032        5.1     0.1660     0.0061
      2.032       16.0     0.1587     0.0061
      2.032       38.6     0.1270     0.0071
      2.032       50.4     0.1004     0.0031
      2.032       66.2     0.0840     0.0051
      2.032       82.0     0.0686     0.0041
      2.032       96.8     0.0655     0.0051
      2.032      110.7     0.0593     0.0041
      2.032      126.5     0.0541     0.0031
      2.032      139.4     0.0418     0.0041
      2.032      152.2     0.0336     0.0041
      2.032      168.1     0.0284     0.0020
      2.333        5.4     0.0064     0.0010
      2.333       17.3     0.0047     0.0006
      2.333       35.1     0.0047     0.0012
      2.333       49.1     0.0096     0.0012
      2.333       66.3     0.0198     0.0016
      2.333       81.3     0.0244     0.0016
      2.333      101.4     0.0373     0.0024
      2.333      112.3     0.0383     0.0029
      2.333      126.2     0.0364     0.0020
      2.333      140.0     0.0329     0.0020
      2.333      152.8     0.0295     0.0024
      2.333      161.5     0.0231     0.0018
      2.634        1.9     3.7600     0.0408
      2.634        6.8     3.7190     0.0612
      2.634       18.4     3.3100     0.0715
      2.634       34.8     2.5440     0.0613
      2.634       50.3     1.9720     0.0714
      2.634       66.2     2.1240     0.0510
      2.634       73.1     2.0320     0.0713
      2.634       83.3     2.3670     0.0613
      2.634       97.2     2.4580     0.0612
      2.634      107.0     2.3350     0.0612
      2.634      113.0     2.3040     0.0510
      2.634      126.8     2.2420     0.0612
      2.634      140.7     2.2820     0.0917
      2.634      154.7     2.4230     0.0613
      2.634      162.8     2.6880     0.0715
ENDDATA             53
ENDSUBENT           67
SUBENT        F0380003   20220420   20220916   20220913       F089
BIB                  4          5
REACTION   (5-B-11(A,P)6-C-14,PAR,DA,,LEG/RS)
ERR-ANALYS (DATA-ERR) No information about source of uncertainty
STATUS     (CURVE) Fig 3 from Nucl.Phys.,A261(1976)365
HISTORY    (20220420A) SD: SF9=EXP deleted from REACTION code.
           EN-ERR -> EN-ERR-DIG; ERR-DIG added.
ENDBIB               5
COMMON               2          3
E-LVL      EN-ERR-DIG
MEV        MEV
 0.          0.004
ENDCOMMON            3
DATA                 5        301
NUMBER     EN         DATA-CM    ERR-DIG    DATA-ERR
NO-DIM     MEV        NO-DIM     NO-DIM     NO-DIM
         1.      1.431     -0.170      0.014      0.148
         1.      1.451      0.126      0.014
         1.      1.471      0.327      0.014
         1.      1.485      0.592      0.014
         1.      1.495      0.761      0.014
         1.      1.515      0.835      0.014
         1.      1.531      0.518      0.014
         1.      1.557      0.317      0.014
         1.      1.572      0.212      0.014
         1.      1.598      0.149      0.014
         1.      1.613      0.106      0.014
         1.      1.638      0.086      0.014
         1.      1.654      0.022      0.014
         1.      1.674      0.075      0.014
         1.      1.689      0.001      0.014
         1.      1.709     -0.020      0.014
         1.      1.735     -0.051      0.014
         1.      1.755      0.002      0.014
         1.      1.775     -0.051      0.014
         1.      1.796     -0.071      0.014
         1.      1.811     -0.008      0.014
         1.      1.831     -0.061      0.014
         1.      1.851     -0.018      0.014
         1.      1.871     -0.060      0.014
         1.      1.887     -0.018      0.014
         1.      1.912      0.035      0.014
         1.      1.932      0.067      0.014
         1.      1.952      0.131      0.014
         1.      1.972      0.332      0.014
         1.      1.997      0.470      0.014
         1.      2.007      0.681      0.014
         1.      2.032      0.692      0.014      0.032
         1.      2.053      0.216      0.014
         1.      2.059     -0.101      0.014
         1.      2.075     -0.513      0.014      0.064
         1.      2.110     -0.354      0.014      0.053
         1.      2.130     -0.365      0.014
         1.      2.151     -0.460      0.014
         1.      2.166     -0.534      0.014
         1.      2.186     -0.608      0.014
         1.      2.212     -0.618      0.014
         1.      2.232     -0.649      0.014
         1.      2.252     -0.670      0.014      0.042
         1.      2.273     -0.712      0.014
         1.      2.298     -0.681      0.014
         1.      2.313     -0.712      0.014
         1.      2.333     -0.691      0.014
         1.      2.353     -0.606      0.014
         1.      2.373     -0.437      0.014
         1.      2.398     -0.267      0.014
         1.      2.423      0.029      0.014
         1.      2.448      0.262      0.014
         1.      2.457      0.558      0.014
         1.      2.482      0.781      0.014
         1.      2.502      0.781      0.014      0.042
         1.      2.517      0.834      0.014
         1.      2.543      0.739      0.014
         1.      2.563      0.538      0.014
         1.      2.574      0.337      0.014
         1.      2.600      0.211      0.014
         1.      2.620      0.126      0.014
         1.      2.630      0.071      0.014
         1.      2.640      0.031      0.014
         1.      2.661     -0.021      0.014
         1.      2.676     -0.106      0.014
         1.      2.697     -0.169      0.014
         1.      2.717     -0.264      0.014
         1.      2.732     -0.349      0.014
         1.      2.763     -0.380      0.014      0.042
         1.      2.773     -0.454      0.014
         1.      2.799    -0.5172      0.014
         1.      2.824    -0.5487      0.014
         1.      2.844    -0.5803      0.014
         1.      2.865    -0.6224      0.014
         1.      2.885    -0.6645      0.014
         1.      2.905    -0.6643      0.014
         1.      2.920    -0.6853      0.014
         1.      2.946    -0.6956      0.014
         2.      1.425     0.6529     0.0083     0.0834
         2.      1.450     0.6009     0.0083
         2.      1.470     0.6947     0.0083
         2.      1.490     0.7989     0.0083     0.0417
         2.      1.505     0.6532     0.0083
         2.      1.530     0.5179     0.0083
         2.      1.550     0.5179     0.0083
         2.      1.565     0.4451     0.0083
         2.      1.590     0.4868     0.0083
         2.      1.605     0.4348     0.0083
         2.      1.625     0.4036     0.0083
         2.      1.640     0.3828     0.0083
         2.      1.660     0.4246     0.0729     0.0729
         2.      1.679     0.3101     0.0083
         2.      1.709     0.2998     0.0083
         2.      1.729     0.3207     0.0083
         2.      1.744     0.2686     0.0083
         2.      1.769     0.2479     0.0083
         2.      1.784     0.2480     0.0083
         2.      1.804     0.3418     0.0083
         2.      1.829     0.3210     0.0083
         2.      1.849     0.3419     0.0083
         2.      1.869     0.2899     0.0083
         2.      1.884     0.2483     0.0083
         2.      1.904     0.3942     0.0083     0.0729
         2.      1.919     0.2901     0.0083
         2.      1.944     0.2277     0.0083
         2.      1.964     0.2069     0.0083
         2.      1.984     0.2278     0.0083
         2.      2.004     0.2488     0.0083
         2.      2.023     0.2697     0.0625     0.0625
         2.      2.039     0.1968     0.0083
         2.      2.064     0.0511     0.0083
         2.      2.084    -0.1364     0.0083
         2.      2.104    -0.1779     0.0083
         2.      2.124    -0.1466     0.0083
         2.      2.139    -0.2612     0.0083
         2.      2.164    -0.4173     0.0083
         2.      2.188    -0.3339     0.0083
         2.      2.208    -0.3442     0.0083
         2.      2.224    -0.3754     0.0083
         2.      2.243    -0.4587     0.0625     0.0625
         2.      2.263    -0.4169     0.0083
         2.      2.288    -0.4794     0.0083
         2.      2.303    -0.4897     0.0083
         2.      2.318    -0.5313     0.0083
         2.      2.338    -0.5208     0.0083
         2.      2.363    -0.5207     0.0083     0.0729
         2.      2.383    -0.4686     0.0083
         2.      2.408     -0.156     0.0083
         2.      2.423    -0.1664     0.0833     0.0833
         2.      2.442     0.1982     0.0083
         2.      2.462     0.3337     0.0083
         2.      2.507     0.5943     0.0083     0.0521
         2.      2.517     0.5631     0.0083
         2.      2.542     0.4694     0.0083
         2.      2.562     0.3237     0.0083
         2.      2.582     0.1779     0.0083
         2.      2.597     0.0946     0.0083
         2.      2.612     0.0530     0.0083     0.0417
         2.      2.622     0.1572     0.0083
         2.      2.637     0.3135     0.0083
         2.      2.641     0.4802     0.0083
         2.      2.661     0.7927     0.0083
         2.      2.676     0.9386     0.0083
         2.      2.741     0.6159     0.0083     0.0417
         2.      2.761     0.5431     0.0083
         2.      2.781     0.4494     0.0083
         2.      2.796     0.4078     0.0083
         2.      2.821     0.3767     0.0083
         2.      2.841     0.3455     0.0083
         2.      2.866     0.3456     0.0083
         2.      2.881     0.2936     0.0083
         2.      2.901     0.2728     0.0083
         2.      2.921     0.2833     0.0083     0.0417
         3.      1.434     0.5272     0.0077     0.1277
         3.      1.442     0.8145     0.0077     0.0851
         3.      1.473     0.7299     0.0077
         3.      1.494     0.5389     0.0077
         3.      1.511     0.1458     0.0077
         3.      1.531     0.0185     0.0077     0.2021
         3.      1.551     0.1146     0.0077
         3.      1.571     0.1468     0.0077
         3.      1.616     0.1901     0.0077
         3.      1.631     0.1903     0.0077
         3.      1.651     0.2119     0.0077
         3.      1.672     0.1697     0.0077
         3.      1.687     0.2125     0.0077
         3.      1.706     0.3298     0.0077
         3.      1.732     0.2664     0.0077
         3.      1.752     0.2987     0.0077
         3.      1.772     0.3628     0.0077
         3.      1.787     0.3418     0.0077
         3.      1.807     0.4059     0.0077     0.0851
         3.      1.827     0.3744     0.0077
         3.      1.847     0.3960     0.0077
         3.      1.872     0.4070     0.0077
         3.      1.892     0.4712     0.0077
         3.      1.907     0.4927     0.0077
         3.      1.933     0.3974     0.0077
         3.      1.953     0.4615     0.0077
         3.      1.968     0.5787     0.0077     0.0638
         3.      1.988     0.4834     0.0077
         3.      2.013     0.4626     0.0077
         3.      2.024     0.2607     0.0077
         3.      2.045     0.0484     0.0077
         3.      2.066    -0.0150     0.0077
         3.      2.090     0.1768     0.0077     0.1063
         3.      2.111     0.1027     0.0077
         3.      2.136     0.1244     0.0077
         3.      2.151     0.0821     0.0077
         3.      2.166     0.0505     0.0077
         3.      2.186     0.1358     0.0077
         3.      2.201     0.0617     0.0077
         3.      2.227     0.0834     0.0077
         3.      2.246     0.1688     0.0077     0.1064
         3.      2.266     0.2329     0.0077
         3.      2.286     0.2545     0.0077
         3.      2.306     0.2973     0.0077
         3.      2.331     0.3828     0.0077
         3.      2.356     0.4683     0.0077
         3.      2.371     0.5642     0.0077
         3.      2.391     0.5433     0.0077      0.085
         3.      2.411     0.6606     0.0077
         3.      2.426     0.6928     0.0077
         3.      2.472     0.5234     0.0077
         3.      2.497     0.4919     0.0077     0.0638
         3.      2.503     0.2688     0.0077
         3.      2.533     0.2374     0.0077
         3.      2.554     0.2165     0.0077
         3.      2.569     0.1529     0.0077
         3.      2.594     0.1959     0.0077
         3.      2.614     0.1856     0.0077
         3.      2.629     0.1752     0.0077
         3.      2.645     0.1967     0.0077
         3.      2.659     0.2395     0.0077     0.0424
         3.      2.675     0.2185     0.0077
         3.      2.695     0.1444     0.0077
         3.      2.711     0.0702     0.0077
         3.      2.731     0.0493     0.0077
         3.      2.756    -0.0247     0.0077     0.1383
         3.      2.771    -0.0351     0.0077
         3.      2.796     0.0504     0.0077
         3.      2.817    -0.0450     0.0077
         3.      2.842    -0.0020     0.0077
         3.      2.852    -0.0337     0.0077
         3.      2.872    -0.0865     0.0077
         3.      2.892    -0.0862     0.0077
         3.      2.913    -0.0752     0.0077
         3.      2.933    -0.0749     0.0077     0.0745
         4.      1.431     0.0036     0.0109
         4.      1.456     0.0039     0.0109
         4.      1.476    -0.0062     0.0109
         4.      1.496     0.0045     0.0109
         4.      1.516     0.0047     0.0109
         4.      1.536     0.0050     0.0109
         4.      1.556     0.0053     0.0109
         4.      1.576     0.0056     0.0109
         4.      1.596     0.0058     0.0109
         4.      1.616     0.0061     0.0109
         4.      1.636     0.0168     0.0109
         4.      1.656     0.0171     0.0109
         4.      1.671     0.0068     0.0109
         4.      1.691     0.0176     0.0109
         4.      1.711     0.0074     0.0109
         4.      1.731    -0.0028     0.0109
         4.      1.746     0.0079     0.0109
         4.      1.771    -0.0022     0.0109
         4.      1.791     0.0085     0.0109
         4.      1.811    -0.0017     0.0109
         4.      1.831    -0.0014     0.0109
         4.      1.851    -0.0012     0.0109
         4.      1.871     0.0096     0.0109
         4.      1.891     0.0098     0.0109
         4.      1.911     0.0101     0.0109
         4.      1.926    -0.0001     0.0109
         4.      1.946     0.0001     0.0109
         4.      1.976     0.0527     0.0109
         4.      1.991    -0.0306     0.0109
         4.      2.011     0.0532     0.0109
         4.      2.031     0.0535     0.0109
         4.      2.071    -0.0086     0.0109
         4.      2.111    -0.0394     0.0109
         4.      2.131    -0.0809     0.0109
         4.      2.151    -0.0806     0.0109
         4.      2.171     0.0971     0.0109
         4.      2.191    -0.0383     0.0109
         4.      2.226     0.0353     0.0109
         4.      2.246     0.0564     0.0109     0.0731
         4.      2.266    -0.0164     0.0109
         4.      2.286     0.0882     0.0109
         4.      2.301     0.0676     0.0109
         4.      2.326     0.0784     0.0109
         4.      2.346     0.1099     0.0109
         4.      2.366     0.0998     0.0109
         4.      2.386     0.1209     0.0109
         4.      2.406     0.0690     0.0109
         4.      2.431     0.2155     0.0109
         4.      2.451     0.2888     0.0109
         4.       2.47     0.3204     0.0109
         4.       2.49     0.3728     0.0109     0.0626
         4.      2.506     0.3209     0.0109
         4.      2.526     0.2689     0.0109
         4.      2.546     0.2483     0.0109
         4.      2.561     0.2277     0.0109
         4.      2.606     0.2491     0.0109
         4.      2.631     0.2912     0.0109
         4.       2.64     0.4271     0.0109
         4.       2.65     0.4585     0.0109
         4.       2.67     0.4484     0.0109     0.0208
         4.      2.681     0.3963     0.0109
         4.      2.706     0.2714     0.0109
         4.      2.726     0.2195     0.0109
         4.      2.746     0.1780     0.0109     0.0731
         4.      2.766     0.1365     0.0109
         4.      2.786     0.0950     0.0109
         4.      2.807     0.0744     0.0109
         4.      2.827     0.0329     0.0109
         4.      2.847     0.0958     0.0109
         4.      2.872     0.0753     0.0109
         4.      2.887     0.0964     0.0109
         4.      2.902     0.0966     0.0109
         4.      2.922     0.0342     0.0109     0.1566
ENDDATA            303
ENDSUBENT          317
SUBENT        F0380004   20220420   20220916   20220913       F089
BIB                  4          5
REACTION   (5-B-11(A,P)6-C-14,PAR,SIG)
ERR-ANALYS (ERR-S) Error from graphic bars (statistic)
STATUS     (CURVE) Fig 4 from Nucl.Phys.,A261(1976)365
HISTORY    (20220420A) SD: SF9=EXP deleted from REACTION code.
           Data were re-digitized from fig.4.
ENDBIB               5
COMMON               3          3
E-LVL      EN-ERR-DIG ERR-DIG
MEV        MEV        MB
        0.0    0.0017    0.0050
ENDCOMMON            3
DATA                 3         94
EN         DATA       ERR-S
MEV        MB         MB
     1.4460     0.3757
     1.4845     1.9965
     1.5262     3.4252     0.0384
     1.5472     5.8851     0.0448
     1.5702     7.3905     0.0705
     1.5863     5.5906     0.0577
     1.6073     3.5922     0.0384
     1.6264     2.4328
     1.6469     1.7027
     1.6908     1.0688
     1.7080     0.9151
     1.7283     0.8064
     1.7502     0.6848
     1.7752     0.6401
     1.7877     0.6145
     1.8080     0.5570
     1.8298     0.5379
     1.8486     0.5380
     1.8704     0.5061
     1.8907     0.5126
     1.9110     0.4999
     1.9313     0.5320
     1.9500     0.5577
     1.9718     0.5899
     1.9905     0.6668
     2.0108     0.7630
     2.0326     0.9489
     2.0514     0.7568
     2.0576     0.6288
     2.0702     0.4559
     2.0905     0.3919
     2.1108     0.3920
     2.1311     0.3665
     2.1498     0.3538
     2.1748     0.3411
     2.1904     0.3348
     2.2122     0.3157
     2.2325     0.3030
     2.2497     0.3095
     2.2700     0.2904
     2.2949     0.2969
     2.3137     0.2970
     2.3339     0.3228
     2.3558     0.3101
     2.3777     0.2910
     2.3948     0.3103
     2.4121     0.3280
     2.4135     0.3040
     2.4338     0.3618
     2.4339     0.3598
     2.4541     0.4259
     2.4558     0.4551
     2.4728     0.5477
     2.4761     0.5186
     2.4930     0.7848
     2.4948     0.7727
     2.5119     1.2174
     2.5338     2.1385
     2.5541     4.2984
     2.5619     7.2841
     2.5728     8.8722
     2.5931    16.1140
     2.5962    17.1620
     2.6024    19.9570
     2.6071    21.4190
     2.6118    22.2440
     2.6133    24.5630
     2.6180    26.3740
     2.6227    27.1360
     2.6258    28.5020
     2.6289    28.7870
     2.6336    29.3590
     2.6367    30.0580
     2.6492    30.2490
     2.6492    29.6130
     2.6524    29.0730
     2.6602    28.9460
     2.6617    26.4370
     2.6630    28.4380
     2.6633    23.8960
     2.6773    23.3560
     2.6976    17.6390
     2.7148    13.3830
     2.7351    10.9370
     2.7554     9.2852
     2.7757     8.2053
     2.7897     7.7289
     2.8147     7.1254
     2.8365     6.6807
     2.8568     6.2043
     2.8787     6.0137
     2.8958     5.9820
     2.9161     5.9185
     2.9364     6.1726
ENDDATA             96
ENDSUBENT          110
ENDENTRY             4
