ENTRY            F1111   20110404   20120328   20120328       F044
SUBENT        F1111001   20110404   20120328   20120328       F044
BIB                  9         13
TITLE      Investigation of the (p,p') reaction with excitation of
           the 5.15 and 5.24 MeV levels in Al-27.
AUTHOR     (S.S.Vasilev,T.N.Mihaleva,D.L.Chuprunov)
INSTITUTE  (4RUSMOS)
REFERENCE  (J,IZV,30,214,1966)
           (J,BAS,30,1460,1967)    English translation
FACILITY   (CYCLO,4RUSMOS) 120 cm cyclotron.
DETECTOR   (SCIN)  Scintillation spectrometer.
SAMPLE     Al target with the thickness of 3.6 mu thick was used.
ERR-ANALYS (ANG-ERR-D)  Angle digitizing error
           (ERR-DIG)    Data digitizing error
           (DATA-ERR)   Error from the graphic bars
HISTORY    (20110404C)
ENDBIB              13
COMMON               2          3
ANG-ERR-D  ERR-DIG
ADEG       MB/SR
 0.4825     0.0129
ENDCOMMON            3
ENDSUBENT           20
SUBENT        F1111002   20110404   20120328   20120328       F044
BIB                  2          2
REACTION   (13-AL-27(P,INL)13-AL-27,PAR,DA)
STATUS     (CURVE) Fig.1
ENDBIB               2
NOCOMMON             0          0
DATA                 5         63
E-LVL      EN         ANG-CM     DATA-CM    DATA-ERR
MEV        MEV        ADEG       MB/SR      MB/SR
       5.15       6.28     33.747     5.7132
       5.15       6.28     46.775     4.4571    0.89649
       5.15       6.28     61.644     4.4771    0.87925
       5.15       6.28     75.832     2.4109
       5.15       6.28     91.014     3.6378
       5.15       6.28     106.14      2.089    0.36204
       5.15       6.28     122.41     2.9368
       5.15       6.28      137.5     4.7499
       5.15       6.38     31.333     3.4544
       5.15       6.38     76.042     4.9731
       5.15       6.38     91.313     4.2409
       5.15       6.38     122.29     6.0732    0.64535
       5.15       6.38     137.05     5.2189
       5.15       6.38     151.83      3.981
       5.15       6.46     45.557     1.1579
       5.15       6.46     75.614     1.5964    0.24998
       5.15       6.46     90.517     1.0157
       5.15       6.46     106.34     1.0685    0.25010
       5.15       6.46     122.13     1.2878
       5.15       6.46     135.96     1.0069
       5.15       6.55     33.041     2.6219
       5.15       6.55     46.255     1.0361
       5.15       6.55      75.09     1.8475
       5.15       6.55     91.765     2.9516
       5.15       6.55     106.46     2.4693
       5.15       6.55     122.18     1.6768    0.39655
       5.15       6.55     136.38     1.0566
       5.15       6.63     31.622     2.3414
       5.15       6.63     62.523     3.4349
       5.15       6.63     74.651     1.7424    0.52991
       5.15       6.63      91.87     2.0328    0.49572
       5.15       6.63     105.03     1.6223    0.58119
       5.15       6.63     122.28     4.0836    0.68376
       5.15       6.63     136.94     2.8013
       5.15       6.63     152.13     2.8865    0.61538
       5.24       6.28     31.517     3.5229
       5.24       6.28      44.92     3.1408
       5.24       6.28     60.905     2.5327
       5.24       6.28     76.381     1.7507    0.48696
       5.24       6.28     89.802     0.8294
       5.24       6.28     122.23     1.4741
       5.24       6.28     138.16     2.5182    0.53913
       5.24       6.38     32.629     4.3601    0.68376
       5.24       6.38     46.038     2.0187    0.41026
       5.24       6.38     75.761     2.6181
       5.24       6.38     92.127     3.9862
       5.24       6.38     106.55     2.0551
       5.24       6.55     33.052      4.519    0.67240
       5.24       6.55     47.377     2.6923    0.48275
       5.24       6.55     76.901     2.0043
       5.24       6.55      91.16     1.5568
       5.24       6.55     106.38     2.1783
       5.24       6.55     123.65     2.5931
       5.24       6.55     137.87     3.0766    0.58620
       5.24       6.63      31.62     3.2683
       5.24       6.63     46.253     2.6701
       5.24       6.63     61.893     2.1507
       5.24       6.63     77.037     1.2219
       5.24       6.63     92.161     1.2852
       5.24       6.63     106.78     1.2067
       5.24       6.63      121.9     1.7739
       5.24       6.63      136.5     2.6088
       5.24       6.63     152.63     2.9556    0.55118
ENDDATA             65
ENDSUBENT           72
ENDENTRY             2
