ENTRY            F1198   20171114   20180118   20180115       F066
SUBENT        F1198001   20171114   20180118   20180115       F066
BIB                  9         12
TITLE      Excitation of isobaric analogue states in the
           Al-27(d,n)Si-28 reaction.
AUTHOR     (B.Lawergren,G.C.Morrison,A.T.G.Ferguson)
INSTITUTE  (2UK HAR,1USAANL)
REFERENCE  (J,NP/A,106,455,1968)
           #doi:10.1016/0375-9474(67)90890-1
FACILITY   (ACCEL,2UK HAR) 3 MeV pulsed accelerator IBIS was used.
DETECTOR   Neutron detector was used.
METHOD     (TOF)
ERR-ANALYS (ERR-DIG)    Data digitizing error
HISTORY    (20140821C)
           (20171114U) REFERENCE was corrected: 1967->1968.
ENDBIB              12
COMMON               1          3
EN
MEV
      2.980
ENDCOMMON            3
ENDSUBENT           19
SUBENT        F1198002   20140821   20141203   20141128       F055
BIB                  6          6
REACTION   (13-AL-27(D,N)14-SI-28,,DA/DE,,REL)
COMMENT    Relative units represent relative intensity.
EN-SEC     (E,N) Neutron energy
SAMPLE     A target with the thickness of 150 mu-g/cm2 was used.
ERR-ANALYS (E-ERR-DIG)  Energy digitizing error
STATUS     (CURVE) Fig.1
ENDBIB               6
COMMON               3          3
ANG        E-ERR-DIG  ERR-DIG
ADEG       PER-CENT   ARB-UNITS
 0.         0.45       0.74536
ENDCOMMON            3
DATA                 2        521
E          DATA
MEV        ARB-UNITS
     0.5709    0.28883
     0.5758    0.28846
     0.5810    0.34547
     0.5849    0.29823
     0.5857    0.23036
     0.5921    0.33945
     0.5969    0.24520
     0.6003    0.35451
     0.6015    0.40660
     0.6055    0.34372
     0.6090    0.47911
     0.6095    0.28084
     0.6131    0.44231
     0.6160    0.34820
     0.6206    0.43658
     0.6218    0.48867
     0.6230    0.55118
     0.6326    0.48794
     0.6349    0.54516
     0.6374    0.64412
     0.6429    0.63854
     0.6434    0.78980
     0.6468    0.83130
     0.6521    0.73184
     0.6560    0.89331
     0.6625    0.78856
     0.6627    0.86679
     0.6676    0.57434
     0.6687    0.92902
     0.6727    0.72531
     0.6771    0.66243
     0.6782    0.63106
     0.6820    0.72994
     0.6857    0.77666
     0.6875    0.97479
     0.6917    1.17800
     0.6964    1.52720
     0.6981    1.67840
     0.7027    1.97030
     0.7029    2.02770
     0.7091    2.43940
     0.7133    2.23050
     0.7149    1.96960
     0.7169    1.84420
     0.7192    1.41110
     0.7200    1.27540
     0.7218    0.68059
     0.7226    0.93616
     0.7269    0.35163
     0.7286    0.48717
     0.7313    0.17921
     0.7328    0.25216
     0.7350    0.14770
     0.7465    0.14183
     0.7505    0.19376
     0.7560    0.25606
     0.7584    0.20376
     0.7651    0.23469
     0.7728    0.18209
     0.7731    0.25511
     0.7738    0.09335
     0.7794    0.14000
     0.7836    0.19716
     0.7901    0.12898
     0.7928    0.11319
     0.7970    0.14427
     0.8014    0.20142
     0.8095    0.14883
     0.8191    0.08051
     0.8196    0.23177
     0.8262    0.10101
     0.8296    0.23647
     0.8379    0.15258
     0.8439    0.19923
     0.8527    0.20923
     0.8573    0.24552
     0.8621    0.34962
     0.8670    0.44328
     0.8705    0.58396
     0.8752    0.63590
     0.8787    0.73486
     0.8812    0.97993
     0.8905    1.38120
     0.8913    1.58460
     0.8973    1.92340
     0.9012    2.12150
     0.9034    2.25700
     0.9085    1.98030
     0.9107    1.77670
     0.9112    1.14020
     0.9141    1.07750
     0.9173    0.72782
     0.9233    0.63885
     0.9254    0.39356
     0.9294    0.18993
     0.9323    0.13241
     0.9375    0.21043
     0.9393    0.24686
     0.9474    0.24650
     0.9488    0.19948
     0.9535    0.14189
     0.9636    0.19883
     0.9708    0.30285
     0.9753    0.19310
     0.9876    0.29169
     0.9906    0.19244
     1.0006    0.14506
     1.0025    0.18672
     1.0148    0.20707
     1.0236    0.20149
     1.0255    0.23793
     1.0343    0.21148
     1.0416    0.25292
     1.0467    0.19532
     1.0577    0.22096
     1.0760    0.19937
     1.0814    0.15743
     1.0910    0.20922
     1.0964    0.15163
     1.0969    0.25594
     1.1064    0.26601
     1.1175    0.17169
     1.1276    0.27042
     1.1298    0.31729
     1.1416    0.31685
     1.1491    0.24875
     1.1557    0.36328
     1.1613    0.30048
     1.1691    0.25846
     1.1735    0.31568
     1.1749    0.20086
     1.1832    0.24230
     1.1838    0.34661
     1.1961    0.35139
     1.1987    0.45042
     1.2026    0.39812
     1.2094    0.49700
     1.2174    0.43933
     1.2275    0.35551
     1.2351    0.20396
     1.2461    0.26097
     1.2550    0.31284
     1.2562    0.13543
     1.2565    0.19280
     1.2763    0.21822
     1.2921    0.26987
     1.2940    0.20721
     1.3055    0.25900
     1.3143    0.22220
     1.3285    0.31043
     1.3449    0.35686
     1.3490    0.26283
     1.3493    0.31499
     1.3680    0.30919
     1.3777    0.35062
     1.3873    0.36076
     1.4014    0.30817
     1.4096    0.45921
     1.4185    0.32330
     1.4261    0.37003
     1.4435    0.37473
     1.4437    0.40603
     1.4555    0.30656
     1.4625    0.22810
     1.4658    0.34278
     1.4755    0.27990
     1.4889    0.36298
     1.4986    0.27402
     1.5041    0.32604
     1.5151    0.40398
     1.5233    0.46114
     1.5295    0.59139
     1.5507    0.95598
     1.5603    0.79922
     1.5607    0.85659
     1.5646    0.65824
     1.5717    0.51720
     1.5739    0.44932
     1.5866    0.31334
     1.5901    0.42280
     1.5991    0.52168
     1.6024    0.60506
     1.6166    0.64642
     1.6255    0.70880
     1.6321    0.84426
     1.6442    0.94829
     1.6512    0.74465
     1.6590    0.65054
     1.6637    0.51479
     1.6711    0.35288
     1.6848    0.26384
     1.6902    0.21154
     1.7104    0.16409
     1.7112    0.26840
     1.7255    0.20545
     1.7371    0.16864
     1.7438    0.24674
     1.7563    0.30382
     1.7597    0.35590
     1.7786    0.41806
     1.7936    0.37075
     1.7969    0.40719
     1.8067    0.45391
     1.8133    0.50592
     1.8434    0.70347
     1.8458    0.61472
     1.8660    0.35864
     1.8667    0.44731
     1.8846    0.27475
     1.8916    0.33197
     1.8952    0.36320
     1.9025    0.44650
     1.9182    0.36790
     1.9340    0.27365
     1.9402    0.22656
     1.9497    0.15854
     1.9610    0.29393
     1.9777    0.26227
     1.9782    0.31443
     1.9979    0.22011
     2.0077    0.16773
     2.0254    0.20387
     2.0390    0.15664
     2.0643    0.20829
     2.0778    0.12976
     2.0928    0.19206
     2.1142    0.16032
     2.1297    0.25392
     2.1363    0.17032
     2.1478    0.21182
     2.1708    0.27919
     2.1862    0.32063
     2.2007    0.26296
     2.2126    0.30447
     2.2208    0.36170
     2.2254    0.43986
     2.2338    0.50230
     2.2508    0.65327
     2.2527    0.84104
     2.2841    1.22130
     2.2856    0.99172
     2.3024    0.70970
     2.3031    0.40710
     2.3141    0.31822
     2.3175    0.26599
     2.3450    0.20288
     2.3537    0.26011
     2.3781    0.25446
     2.3951    0.30633
     2.4169    0.39985
     2.4226    0.16499
     2.4285    0.31617
     2.4405    0.26380
     2.4624    0.33124
     2.4873    0.26821
     2.5000    0.25234
     2.5178    0.29899
     2.5359    0.36129
     2.5617    0.31391
     2.5739    0.21981
     2.5820    0.15707
     2.5967    0.26117
     2.6141    0.21393
     2.6238    0.27116
     2.6424    0.31260
     2.6457    0.20821
     2.6554    0.24979
     2.6620    0.41662
     2.6869    0.56230
     2.7134    0.45233
     2.7204    0.64003
     2.7358    0.73891
     2.7575    0.95768
     2.7609    0.84807
     2.7781    0.70695
     2.7870    0.27904
     2.8068    0.31526
     2.8297    0.21057
     2.8456    0.30424
     2.8512    0.35633
     2.8739    0.20470
     2.8845    0.26193
     2.9003    0.32430
     2.9352    0.30293
     2.9360    0.36030
     2.9570    0.41217
     2.9576    0.45389
     2.9850    0.58392
     3.0067    0.65665
     3.0475    0.59348
     3.0563    0.46815
     3.0609    0.42114
     3.0655    0.37412
     3.0752    0.31139
     3.0798    0.26437
     3.1019    0.32145
     3.1164    0.21170
     3.1333    0.26364
     3.1761    0.21612
     3.1784    0.36737
     3.1917    0.15331
     3.2201    0.21032
     3.2426    0.22046
     3.2830    0.29297
     3.2874    0.20944
     3.3037    0.15706
     3.3160    0.21951
     3.3346    0.30796
     3.3446    0.21393
     3.3685    0.26058
     3.3927    0.31766
     3.3994    0.36974
     3.4390    0.26492
     3.4576    0.31686
     3.4927    0.26426
     3.5114    0.30055
     3.5245    0.35778
     3.5434    0.39929
     3.5566    0.45651
     3.5575    0.51389
     3.5890    0.55525
     3.6144    0.59147
     3.6357    0.74251
     3.6406    0.65898
     3.6845    0.64282
     3.6999    0.79915
     3.7143    0.89289
     3.7305    1.09090
     3.7579    1.17930
     3.7697    1.48700
     3.7754    1.44000
     3.7982    1.25190
     3.8022    1.10580
     3.8158    0.76133
     3.8440    0.86535
     3.8530    0.99568
     3.8614    1.09470
     3.9051    1.29250
     3.9110    1.24550
     3.9233    1.17750
     3.9444    0.84861
     3.9534    0.59810
     3.9935    0.54029
     3.9977    0.76979
     4.0129    0.84266
     4.0495    0.94662
     4.0509    1.01960
     4.0645    1.36900
     4.1016    1.47300
     4.1114    1.98930
     4.1344    2.82380
     4.1462    3.43930
     4.1858    4.74830
     4.2185    5.31140
     4.2307    4.44530
     4.2479    4.58070
     4.2688    4.52310
     4.3046    4.83580
     4.3089    0.95442
     4.3130    6.00430
     4.3141    2.33160
     4.3191    0.34916
     4.3376    6.48920
     4.3555    0.29664
     4.4008    0.30142
     4.4073    0.24397
     4.4679    0.21731
     4.4994    0.24831
     4.5067    0.22216
     4.5699    0.25287
     4.5926    0.20571
     4.6028    0.31517
     4.6423    0.29916
     4.6676    0.35631
     4.7171    0.40282
     4.7399    0.32436
     4.7548    0.26162
     4.7891    0.32392
     4.8206    0.25061
     4.8554    0.31291
     4.8728    0.34405
     4.8823    0.39092
     4.9101    0.50024
     4.9317    0.70351
     4.9422    0.79210
     4.9725    0.99530
     4.9977    1.34460
     5.0009    1.48020
     5.0226    1.67310
     5.0692    2.17870
     5.0822    2.73160
     5.1324    2.99720
     5.1371    2.07380
     5.1416    1.14520
     5.1549    0.58686
     5.1855    0.37794
     5.1919    0.26833
     5.2159    0.52376
     5.2862    0.43451
     5.3061    0.50217
     5.3572    0.34004
     5.4147    0.41262
     5.4536    0.46970
     5.4875    0.31815
     5.5050    0.26063
     5.5306    0.14567
     5.6178    0.17630
     5.6286    0.21796
     5.6668    0.19159
     5.6896    0.31140
     5.7611    0.40478
     5.7933    0.49323
     5.8350    0.55031
     5.8575    0.63883
     5.9158    0.54451
     5.9597    0.65375
     6.0059    0.46040
     6.0199    0.21511
     6.1013    0.14151
     6.1365    0.26647
     6.1984    0.19822
     6.2244    0.35977
     6.2661    0.31253
     6.2718    0.51073
     6.3244    0.45300
     6.3654    0.35882
     6.4213    0.38453
     6.4731    0.25899
     6.5516    0.25848
     6.5873    0.31563
     6.6213    0.31020
     6.6351    0.38836
     6.7049    0.41400
     6.7208    0.55476
     6.7719    0.70051
     6.7925    0.61169
     6.8217    0.42370
     6.9129    0.31359
     6.9262    0.35524
     6.9521    0.41768
     6.9729    0.31844
     7.0344    0.35458
     7.1200    0.35929
     7.1234    0.46361
     7.2130    0.55698
     7.2301    0.69773
     7.2456    0.78633
     7.2598    0.83842
     7.3123    0.90593
     7.3635    0.55089
     7.4076    0.35239
     7.4188    0.30538
     7.4946    0.26843
     7.5232    0.34652
     7.5386    0.41425
     7.6132    0.30950
     7.6773    0.25698
     7.7171    0.25676
     7.8261    0.30833
     7.8517    0.27167
     7.9174    0.20872
     7.9977    0.15612
     7.9995    0.20307
     8.0944    0.14518
     8.1954    0.21769
     8.2036    0.06114
     8.2641    0.15995
     8.3233    0.21182
     8.3644    0.15944
     8.4538    0.22159
     8.5416    0.22115
     8.5485    0.02288
     8.6132    0.16342
     8.6705    0.10575
     8.7759    0.11045
     8.8848    0.16732
     8.9285    0.10972
     9.0548    0.16651
     9.1170    0.15579
     9.1469    0.11913
     9.2256    0.10834
     9.3537    0.10775
     9.4179    0.09703
     9.4817    0.06544
     9.5172    0.12789
     9.5683    0.16939
     9.6032    0.21097
     9.6821    0.11672
     9.7181    0.17395
     9.7372    0.22604
     9.8408    0.27776
     9.9279    0.31912
    10.0310    0.30825
    10.1060    0.43314
    10.1620    0.51116
    10.2600    0.35424
    10.3250    0.23920
    10.3290    0.30701
    10.3550    0.10345
    10.4500    0.21261
    10.4830    0.16553
    10.5740    0.15473
    10.6070    0.10242
    10.7210    0.15936
    10.7920    0.10691
    10.7970    0.20601
    10.8500    0.15363
    11.0040    0.21042
    11.1160    0.16304
    11.1890    0.09495
    11.4020    0.06285
    11.4270    0.17231
    11.5630    0.11442
    11.6660    0.17143
    11.7030    0.10869
    11.8270    0.14998
    11.9680    0.10775
    12.0320    0.14925
    12.2210    0.16946
    12.3020    0.10658
    12.4310    0.11657
ENDDATA            523
ENDSUBENT          538
SUBENT        F1198003   20140821   20141203   20141128       F055
BIB                  4          6
REACTION   (13-AL-27(D,N)14-SI-28,PAR,DA)
SAMPLE     A target with the thickness of 500 keV was used.
ERR-ANALYS (ANG-ERR-D)  Angle digitizing error
           (DATA-ERR)   Error from the graphic bars, no source of
                        uncertainties is given
STATUS     (CURVE) Fig.2
ENDBIB               6
COMMON               3          3
E-LVL      ANG-ERR-D  ERR-DIG
MEV        ADEG       MB/SR
 1.77       0.246      0.0007
ENDCOMMON            3
DATA                 3         16
ANG-CM     DATA-CM    DATA-ERR
ADEG       MB/SR      MB/SR
      0.722     0.4488     0.0121
      9.531     0.4491     0.0079
     19.308     0.3818     0.0075
     29.549     0.3766     0.0079
     39.672     0.3885     0.0078
     49.469     0.3959     0.0071
     59.622     0.3540     0.0072
     69.683     0.3400     0.0088
     79.873     0.3136     0.0071
     89.949     0.3055     0.0075
     99.573     0.3066     0.0063
    109.520     0.3089     0.0067
    120.000     0.3396     0.0063
    130.260     0.3440     0.0065
    139.970     0.3810     0.0058
    150.250     0.3942     0.0083
ENDDATA             18
ENDSUBENT           33
SUBENT        F1198004   20140821   20141203   20141128       F055
BIB                  4          6
REACTION   (13-AL-27(D,N)14-SI-28,PAR,DA)
SAMPLE     A target with the thickness of 50 keV was used.
ERR-ANALYS (ANG-ERR-D)  Angle digitizing error
           (DATA-ERR)   Error from the graphic bars, no source of
                        uncertainties is given
STATUS     (CURVE) Fig.2
ENDBIB               6
COMMON               4          3
E-LVL      E-LVL      ANG-ERR-D  ERR-DIG
MEV        MEV        ADEG       MB/SR
 9.33       9.41       0.246      0.0007
ENDCOMMON            3
DATA                 3          9
ANG-CM     DATA-CM    DATA-ERR
ADEG       MB/SR      MB/SR
      0.910     9.4152     0.1937
      9.370     7.4101     0.2439
     19.042     3.3672     0.2224
     29.438     1.0679     0.1794
     39.359     0.9573     0.2081
     49.007     1.1410     0.2441
     59.969     1.6831     0.3373
     69.741     1.6372     0.3588
     99.818     1.2910     0.3014
ENDDATA             11
ENDSUBENT           26
ENDENTRY             4
