ENTRY            41417   20131212   20140228   20140214       4162
SUBENT        41417001   20131212   20140228   20140214       4162
BIB                 13         32
TITLE       Multipole mixtures gamma-transitions accompanying the
           the (n,n'gamma) reaction on 162-Dy .
AUTHOR     (L.I.Govor,A.M.Demidov, V.A.Kurkin)
INSTITUTE  (4RUSKUR)
REFERENCE  (J,YF,65,(5),819,2002)    Main reference, data given
           (J,PAN,65,785,2002) Engl.translation of YF,65,(5),819
REL-REF    (M,41234001,L.I.Govor+,J,YF,59,(10),1733,199610)
            Exp. details
           (M,,L.I.Govor+,J,PAN,59,1675,1996)
            Engl.translation of J,YF,59,(10),1733,1996
           (M,,A.M.Demidov,B,DEMIDOV,,70,1986) Exp. details
FACILITY   (REAC,4RUSKUR)  IR-8 Reactor of 4RUSKUR
INC-SOURCE (REAC)
INC-SPECT   Fast neutron spectrum of the thermal reactor
DETECTOR   (HPGE)   Germanium detectors, efficiency 10%,
                    resolution 2.1 keV at E-gamma=1.3 MeV
MONITOR    (66-DY-162(N,INL)66-DY-162,,SPC) At E-gamma=1195.109keV
COMMENT           Gamma energy was measured at the angle 90 deg
                  relative to neutron beam, intensity was measured
                  at 125 deg.
SAMPLE     .162-Dy2-O3 mass 10 gram, thickness 0.96 gram/cm2.
            Dy-162 enrichment is 95.2 %
            Dy-161 abundance  is 0.95 %
            Dy-163            is 3.12 %
            Dy-164            is 0.73 %
HISTORY    (20030117C)  + + Compiled at the Centre - CJD + +
           (20030117U) Last checking has been done.
           (20131126A) M.M. Upper -> lower case correction.
           Ref. J,YF,59,(10),1733,1996 was moved in REL-REF.
           Ref. and REL-REF of Engl.translations were added.
            STATUS was added in Subents 002-003.
            BIB information was updated.
ENDBIB              32
COMMON               1          3
EN-DUMMY
EV
     1.E+06
ENDCOMMON            3
ENDSUBENT           39
SUBENT        41417002   20131212   20140228   20140214       4162
BIB                  6         13
REACTION   ((66-DY-162(N,INL)66-DY-162,,SPC,,FIS)//
           (66-DY-162(N,INL)66-DY-162,,SPC,,FIS))  Relative to
            185.001 keV gamma line taken for 100.
EN-SEC     (E-DN,G)
           (E-NM,G)
            LVL-INI - initial level of 66-DY-162
ANALYSIS    Energies were measured at 90 deg. angle,
            relative intensities - at 125 deg.
ERR-ANALYS (DATA-ERR)  Error not specified
            E-DN-ERR - Error in denominator gamma-energy
            E-NM-ERR - Error in nominator gamma-energy
FLAG       (1.)   Initial level known indefinitely
STATUS     (TABLE) Table 1 of J,YF,65,(5),819,2002
ENDBIB              13
COMMON               2          3
E-DN       E-DN-ERR
KEV        KEV
    185.001       0.04
ENDCOMMON            3
DATA                 8        271
E-NM       E-NM-ERR   DATA       DATA-ERR   DATA-MAX   LVL-INI
LVL-INI    FLAG
KEV        KEV        NO-DIM     NO-DIM     NO-DIM     KEV
KEV        NO-DIM
  80.65         0.02      6.2 E-1    3.  E-2              80.6

 114.0          0.4                             0.50E-2 1297.0

 149.26         0.03                            0.90E-2

 185.001        0.004     1.         5.  E-2             265.7

 212.96         0.06      1.66E-2    0.10E-2            1570.8

 220.08         0.24      0.26E-2    0.04E-2

 233.00         0.05      0.18E-2    0.06E-2            1530.0
                 1.
 235.98         0.08      1.41E-2    0.09E-2            1297.0

 247.43         0.08      0.60E-2    0.10E-2            1210.1

 258.17         0.05      1.5 E-2    0.2 E-2            1895.5

 260.08         0.02      1.79E-1    0.9 E-2            1148.2

 282.88         0.02      1.55E-1    0.8 E-2             548.5

 289.4          0.3       0.16E-2    0.04E-2

 295.05         0.03      2.86E-2    0.15E-2            1570.8

 311.22         0.05      1.20E-2    0.08E-2            1669.1

 321.96         0.04      1.37E-2    0.08E-2            1210.1

 329.7          0.3       0.20E-2    0.04E-2

 334.074        0.013     5.97E-2    0.30E-2            1297.0

 347.49         0.05                            1.1 E-2 1408.5
 1530.0          1.
 361.4          0.3       0.19E-2    0.04E-2            1570.8
 1637.3
 372.20         0.09      1.65E-2    0.10E-2             920.7

 391.71         0.22      0.57E-2    0.05E-2            1574.3

 411.4          1.1       0.09E-2    0.03E-2

 443.7          0.5       0.17E-2    0.05E-2

 451.99         0.22      0.33E-2    0.04E-2            1634.5

 489.08         0.20      0.16E-2    0.04E-2

 523.5          0.3       0.24E-2    0.04E-2

 529.19         0.12      0.80E-2    0.06E-2            1739.1
 1826.6
 542.1          0.5       0.19E-2    0.05E-2

 543.54         0.10      1.12E-2    0.08E-2            1691.4
 1840.3
 551.1          0.6       0.27E-2    0.04E-2            1910.2

 556.33         0.19      0.45E-2    0.05E-2            1766.4

 565.77         0.22      0.27E-2    0.05E-2

 572.95         0.04      2.03E-2    0.11E-2            1535.7
 1634.5
 588.8          0.5       0.12E-2    0.05E-2            1863.8

 590.6          0.3       0.28E-2    0.05E-2            1739.1

 610.93         0.22                            0.39E-2

 616.2          0.5       0.17E-2    0.05E-2

 618.3          0.3       0.30E-2    0.06E-2            1766.4

 622.40         0.14      0.38E-2    0.04E-2             888.2

 630.48         0.22                            0.48E-2 1840.0

 632.4          0.4       0.22E-2    0.05E-2

 634.15         0.06      1.49E-2    0.09E-2            1182.7

 643.84         0.22      0.29E-2    0.05E-2            1826.6

 647.53         0.03      3.03E-2    0.16E-2            1535.7

 652.1          0.3       0.19E-2    0.04E-2

 654.1          0.4       0.18E-2    0.05E-2

 671.55         0.10      0.83E-2    0.06E-2            1634.5

 678.05         0.13      0.42E-2    0.04E-2            1739.1

 681.0          0.5       0.18E-2    0.05E-2

 684.8          0.2       0.16E-2    0.03E-2            1574.3

 694.19         0.16      0.57E-2    0.06E-2

 697.29         0.02      5.3 E-2    0.3 E-2             962.9

 711.69         0.13      0.60E-2    0.06E-2            2008.7

 714.5          0.3       0.40E-2    0.05E-2

 720.8          0.4       0.09E-2    0.03E-2

 728.40         0.13      0.82E-2    0.06E-2            1691.4

 747.24         0.13      0.51E-2    0.05E-2            1895.5
 2071.7
 748.96         0.13      0.58E-2    0.05E-2

 765.3          0.4       0.10E-2    0.04E-2            1826.7

 770.96         0.22      0.22E-2    0.04E-2            2128.8

 775.93         0.06      1.12E-2    0.07E-2            1324.5

 779.57         0.19      0.30E-2    0.05E-2            1840.4

 791.3          0.4       0.29E-2    0.04E-2

 795.315        0.010     9.6 E-2    0.5 E-2            1061.0

 801.3          0.6       0.12E-2    0.04E-2

 803.33         0.10                            1.0 E-2 1766.4

 807.502        0.010     2.71E-1    1.4 E-2             888.2

 812.8          0.3       0.17E-2    0.03E-2

 815.8          0.5       0.12E-2    0.03E-2

 819.76         0.13      0.40E-2    0.10E-2            1782.7

 834.2          0.4       0.15E-2    0.04E-2            1895.5

 842.27         0.07      1.41E-2    0.09E-2            1390.6

 849.50         0.25      0.41E-2    0.05E-2            1739.1
 1910.2
 853.8          0.4       0.09E-2    0.03E-2

 857.54         0.06      0.96E-2    0.06E-2            1745.8

 863.77         0.13      0.54E-2    0.05E-2            1836.6

 867.93         0.13                            0.70E-2

 872.7          0.4       0.16E-2    0.03E-2

 878.54         0.10      0.84E-2    0.06E-2            1766.4
 1840.6
 882.272        0.010     2.61E-1    1.3 E-2             962.9

 888.150        0.010     2.44E-1    1.2 E-2             888.2

 894.39         0.22      0.35E-2    0.05E-2            1782.8

 900.80         0.19      0.44E-2    0.05E-2            1863.8

 911.86         0.22      0.31E-2    0.04E-2            1973.0

 917.089        0.015     5.41E-2    0.28E-2            1182.7

 923.8          0.3       0.13E-2    0.03E-2            1886.8

 932.5          0.3       0.22E-2    0.04E-2            1895.0

 937.12         0.08      0.80E-2    0.06E-2            1485.6

 942.12         0.11      0.51E-2    0.05E-2            1490.6

 944.444        0.020     3.94E-2    0.20E-2            1210.1

 947.35         0.16      0.51E-2    0.05E-2            1910.2

 951.8          0.5       0.65E-3    0.26E-3            1840.6

 956.0          0.3       0.19E-2    0.04E-2

 957.3          0.6       0.13E-2    0.04E-2

 969.74         0.10      0.68E-2    0.05E-2            1518.4

 972.7          1.0       0.56E-3    0.28E-3

 975.64         0.06      1.26E-2    0.08E-2            1863.8

 980.352        0.020     5.11E-2    0.26E-2            1061.0

 992.75         0.29      0.15E-2    0.04E-2            2053.5

1007.0          0.4       0.27E-2    0.04E-2            1895.5

1010.09         0.19      0.51E-2    0.05E-2            1973.0

1015.0          0.3                             0.40E-2

1017.7          0.3       0.28E-2    0.05E-2

1022.07         0.16      0.38E-2    0.05E-2            1910.2

1025.74         0.19      0.39E-2    0.05E-2            1574.3

1041.6          0.5       0.24E-2    0.05E-2

1047.0          0.3       0.42E-2    0.06E-2

1058.76         0.16      0.59E-2    0.05E-2            1324.4

1073.2          0.4       0.30E-2    0.04E-2

1079.1          0.5       0.12E-2    0.03E-2

1082.0          0.6       0.07E-2    0.03E-2

1088.40         0.19      0.45E-2    0.05E-2            1636.9

1092.23         0.02      4.26E-2    0.22E-2            1357.9

1107.8          0.4       0.12E-2    0.04E-2            2071.7

1109.9          0.3       0.12E-2    0.04E-2

1114.3          0.4       0.23E-2    0.04E-2

1124.95         0.03      2.36E-2    0.13E-2            1390.6

1129.424        0.015     6.7 E-2    0.3 E-2            1210.1

1134.2          0.3       0.24E-2    0.5 E-2

1141.94         0.25      0.42E-2    0.04E-2

1152.9          0.6       0.19E-2    0.04E-2

1166.2          0.5       0.15E-2    0.04E-2

1169.2          0.5       0.13E-2    0.04E-2

1173.6          0.6       0.16E-2    0.04E-2

1178.4          0.6       0.20E-2    0.04E-2

1187.74         0.04      2.52E-2    0.13E-2            1453.4

1195.109        0.015     9.0 E-2    0.4 E-2            1275.8

1213.7          0.6       0.07E-2    0.03E-2

1217.76         0.13      0.69E-2    0.06E-2

1219.94         0.04      1.00E-2    0.11E-2            1485.6

1223.31         0.25      0.26E-2    0.05E-2

1227.8          0.6       0.21E-2    0.08E-2

1232.3          0.4       0.11E-2    0.03E-2

1252.79         0.06      1.44E-2    0.08E-2            1418.4

1257.3          0.9       0.09E-2    0.04E-2

1261.6          0.9       0.09E-2    0.04E-2

1267.6          0.6       0.14E-2    0.04E-2

1276.56         0.02      1.15E-1    0.6 E-2            1275.8
 1357.9
1284.6          0.5       0.13E-2    0.03E-2

1297.9          0.3       0.18E-2    0.03E-2

1308.64         0.06      1.78E-2    0.10E-2            1574.3

1312.3          0.3       0.28E-2    0.04E-2

1317.3          0.5       0.24E-2    0.05E-2

1319.65         0.04      2.44E-2    0.14E-2            1400.3

1330.0          0.3       0.15E-2    0.04E-2

1332.4          0.3       0.20E-2    0.04E-2

1342.56         0.19      0.33E-2    0.04E-2

1350.75         0.25      0.23E-2    0.04E-2

1355.5          0.3       0.23E-2    0.04E-2

1372.80         0.04      3.50E-2    0.18E-2            1453.4

1391.9          0.4       0.21E-2    0.05E-2

1394.5          0.4       0.34E-2    0.05E-2

1404.0          0.3       0.31E-2    0.04E-2            1669.1

1428.1          0.5       0.09E-2    0.04E-2

1438.6          0.3       0.28E-2    0.04E-2

1462.92         0.13      0.81E-2    0.06E-2            1728.6

1464.7          0.5       0.16E-2    0.04E-2

1468.9          1.5       0.10E-2    0.05E-2

1473.40         0.19      0.55E-2    0.05E-2            1739.1

1483.2          0.5       0.06E-2    0.03E-2

1489.5          0.4       0.20E-2    0.04E-2

1496.2          0.6       0.10E-2    0.04E-2

1501.5          0.4       0.09E-2    0.03E-2            1766.4

1516.6          0.3       0.14E-2    0.04E-2            1782.7

1556.67         0.10      1.65E-2    0.09E-2            1637.3

1574.82         0.25      0.22E-2    0.04E-2            1840.4

1585.62         0.10      1.09E-2    0.07E-2            1666.3

1602.1          0.3       0.33E-2    0.04E-2

1610.95         0.10      0.99E-2    0.07E-2            1691.4

1637.32         0.22      0.40E-2    0.04E-2            1637.3

1647.90         0.10      1.21E-2    0.07E-2            1728.6

1658.5          0.3       0.16E-2    0.04E-2            1739.1

1665.29         0.10      0.90E-2    0.06E-2            1615.3

1684.1          0.5       0.18E-2    0.04E-2

1686.76         0.29      0.35E-2    0.05E-2            1951.6

1698.3          0.5       0.57E-3    0.27E-3

1702.08         0.19      0.54E-2    0.05E-2            1702.1

1708.3          1.0       0.12E-2    0.05E-2            1708.3

1710.4          1.3       0.08E-2    0.05E-2

1716.0          0.7       0.17E-2    0.05E-2            1983.0

1722.8          0.4       0.20E-2    0.05E-2

1728.58         0.19      0.66E-2    0.06E-2            1728.6

1735.7          0.4       0.17E-2    0.04E-2            1816.4

1757.3          0.6       0.15E-2    0.04E-2            1837.0

1759.63         0.26      0.28E-2    0.04E-2            1759.6
 1840.6
1767.9          0.7       0.83E-3    0.24E-3

1773.80         0.19      0.46E-2    0.05E-2            1773.8

1782.8          0.2       0.61E-2    0.06E-2            1782.7

1787.56         0.22      0.41E-2    0.05E-2            2053.5

1798.2          0.4       0.20E-2    0.04E-2            1798.2

1806.15         0.09      1.29E-2    0.08E-2            1886.8

1814.92         0.09      1.22E-2    0.08E-2            2080.6

1832.36         0.22      0.19E-2    0.05E-2            1832.4

1837.04         0.13      0.31E-2    0.04E-2            1837.0

1871.00         0.22      0.31E-2    0.04E-2            1951.6

1902.29         0.12      1.09E-2    0.07E-2            1983.0

1918.80         0.13      1.00E-2    0.07E-2            1999.2

1940.3          0.5       0.17E-2    0.05E-2

1943.7          0.6       0.20E-2    0.05E-2

1950.6          0.3       0.38E-2    0.04E-2            1951.6
                 1.
1982.55         0.13      1.08E-2    0.07E-2            1983.0

1992.0          1.0       0.13E-2    0.04E-2

1999.98         0.16      1.00E-2    0.07E-2            1999.2

2022.1          0.3       0.38E-2    0.04E-2            2022.1

2047.79         0.19      0.50E-2    0.05E-2            2128.6

2067.92         0.16      0.56E-2    0.05E-2

2111.3          0.4       0.28E-2    0.04E-2            2192.0

2124.1          0.4       0.21E-2    0.03E-2

2135.8          0.4       0.12E-2    0.04E-2            2216.4

2233.3          0.5       0.30E-2    0.04E-2            2314.0

2240.4          0.4       0.35E-2    0.05E-2            2240.4

2274.7          1.2       0.23E-2    0.08E-2            2355.4

2290.4          0.7       0.27E-2    0.07E-2            2290.4

2305.9          0.8       0.38E-2    0.07E-2            2386.6

2310.4          0.4       0.90E-2    0.09E-2            2310.4

2315.1          1.2       0.29E-2    0.09E-2            2314.0

2323.8          0.8       0.22E-2    0.6 E-2            2323.8

2331.0          0.5       0.33E-2    0.06E-2

2339.6          0.8       0.17E-2    0.06E-2            2339.6

2345.7          0.7       0.28E-2    0.06E-2            2345.7

2349.7          0.7       0.28E-2    0.06E-2            2349.7

2361.7          0.8       0.29E-2    0.06E-2            2361.7

2369.4          0.6       0.28E-2    0.06E-2            2369.4

2378.2          0.9       0.22E-2    0.07E-2            2458.9

2382.2          1.0       0.21E-2    0.07E-2            2382.2

2394.8          1.0       0.21E-2    0.06E-2            2394.8

2399.4          0.6       0.35E-2    0.06E-2            2480.1

2406.8          0.7       0.22E-2    0.05E-2            2487.5

2418.1          0.7       0.16E-2    0.06E-2

2425.6          1.2       0.20E-2    0.07E-2

2429.6          1.0       0.25E-2    0.08E-2            2510.3

2438.4          0.6       0.33E-2    0.06E-2            2438.4

2442.4          1.0       0.22E-2    0.07E-2            2523.1

2448.4          0.6       0.18E-2    0.05E-2            2529.1

2455.3          1.0       0.26E-2    0.06E-2            2536.5

2473.6          0.6       0.53E-2    0.07E-2            2554.3

2490.9          0.6       0.43E-2    0.06E-2            2571.6

2505.4          0.6       0.44E-2    0.06E-2

2519.7          0.5       0.47E-2    0.06E-2            2519.7

2532.3          1.2       0.19E-2    0.06E-2

2537.5          1.0       0.23E-2    0.07E-2            2536.5

2550.6          1.1       0.21E-2    0.07E-2            2550.6

2554.5          1.0       0.25E-2    0.07E-2            2554.3

2562.7          1.3       0.14E-2    0.05E-2            2643.4

2569.3          1.2       0.16E-2    0.06E-2            2569.3

2587.4          0.7       0.30E-2    0.05E-2

2628.9          1.0       0.08E-2    0.03E-2            2709.6

2644.7          0.7       0.31E-2    0.05E-2

2663.0          0.8       0.13E-2    0.04E-2            2663.0

2669.4          1.5       0.14E-2    0.05E-2            2750.1

2674.5          1.4       0.16E-2    0.06E-2

2692.3          2.0       0.11E-2    0.06E-2

2697.4          1.1       0.21E-2    0.07E-2            2778.1

2721.3          0.9       0.13E-2    0.05E-2            2801.9

2734.3          1.0       0.23E-2    0.05E-2

2745.0          1.2       0.26E-2    0.05E-2

2756.9          1.1       0.22E-2    0.05E-2

2786.2          1.2       0.12E-2    0.05E-2

2788.6          0.8       0.19E-2    0.06E-2            2788.6

2803.2          0.8       0.26E-2    0.05E-2            2801.9

2821.1          1.6       0.15E-2    0.06E-2            2901.8

2829.0          1.3       0.20E-2    0.07E-2            2909.6

2840.2          1.0       0.23E-2    0.05E-2            2960.9

2902.1          0.6       0.27E-2    0.05E-2            2901.8

2929.2          1.0       0.12E-2    0.04E-2            2929.2

2945.3          0.9       0.13E-2    0.04E-2

2990.6          0.7       0.23E-2    0.04E-2            2990.6
 3071.3
2999.1          1.4       0.06E-2    0.03E-2

3014.0          0.9       0.27E-2    0.05E-2            3014.0

3148.2          0.9       0.10E-2    0.03E-2

ENDDATA            546
ENDSUBENT          568
SUBENT        41417003   20131212   20140228   20140214       4162
BIB                  6         15
REACTION   (66-DY-162(N,INL)66-DY-162,PAR,DA,G,LEG/RS/FIS)
EN-SEC      LVL-INI - initial level of 66-DY-162
ANALYSIS   To define angular distributions - spectrum was measured
           at angles 90, 105,115,125,142,150 deg.
           For normalization of gamma-intensities at different
           angles the transition 1- -> 2+ of 1195.109 keV was used
           which theoretical angular distribution has Legendre
           polynomials coefficients a2=-0.016, a4=0.
MISC-COL   (MISC1)   Spin of the initial level
           (MISC2)   Parity of the initial level
           (MISC3)   Spin of the final level
           (MISC4)   Parity of the final level
ERR-ANALYS (ERR-S)   Statistical error at 68% confidence level
            LVL-INI-ER -  Error in initial level energy
STATUS     (TABLE) Table 2 of J,YF,65,(5),819,2002
ENDBIB              15
NOCOMMON             0          0
DATA                10         64
E          NUMBER     DATA       ERR-S      LVL-INI    LVL-INI-ER
MISC1      MISC2      MISC3      MISC4
KEV        NO-DIM     NO-DIM     NO-DIM     KEV        KEV
NO-DIM     NO-DIM     NO-DIM     NO-DIM
 185.061        2.      +0.33    0.11        265.6628
       4.       +1.        2.         +1.
 185.061        4.      -0.19    0.11        265.6628
       4.       +1.        2.         +1.
 260.08         2.      +0.20    0.06       1148.24         0.03
       2.       -1.        2.         +1.
 260.08         4.      -0.05    0.08       1148.24         0.03
       2.       -1.        2.         +1.
 282.88         2.      +0.44    0.04        548.5184
       6.       +1.        4.         +1.
 282.88         4.      -0.07    0.06        548.5184
       6.       +1.        4.         +1.
 295.05         2.      -0.10    0.05       1570.83         0.03
       3.       -1.        1.         -1.
 295.05         4.      -0.06    0.07       1570.83         0.03
       3.       -1.        1.         -1.
 321.96         2.      -0.215   0.030      1210.093        0.013
       3.       -1.        2.         +1.
 321.96         4.      -0.006   0.041      1210.093        0.013
       3.       -1.        2.         +1.
 334.074        2.      -0.215   0.030      1297.006        0.016
       4.       -1.        3.         +1.
 334.074        4.      -0.01    0.04       1297.006        0.016
       4.       -1.        3.         +1.
 372.20         2.      +0.22    0.07        920.72         0.09
       8.       +1.        6.         +1.
 372.20         4.      -0.14    0.10        920.72         0.09
       8.       +1.        6.         +1.
 634.15         2.      -0.05    0.08       1182.743        0.015
       5.       +1.        6.         +1.
 634.15         4.      +0.01    0.10       1182.743        0.015
       5.       +1.        6.         +1.
 647.53         2.      +0.36    0.05       1535.69         0.03
       4.       +1.        2.         +1.
 647.53         4.      -0.08    0.07       1535.69         0.03
       4.       +1.        2.         +1.
 697.29         2.      -0.197   0.023       962.932        0.010
       3.       +1.        4.         +1.
 697.29         4.      +0.009   0.031       962.932        0.010
       3.       +1.        4.         +1.
 795.315        2.      -0.147   0.017      1060.990        0.008
       4.       +1.        4.         +1.
 795.315        4.      -0.097   0.024      1060.990        0.008
       4.       +1.        4.         +1.
 807.502        2.      -0.035   0.012       888.156        0.007
       2.       +1.        2.         +1.
 807.502        4.      -0.010   0.016       888.156        0.007
       2.       +1.        2.         +1.
 857.54         2.      -0.09    0.07       1745.77         0.06
       1.       +1.        2.         +1.
 857.54         4.       0.0                1745.77         0.06
       1.       +1.        2.         +1.
 878.54         2.      +0.20    0.15       1766.44         0.19
       3.       -1.        2.         +1.
 878.54         4.       0.0                1766.44         0.19
       3.       -1.        2.         +1.
 882.272        2.      +0.095   0.013       962.932        0.010
       3.       +1.        2.         +1.
 882.272        4.      +0.107   0.017       962.932        0.010
       3.       +1.        2.         +1.
 888.150        2.      +0.225   0.010       888.156        0.007
       2.       +1.        0.         +1.
 888.150        4.      -0.043   0.015       888.156        0.007
       2.       +1.        0.         +1.
 917.089        2.      +0.039   0.024      1182.743        0.015
       5.       +1.        4.         +1.
 917.089        4.      +0.21    0.03       1182.743        0.015
       5.       +1.        4.         +1.
 944.444        2.      -0.007   0.034      1210.093        0.013
       3.       -1.        4.         +1.
 944.444        4.      +0.015   0.042      1210.093        0.013
       3.       -1.        4.         +1.
 980.352        2.      -0.340   0.029      1060.990        0.008
       4.       +1.        2.         +1.
 980.352        4.      -0.056   0.035      1060.990        0.008
       4.       +1.        2.         +1.
1092.23         2.      -0.020   0.021      1357.89         0.02
       3.       -1.        4.         +1.
1092.23         4.      -0.01    0.04       1357.89         0.02
       3.       -1.        4.         +1.
1124.95         2.      -0.14    0.04       1390.61         0.03
       5.       -1.        4.         +1.
1124.95         4.      +0.03    0.06       1390.61         0.03
       5.       -1.        4.         +1.
1129.424        2.      -0.16    0.03       1210.093        0.013
       3.       -1.        2.         +1.
1129.424        4.      +0.05    0.04       1210.093        0.013
       3.       -1.        2.         +1.
1187.74         2.      +0.15    0.03       1453.43         0.04
       2.       +1.        4.         +1.
1187.74         4.      +0.04    0.03       1453.43         0.04
       2.       +1.        4.         +1.
1195.109        2.      -0.016   0.007      1275.769        0.015
       1.       -1.        2.         +1.
1195.109        4.      +0.002   0.011      1275.769        0.015
       1.       -1.        2.         +1.
1308.64         2.      +0.35    0.06       1574.30         0.06
       4.       +1.        4.         +1.
1308.64         4.      +0.07    0.08       1574.30         0.06
       4.       +1.        4.         +1.
1319.65         2.      -0.006   0.033      1400.31         0.04
       0.       +1.        2.         +1.
1319.65         4.      -0.016   0.040      1400.31         0.04
       0.       +1.        2.         +1.
1372.80         2.      +0.34    0.03       1453.43         0.04
       2.       +1.        2.         +1.
1372.80         4.      -0.06    0.05       1453.43         0.04
       2.       +1.        2.         +1.
1556.67         2.      +0.05    0.05       1637.33         0.10
       1.       -1.        2.         +1.
1556.67         4.       0.00               1637.33         0.10
       1.       -1.        2.         +1.
1610.95         2.      +0.20    0.14       1691.37         0.13
       2.       -1.        2.         +1.
1610.95         4.      -0.02    0.14       1691.37         0.13
       2.       -1.        2.         +1.
1647.90         2.      +0.07    0.08       1728.56         0.08
       2.       +1.        2.         +1.
1647.90         4.      -0.08    0.10       1728.56         0.08
       2.       +1.        2.         +1.
1665.29         2.      -0.03    0.06       1745.77         0.06
       1.       +1.        2.         +1.
1665.29         4.       0.0                1745.77         0.06
       1.       +1.        2.         +1.
1806.15         2.      +0.38    0.05       1886.81         0.09
       4.       +1.        2.         +1.
1806.15         4.      +0.08    0.07       1886.81         0.09
       4.       +1.        2.         +1.
ENDDATA            132
ENDSUBENT          152
ENDENTRY             3
