ENTRY            22473   20060804   20061116   20061102       2178
SUBENT        22473001   20060804   20061116   20061102       2178
BIB                 13         32
INSTITUTE  (2FR ILL,1USABNL,1USAANL)
REFERENCE  (J,NP/A,376,149,1982)   Main reference
AUTHOR     (K.SCHRECKENBACH,A.I.NAMENSON,W.F.DAVIDSON,T.VON EGIDY,
            H.G.BORNER,J.A.PINSTON,R.K.SMITHER.D.D.WARNER,
            R.F.CASTEN,M.L.STELTS,D.H.WHITE.W.STOFFL)
TITLE       Rotational-vibrational band structure in 155Sm.
FACILITY   (REAC,2FR ILL)   In-pile facility at the High Flux
            Reactor in Grenoble
           (SPECC,2FR ILL) Curved crystal spectrometers GAMS.
INC-SOURCE (REAC) Reactor core.
INC-SPECT  .Neutron flux at the target position 5.E14 N/cm2/sec
SAMPLE     Targets consisted of about 100 mg 154Sm oxide, enriched
            to 99.996 % and embedded in Al foils.
METHOD     (GSPEC)    Measured energies and intensities of gamma-
            transitions originating from de-excitation of low-
            lying states in 155Sm populated by thermal neutron
            capture.
ANALYSIS   The absolute energy scale linked to the Sm X-ray energy
            of 40.118 keV.
           The absolute intensity scale calibrated to the 104 keV
            El transition in the beta-decay of 155Sm.
           Contamination lines of 156Eu arising from capture in
            155Eu (after 155Sm decay) identified by their time
            behavior.
ERR-ANALYS (E-ERR) Uncertainty in gamma-ray energies; do not
            include errors for absolute calibration to Sm X-rays.
           (DATA-ERR) Uncertainties of the line intensities;
            do not include errors of absolute calibration to the
            104 keV line in 155Sm beta-decay.
STATUS     (COREL,13839001) Data taken at BNL.
HISTORY    (20020528C) IS + VM
           (20060804U)   Reference year corrected - SM/NO
ENDBIB              32
NOCOMMON             0          0
ENDSUBENT           35
SUBENT        22473002   20030106   20030506   20050926       0000
BIB                  2          2
REACTION   (62-SM-154(N,G)62-SM-155,,SPC,,SPA)
STATUS     Data taken from Table 3 in reference.
ENDBIB               2
COMMON               1          3
EN-DUMMY
EV
0.0253
ENDCOMMON            3
DATA                 4        176
E          E-ERR      DATA       DATA-ERR
KEV        KEV        PC/REAC    PER-CENT
  16.547     0.010      3.80       35.
  40.324     0.005      0.41       12.
  53.033     0.002      3.13        6.
  59.753     0.001      1.18        8.
  74.664     0.001      1.30        5.
  76.118     0.001      0.31       12.
  79.047     0.002      0.47       10.
  80.238     0.002      0.47       10.
  92.986     0.001      0.170      16.
  93.594     0.003      0.060      20.
  97.981     0.002      0.090      20.
 111.154     0.002      0.118      10.
 117.223     0.003      0.097      20.
 119.758     0.002      0.086      10.
 127.698     0.001      0.208       6.
 132.698     0.006      0.031      25.
 135.873     0.005      0.046      15.
 136.162     0.002      0.116      12.
 136.521     0.003      0.079      12.
 137.947     0.003      0.071      12.
 144.382     0.015      0.043      20.
 146.568     0.007      0.032      20.
 160.603     0.001      0.280       6.
 167.650     0.005      0.096      15.
 191.156     0.010      0.068      20.
 193.382     0.007      0.088      15.
 196.426     0.008      0.099      18.
 240.816     0.030      0.090      15.
 243.652     0.010      0.076      25.
 272.250     0.015      0.084      20.
 285.923     0.004      1.60        6.
 297.990     0.008      0.125      15.
 298.792     0.034      0.040      30.
 302.888     0.014      0.080      25.
 315.176     0.012      0.110      15.
 347.580     0.004      0.190      15.
 350.114     0.003      0.66        8.
 351.226     0.013      0.108      15.
 351.795     0.007      0.29       10.
 366.909     0.004      0.29       10.
 375.093     0.027      0.04       30.
 375.827     0.004      0.19       15.
 400.439     0.031      0.12       15.
 400.738     0.008      0.15       18.
 409.873     0.002      2.66        6.
 423.704     0.004      0.37        7.
 438.324     0.005      0.26        8.
 460.922     0.021      0.11       15.
 467.738     0.044      0.051      13.
 475.022     0.007      0.32       10.
 481.543     0.013      0.19       15.
 483.411     0.005      0.49        7.
 492.772     0.007      0.34        8.
 496.459     0.023      0.23       15.
 522.638     0.015      0.22       12.
 530.685     0.015      0.48        8.
 533.273     0.036      0.06       20.
 541.318     0.020      0.13       12.
 551.189     0.012      0.24       10.
 564.507     0.004      1.21        6.
 574.699     0.030      0.12       15.
 577.080     0.044      0.10       18.
 579.905     0.030      0.10       15.
 582.072     0.005      1.66        6.
 584.511     0.011      0.31       10.
 600.993     0.004      6.30        6.
 605.381     0.014      0.35       10.
 617.549     0.007      2.27        6.
 621.545     0.032      0.11       15.
 633.979     0.041      0.18       12.
 641.885     0.031      0.69        8.
 658.396     0.009      0.65        8.
 660.640     0.021      0.18       15.
 664.868     0.015      0.54        8.
 668.49      0.10       0.09       20.
 668.987     0.024      0.27       10.
 669.29      0.10       0.09       20.
 677.40      0.10       0.19       20.
 677.996     0.028      0.35       10.
 683.883     0.050      0.23       16.
 684.82      0.10       0.13       20.
 692.142     0.020      0.15       14.
 702.854     0.016      0.38        8.
 714.671     0.016      0.36        8.
 721.064     0.009      0.82        6.
 725.123     0.007      1.72        6.
 729.637     0.027      0.18        9.
 731.455     0.028      0.18       10.
 736.217     0.080      0.16       13.
 741.790     0.030      0.30       12.
 745.004     0.012      0.66        8.
 750.496     0.009      0.99        6.
 754.459     0.024      0.65        7.
 761.631     0.020      0.69        6.
 767.670     0.060      0.11       15.
 769.050     0.060      0.16       16.
 778.156     0.008      2.39        6.
 779.131     0.024      0.62        9.
 791.083     0.007      2.38        6.
 798.15      0.10       0.19       20.
 802.56      0.10       0.07       30.
 804.758     0.019      1.32        6.
 807.555     0.040      0.37       20.
 812.819     0.017      1.00       10.
 815.145     0.023      0.83       10.
 819.880     0.005      7.90        6.
 823.630     0.050      0.39       14.
 827.61      0.10       0.17       20.
 829.150     0.040      0.45       12.
 830.990     0.050      0.54       12.
 831.947     0.038      0.55       12.
 844.108     0.012      2.11        6.
 852.33      0.10       0.29       15.
 853.805     0.023      0.58        9.
 855.52      0.10       0.12       20.
 856.672     0.049      0.35       11.
 860.61      0.10       0.23       15.
 864.50      0.12       0.15       20.
 865.843     0.009      2.24        6.
 868.55      0.10       0.25       20.
 877.600     0.015      3.90        6.
 880.64      0.15       0.22       20.
 882.163     0.050      0.66       11.
 882.977     0.090      0.75       10.
 883.263     0.039      0.75       10.
 884.76      0.10       0.17       20.
 886.927     0.018      0.87        8.
 890.528     0.068      0.48       10.
 891.552     0.058      0.36       12.
 892.80      0.15       0.18       20.
 898.548     0.088      0.18       15.
 901.91      0.10       0.40       20.
 902.447     0.023      0.92        8.
 902.946     0.067      0.66       13.
 904.723     0.023      0.66       10.
 906.99      0.15       0.11       20.
 909.359     0.061      0.36       11.
 915.490     0.020      4.00        6.
 929.24      0.14       0.17       15.
 930.654     0.011      2.15        6.
 935.55      0.13       0.19       25.
 936.77      0.20       0.13       25.
 940.94      0.12       0.33       15.
 957.43      0.15       0.25       15.
 959.74      0.15       0.15       20.
 968.090     0.020      1.96        7.
 982.142     0.040      1.30        8.
 983.635     0.025      1.25        7.
1010.988     0.035      0.75        8.
1012.915     0.034      0.62        9.
1014.37      0.10       0.68        7.
1026.540     0.090      0.38       20.
1026.697     0.078      0.38       10.
1034.708     0.092      0.16       12.
1053.598     0.022      0.81        9.
1075.51      0.20       0.11       25.
1090.20      0.20       0.14       20.
1106.640     0.024      1.64        6.
1125.76      0.20       0.20       20.
1152.16      0.20       0.13       20.
1184.21      0.13       0.49       10.
1187.09      0.17       0.34       15.
1192.46      0.17       0.27       15.
1285.10      0.21       0.51       10.
1309.14      0.18       0.41        9.
1327.84      0.14       0.35       10.
1345.78      0.11       0.72       10.
1361.60      0.20       0.37       12.
1406.12      0.21       0.68       10.
1410.22      0.19       0.70       10.
1525.02      0.17       0.06       10.
1619.59      0.13       1.73        9.
1625.13      0.13       1.20       10.
1928.176     0.046      0.64       15.
1950.843     0.033      0.95       15.
1958.754     0.045      0.64       20.
ENDDATA            178
ENDSUBENT          189
ENDENTRY             2
