ENTRY            22482   20081202   20090306   20090302       2206
SUBENT        22482001   20081202   20090306   20090302       2206
BIB                 15         56
TITLE       .Measurements of keV-neutron capture cross sections
             and capture gamma-ray spectra of 161,162,163Dy
AUTHOR     (S.Mizuno, M.Igashira, K.Masuda)
INSTITUTE  (2JPNTIT)  Research laboratory for nuclear reactors
REFERENCE  (J,NST,36,(6),493,199906)  Main reference
FACILITY   (VDGT,2JPNTIT) The 3.2 MV PELLETRON accelerator of the
            Research Laboratory For Nuclear Reactors at the Tokyo
            Institute of technology.
INC-SOURCE (P-LI7)  Lithium target bombarded by 1.5 ns bunch
            proton beam. For neutron energies 10-90 keV proton
            energy is 1.903 MeV (22 keV above threshold energy of
            P-LI7 reaction), pulse repetition rate 2 MHz, average
            proton current 5 micro-a. For 550 keV neutron energy
            proton energy is 2.3 MeV,pulse repetition rate 4 MHz,
            average proton current 9 micro-a
INC-SPECT  .Broad neutron spectrum with maximum at aprx 35 and
            550 keV
PART-DET   (G,N)
DETECTOR   (NAICR)  Anti-Compton Na-I(TL) Spectrometer. Main
            detector 15.2 cm diameter by 20.3 cm was centered
            in a 33.0 cm outer diameter by 35.6 cm NaI(TL) hollow
            energy resolution is 7% at 0.662 MeV and time resolu-
            tion is 4.0 ns for 0.511 MeV gamma
           (GLASD)  Li-6 glass detector for neutron flux monito-
              ring. 5 mm diameter * 5 mm length 6-Li detetor was
              used for 10-90 keV region, and 102 mm diameter *
              6.4 mm length detector was used for 550 keV
METHOD     (TOF)    Flight base is 12 and 20 cm
           (PHD)    Pulse height discrimination
           (SITA)   Intermittent sample-monitor-blank irradiation
MONITOR    (79-AU-197(N,G)79-AU-198,,SIG)
SAMPLE      .Gold sample for monitor, metallic, chemical purity
             99.999%, weight 12.04 gram, thickness 2.0 mm/11.7E-3
             nuclei/barn, diameter 20.0 mm
ERR-ANALYS (ERR-T)  total error composed of partial ones given
                    below
           (ERR-S)  Max statistical error
           (MONIT-ERR)  Error of the standard cross-section
           (ERR-1)      Max error of the response function
           (ERR-2)      Error due to the trial function
           (ERR-3)      Resultant error due to weighting function
           (ERR-4)      Error due to the extrapolation of gamma
                        spectrum
           (ERR-5)      Max error of sample chemical-impurity
                        content
           (ERR-6)      Max error of the multiplicity of observed
                        gamma-rays
CORRECTION .Corrections were made for neutron self-shielding and
            multiple scattering in the sample, for gamma-ray
            absorption and scatteing in sample, for neutron cross-
            sections employed in calculations
HISTORY    (20001016C)  + +  Compiled by S.M.
           (20081119A)  + Six SUBENTs for gamma-spectra and
                         three for  CS at 550 keV  added - SM
           (20081202U) Last corrections have been done after
                       NEXFOR checking.
ENDBIB              56
COMMON               8          6
MONIT-ERR  ERR-1      ERR-2      ERR-3      ERR-4      ERR-5
ERR-6      ERR-S
PER-CENT   PER-CENT   PER-CENT   PER-CENT   PER-CENT   PER-CENT
PER-CENT   PER-CENT
         3.         6.         2.         2.         2.         1.
         2.         4.
ENDCOMMON            6
ENDSUBENT           66
SUBENT        22482002   20081202   20090306   20090302       2206
BIB                  4         13
REACTION   (66-DY-161(N,G)66-DY-162,,SIG,,AV)   Averaged over
               incident neutron spectrum width
SAMPLE     .Dy2-O3 oxide powder in graphite container 24.0 mm
            outer diameter and 5 mm thickness. Sample weight is
            1.152 gram, chemical purity 98.29%, net weight 0.953
            +-0.008 gram, thickness 3.0 mm/(1.13+-0.01)E-3
            nuclei/barn ,diameter 20.0 mm.
            Dy-160 content is 0.22%,
            Dy-161 content is 95.94%, Dy-162 content is 2.46%
            Dy-163 content is 0.86%, Dy-164 content is 0.52%
STATUS     (TABLE)  Data are taken from Table 4 of main reference
HISTORY    (20081119A)  Data for  EN-MEAN=550keV moved to  SAN
                        008 and data table corrected
ENDBIB              13
NOCOMMON             0          0
DATA                 4          5
EN-MIN     EN-MAX     DATA       ERR-T
KEV        KEV        B          B
         8.        15.       3.68       0.18
        15.        25.       2.55       0.12
        25.        35.       2.05      0.095
        35.        55.       1.56      0.071
        55.        90.       1.16      0.052
ENDDATA              7
ENDSUBENT           25
SUBENT        22482003   20081202   20090306   20090302       2206
BIB                  4         12
REACTION   (66-DY-162(N,G)66-DY-163,,SIG,,AV)   Averaged over
               incident neutron spectrum width
SAMPLE     .Dy2-O3 oxide powder in graphite container 24.0 mm
            outer diameter and 6 mm thickness. Sample weight is
            1.148 gram, chemical purity 99.96%, net weight 0.962
            +-0.0002 gram, thickness 4.Mm/91.14+-.002)E-3
            nuclei/barn, diameter 20.0 mm.Dy-160 content is 0.07%,
            Dy-161 content is 1.20%, Dy-162 content is 96.28%,
            Dy-163 content is 1.75%, Dy-164 content is 0.70%
STATUS     (TABLE)  Data are taken from Table 4 of main reference
HISTORY    (20081119A)  Data for  EN-MEAN=550keV moved to  SAN
                        009 and data table corrected
ENDBIB              12
NOCOMMON             0          0
DATA                 4          4
EN-MIN     EN-MAX     DATA       ERR-T
KEV        KEV        B          B
        15.        25.      0.590      0.029
        25.        35.      0.532      0.025
        35.        55.      0.423      0.019
        55.        90.      0.326      0.015
ENDDATA              6
ENDSUBENT           23
SUBENT        22482004   20081202   20090306   20090302       2206
BIB                  4         13
REACTION   (66-DY-163(N,G)66-DY-164,,SIG,,AV)   Averaged over
               incident neutron spectrum width
SAMPLE     .Dy2-O3 oxide powder in graphite container 24.0 mm
            outer diameter and 4.5 mm thickness. Sample weight is
            1.139 gram, chemical purity 98.38%, net weight 0.954
            +-0.008 gram, thickness 2.5 mm/91.12+-0.01)E-3
            nuclei/barn, diameter 20.0 mm.
            Dy-160 content is 0.03%,
            Dy-161 content is 0.36%, Dy-162 content is 1.23%
            Dy-163 content is 96.85%, Dy-164 content is 1.53%
STATUS     (TABLE)  Data are taken from Table 4 of main reference
HISTORY    (20081119A)  Data for  EN-MEAN=550keV moved to  SAN
                        010 and data table corrected
ENDBIB              13
NOCOMMON             0          0
DATA                 4          5
EN-MIN     EN-MAX     DATA       ERR-T
KEV        KEV        B          B
         8.        15.      1.924      0.094
        15.        25.      1.429      0.067
        25.        35.      1.177      0.054
        35.        55.      0.921      0.042
        55.        90.      0.700      0.031
ENDDATA              7
ENDSUBENT           25
SUBENT        22482005   20081202   20090306   20090302       2206
BIB                  7         19
REACTION   (66-DY-161(N,G)66-DY-162,PAR,MLT,,SPA)  Gamma
            multiplicity
MISC-COL   (MISC)  Reduced gamma multiplicity mlt-red=mlt/
             (q-val+en). Units=gamma-rays-number/
             (1 MeV excitation energy)/(1 gamma capture)
EN-SEC     (E-MIN,G)
COMMENT     Q-val,66-Dy-161 - binding energy of neutron=8.197 MeV
SAMPLE     .Dy2-O3 oxide powder in graphite container 24.0 mm
            outer diameter and 5 mm thickness. Sample weight is
            1.152 gram, chemical purity 98.29%, net weight 0.953
            +-0.008 gram, thickness 3.0 mm/(1.13+-0.01)E-3
            nuclei/barn, diameter 20.0 mm.
            Dy-160 content is 0.22%,
            Dy-161 content is 95.94%, Dy-162 content is 2.46%
            Dy-163 content is 0.86%, Dy-164 content is 0.52%
STATUS     (TABLE) Data are taken from Table 6 of main reference
           (DEP,22482011)
           (DEP,22482014)
HISTORY    (20081119U)   REACTION SF7 = 'G' deleted
ENDBIB              19
COMMON               1          3
E-MIN
MEV
        0.6
ENDCOMMON            3
DATA                 6          2
EN-MEAN    EN-RSL-HW  DATA       ERR-T      MISC       MISC-ERR
KEV        KEV        PRT/REAC   PRT/REAC   SEE TEXT   SEE TEXT
        47.                   3.6       0.13      0.436      0.016
       550.        80.       3.98       0.18      0.457      0.021
ENDDATA              4
ENDSUBENT           32
SUBENT        22482006   20081202   20090306   20090302       2206
BIB                  7         18
REACTION   (66-DY-162(N,G)66-DY-163,PAR,MLT,,SPA)  Gamma
            multiplicity
MISC-COL   (MISC)  Reduced gamma multiplicity mlt-red=mlt/
             (q-val+en). Units=gamma-rays-number/
             (1 MeV excitation energy)/(1 gamma capture)
EN-SEC     (E-MIN,G)
COMMENT     Q-val,66-Dy-162,  binding energy of neutron=6.271 MeV
SAMPLE     .Dy2-O3 oxide powder in graphite container 24.0 mm
            outer diameter and 6 mm thickness. Sample weight is
            1.148 gram, chemical purity 99.96%, net weight 0.962
            +-0.0002 gram, thickness 4.Mm/(1.14+-.002)E-3 nuclei/
            barn, diameter 20.0 mm. Dy-160 content is 0.07%,
            Dy-161 content is 1.20%, Dy-162 content is 96.28%,
            Dy-163 content is 1.75%, Dy-164 content is 0.70%
STATUS     (TABLE) Data are taken from Table 6 of main reference
           (DEP,22482012)
           (DEP,22482015)
HISTORY    (20081119U)   REACTION SF7 = 'G' deleted
ENDBIB              18
COMMON               1          3
E-MIN
MEV
        0.6
ENDCOMMON            3
DATA                 6          2
EN-MEAN    EN-RSL-HW  DATA       ERR-T      MISC       MISC-ERR
KEV        KEV        PRT/REAC   PRT/REAC   SEE TEXT   SEE TEXT
        47.                  2.58        0.1      0.408      0.016
       550.       113.        2.8       0.14      0.411       0.02
ENDDATA              4
ENDSUBENT           31
SUBENT        22482007   20081202   20090306   20090302       2206
BIB                  7         19
REACTION   (66-DY-163(N,G)66-DY-164,PAR,MLT,,SPA)  Gamma
             multiplicity
MISC-COL   (MISC)  Reduced gamma multiplicity mlt-red=mlt/
             (q-val+en). Units=gamma-rays-number/
             (1 MeV excitation energy)/(1 gamma capture)
EN-SEC     (E-MIN,G)
COMMENT     Q-val,66-Dy-163 - binding energy of neutron=7.658 MeV
SAMPLE     .Dy2-O3 oxide powder in graphite container 24.0 mm
            outer diameter and 4.5 mm thickness. Sample weight is
            1.139 gram, chemical purity 98.38%, net weight 0.954
            +-0.008 gram, thickness 2.5 mm/(1.12+-0.01)E-3 nuclei/
            barn, diameter 20.0 mm.
            Dy-160 content is 0.03%,
            Dy-161 content is 0.36%, Dy-162 content is 1.23%
            Dy-163 content is 96.85%, Dy-164 content is 1.53%
STATUS     (TABLE) Data are taken from Table 6 of main reference
           (DEP,22482013)
           (DEP,22482016)
HISTORY    (20081119U)   REACTION SF7 = 'G' deleted
ENDBIB              19
COMMON               1          3
E-MIN
MEV
        0.6
ENDCOMMON            3
DATA                 6          2
EN-MEAN    EN-RSL-HW  DATA       ERR-T      MISC       MISC-ERR
KEV        KEV        PRT/REAC   PRT/REAC   SEE TEXT   SEE TEXT
        47.                   3.3       0.12      0.428      0.015
       550.        80.       3.46       0.16      0.421      0.019
ENDDATA              4
ENDSUBENT           32
SUBENT        22482008   20081202   20090306   20090302       2206
BIB                  4         12
REACTION   (66-DY-161(N,G)66-DY-162,,SIG,,SPA)  Averaged over
               incident neutron spectrum width
SAMPLE     .Dy2-O3 oxide powder in graphite container 24.0 mm
            outer diameter and 5 mm thickness. Sample weight is
            1.152 gram, chemical purity 98.29%, net weight 0.953
            +-0.008 gram, thickness 3.0 mm/(1.13+-0.01)E-3
            nuclei/barn ,diameter 20.0 mm.
            Dy-160 content is 0.22%,
            Dy-161 content is 95.94%, Dy-162 content is 2.46%
            Dy-163 content is 0.86%, Dy-164 content is 0.52%
STATUS     (TABLE)  Data are taken from Table 4 of main reference
HISTORY    (20081202C) Compiled by SM - moved from SAN 002
ENDBIB              12
NOCOMMON             0          0
DATA                 4          1
EN-MEAN    EN-RSL-FW  DATA       ERR-T
KEV        KEV        B          B
       550.        80.      0.216     0.0088
ENDDATA              3
ENDSUBENT           20
SUBENT        22482009   20081202   20090306   20090302       2206
BIB                  4         11
REACTION   (66-DY-162(N,G)66-DY-163,,SIG,,SPA)  Averaged over
               incident neutron spectrum width
SAMPLE     .Dy2-O3 oxide powder in graphite container 24.0 mm
            outer diameter and 6 mm thickness. Sample weight is
            1.148 gram, chemical purity 99.96%, net weight 0.962
            +-0.0002 gram, thickness 4.Mm/91.14+-.002)E-3
            nuclei/barn, diameter 20.0 mm.Dy-160 content is 0.07%,
            Dy-161 content is 1.20%, Dy-162 content is 96.28%,
            Dy-163 content is 1.75%, Dy-164 content is 0.70%
STATUS     (TABLE)  Data are taken from Table 4 of main reference
HISTORY    (20081202C) Compiled by SM - moved from SAN 003
ENDBIB              11
NOCOMMON             0          0
DATA                 4          1
EN-MEAN    EN-RSL-FW  DATA       ERR-T
KEV        KEV        B          B
       550.       113.      0.108     0.0044
ENDDATA              3
ENDSUBENT           19
SUBENT        22482010   20081202   20090306   20090302       2206
BIB                  4         12
REACTION   (66-DY-163(N,G)66-DY-164,,SIG,,SPA)  Averaged over
               incident neutron spectrum width
SAMPLE     .Dy2-O3 oxide powder in graphite container 24.0 mm
            outer diameter and 4.5 mm thickness. Sample weight is
            1.139 gram, chemical purity 98.38%, net weight 0.954
            +-0.008 gram, thickness 2.5 mm/91.12+-0.01)E-3
            nuclei/barn, diameter 20.0 mm.
            Dy-160 content is 0.03%,
            Dy-161 content is 0.36%, Dy-162 content is 1.23%
            Dy-163 content is 96.85%, Dy-164 content is 1.53%
STATUS     (TABLE)  Data are taken from Table 4 of main reference
HISTORY    (20081202C) Compiled by SM - moved from SAN 004
ENDBIB              12
NOCOMMON             0          0
DATA                 4          1
EN-MEAN    EN-RSL-FW  DATA       ERR-T
KEV        KEV        B          B
       550.        80.      0.109     0.0048
ENDDATA              3
ENDSUBENT           20
SUBENT        22482011   20081119   20090306   20090302       2206
BIB                  5          9
REACTION   (66-DY-161(N,G)66-DY-162,,MLT/DE,,REL/AV) Counts/
             25 keV. Averaged over incident neutron energy
             interval
EN-SEC     (E,G)
ERR-ANALYS (E-ERR-DIG)  Gamma secondary energy digitizing error
           (ERR-DIG)    Data digitizing error
           (DATA-ERR)   Error from the graphic bars
STATUS     (CURVE) Fig.9   (Dy-161)
HISTORY    (20081124C)  SM
ENDBIB               9
COMMON               4          3
EN-MIN     EN-MAX     E-ERR-DIG  ERR-DIG
KEV        KEV        MEV        ARB-UNITS
     15.        90.    1.0538E-02 3.3320E-03
ENDCOMMON            3
DATA                 3        200
E          DATA       DATA-ERR
MEV        ARB-UNITS  ARB-UNITS
     0.3973 1.2213E+03     94.934
    0.43262 1.3853E+03     89.988
    0.45866 1.7503E+03     150.54
    0.51297 1.3857E+03     119.18
    0.55813 1.1788E+03     91.659
    0.60177 1.6150E+03     178.15
    0.69108 1.6010E+03      137.7
    0.73458 2.2942E+03     120.48
    0.75127 3.3170E+03     339.24
    0.79637 2.8730E+03     270.36
    0.83102 4.0074E+03     244.22
    0.86665 4.1174E+03     387.34
    0.88525 3.2593E+03      274.8
     0.9129 2.4890E+03     209.77
    0.94014 2.1557E+03     245.52
    0.94932 1.9882E+03     187.27
     1.0034 1.7067E+03     188.26
     1.0388 1.9014E+03     197.65
     1.0395 1.5186E+03     79.749
     1.1011 2.0071E+03     208.65
     1.1636 2.0075E+03     189.04
     1.2528 2.0630E+03     255.78
     1.2619 1.9547E+03     168.13
     1.3068 1.7709E+03     219.57
      1.316 1.6333E+03     180.17
     1.3434 1.3646E+03     117.34
      1.406 1.3049E+03     184.98
     1.4147 1.4277E+03     220.88
     1.4771 1.4539E+03     194.97
     1.5488 1.3292E+03     135.97
     1.6291 1.3416E+03     126.36
     1.7095 1.3540E+03      127.5
      1.754 1.4165E+03     156.25
     1.7897 1.3914E+03     108.15
     1.8254 1.4168E+03     133.28
      1.879 1.4170E+03     110.15
     1.9326 1.4046E+03     118.38
     1.9861 1.4049E+03     97.497
     2.0575 1.4179E+03     105.69
     2.1289 1.4439E+03     124.15
     2.2004 1.4313E+03     120.59
     2.2539 1.4707E+03     138.53
     2.3253 1.4843E+03      125.1
     2.3788 1.4846E+03     103.03
     2.4503 1.4585E+03     122.92
      2.486 1.4586E+03     137.22
     2.5308 1.4200E+03     133.54
     2.5666 1.3456E+03     126.71
     2.6203 1.2983E+03     109.42
     2.6651 1.2303E+03     105.79
     2.7098 1.2195E+03     102.74
     2.7367 1.1871E+03     102.07
     2.7903 1.1767E+03     87.752
     2.8172 1.1150E+03     104.99
     2.8529 1.1252E+03     94.867
     2.8889 1.0472E+03     81.428
     2.9515     992.43     83.642
     2.9785     923.64     94.463
     3.0232     923.77     96.029
     3.0591     867.52     67.432
     3.1131      758.2      52.62
     3.1218     807.48     68.055
     3.1756     751.57     52.159
     3.2024     751.64     78.135
     3.2295     687.07     70.268
     3.2742     674.92     58.033
     3.3367     663.02     62.372
      3.346     595.23      51.18
     3.3904     639.71     72.879
     3.3997     574.31     58.736
      3.471     590.14     55.498
     3.4802      549.2     60.581
     3.5428     534.69     45.065
     3.5698     497.63     46.859
     3.6143     515.93     43.483
     3.6416     438.88     72.228
     3.6683     454.99     42.787
     3.6955     404.83      46.12
     3.7581     387.11     44.089
     3.8028     380.27     29.558
     3.8476     366.89     40.461
     3.8834     357.17     33.611
     3.9281     347.71     38.355
     3.9819     323.64     35.691
     3.9906     347.78     32.706
     4.0088     309.44     43.851
     4.0444     317.93     45.913
     4.0537     282.87     33.448
     4.1071      301.3     31.321
     4.1164     272.93     23.468
     4.1786     293.35     39.349
     4.1968     265.74     41.729
     4.2417     242.93     24.845
     4.2503     273.05     28.385
     4.3042     242.98     30.125
     4.3402     226.14     17.578
     4.3937     232.36     19.584
     4.3939      214.3      20.18
     4.4564     216.28     20.339
     4.4923     204.94     25.856
     4.5369     204.97     21.308
      4.555     189.05     17.797
     4.6089     174.39     17.835
     4.6175     189.09     19.657
     4.6802     177.59      25.64
     4.6985     158.01     16.156
     4.7338     179.23     24.041
     4.7612     147.08     16.224
     4.7788     159.48     16.579
     4.8239     138.13     16.337
     4.8339     97.281     10.113
     4.8863     141.94     11.033
     4.9214     171.45     16.124
     4.9756     140.71     16.021
     4.9759     127.46     18.065
     5.0112     147.19     19.739
     5.0568     108.44     12.823
     5.1189     124.12     16.645
     5.1725     121.93     14.418
     5.2622     107.54     18.503
     5.3243     121.99      13.89
     5.3427     101.92     11.243
     5.4054     94.867     14.172
     5.4409     101.95     13.672
     5.4861     86.732     14.276
     5.5392     98.383     14.198
     5.6195     100.19     9.4224
     5.6555     94.093     11.129
     5.6915     83.724     8.5627
     5.7181     90.788     8.5464
     5.7809     81.519     12.801
     5.8342     89.203     10.162
     5.8439     69.979     13.071
     5.8882     78.667     9.7534
     5.9423     65.143     11.208
     5.9692     62.847      8.428
     5.9969     47.139      7.759
     6.0324      50.66      6.281
     6.0692     36.656     5.1964
     6.1048     37.663     4.6708
     6.1141     33.812     4.7932
     6.1591     29.817     4.6815
     6.2041     26.772     3.5869
       6.24     25.598     5.5177
     6.2832     40.132      6.209
     6.2836     34.755     4.6558
     6.3201     27.267     4.2812
     6.3391     19.377     5.3572
     6.3995     36.695     6.8357
     6.4093      27.77     5.7699
      6.472     26.795     3.5907
     6.5168     25.164     5.9479
     6.5519     30.125     5.6086
       6.58     20.284     4.5143
     6.5806     16.644     4.6025
     6.6239     25.173     5.5047
     6.6878     16.206     7.5694
     6.7331       13.3     4.2647
     6.7764      20.48     5.6269
     6.8224     13.424     5.0884
     6.8393     18.225     5.4288
      6.912     12.163     4.6779
     6.9736     15.932     4.5602
     6.9838     10.824     3.6661
     7.0362     15.235     5.8226
     7.0369     12.501     3.3747
     7.0901     14.053     4.3504
     7.1176     11.225     2.9565
     7.1804      10.17     5.0805
     7.1986     9.1307     2.0958
     7.2605      11.13     3.7095
     7.2879     9.0516     2.9021
     7.2965     10.083      3.241
     7.2997     3.7169     2.1623
     7.3695     6.1509     1.2383
      7.376    0.80629     1.5866
     7.3786     5.7759     1.3655
     7.4038     9.4713     3.8566
     7.4418     4.6979     1.9338
     7.5467     9.5613     5.8366
     7.5657     6.4959     2.8955
     7.6375     5.8329     3.0679
     7.6915     5.1904     1.8494
     7.7915     2.9204     1.0406
      7.879     5.0553     2.7841
     7.9244     4.0021     2.2041
     7.9417     4.7479     2.8295
     8.0134     4.4194     1.9996
     8.0217     5.3862     1.5415
     8.1117     4.3032     1.8622
     8.1178     10.386      3.216
     8.1299     3.8287      1.947
     8.1794    0.83798    0.82689
     8.2008      4.584     2.3311
     8.2285     3.4693      3.339
     8.2318     1.2009     1.1757
     8.2666     1.6014     1.5731
     8.3473      1.438     0.9911
     8.4049    0.41218    0.40067
     8.4261     2.3584     1.5567
ENDDATA            202
ENDSUBENT          220
SUBENT        22482012   20081119   20090306   20090302       2206
BIB                  5          9
REACTION   (66-DY-162(N,G)66-DY-163,,MLT/DE,,REL/AV) Counts/
             25 keV. Averaged over incident neutron energy
             interval
EN-SEC     (E,G)
ERR-ANALYS (E-ERR-DIG)  Gamma secondary energy digitizing error
           (ERR-DIG)    Data digitizing error
           (DATA-ERR)   Error from the graphic bars
STATUS     (CURVE) Fig.9   (Dy-162)
HISTORY    (20081124C)  SM
ENDBIB               9
COMMON               4          3
EN-MIN     EN-MAX     E-ERR-DIG  ERR-DIG
KEV        KEV        MEV        ARB-UNITS
     15.        90.    1.1574E-02 3.8907E-03
ENDCOMMON            3
DATA                 3        229
E          DATA       DATA-ERR
MEV        ARB-UNITS  ARB-UNITS
    0.52753 1.0953E+03     94.352
    0.55379 1.2538E+03     207.36
    0.58049 1.2653E+03     227.39
    0.60713 1.3001E+03     204.44
    0.66955 1.2887E+03     240.42
    0.69626 1.3005E+03     201.59
    0.75877 1.2548E+03     155.83
    0.78577 1.1677E+03     183.62
     0.8304 1.1470E+03     154.15
    0.86634 1.0579E+03     133.66
    0.90192 1.0772E+03      178.2
    0.91109 1.0024E+03      134.5
    0.92905     966.99     144.69
    0.92927     907.92     156.43
    0.97329 1.0583E+03     153.05
     1.0267 1.0681E+03     117.99
     1.0891 1.0683E+03     111.27
     1.1249 1.0214E+03     112.86
     1.1694 1.0401E+03     194.58
     1.1873 1.0125E+03       136.
     1.2409 1.0036E+03     176.59
     1.2677     968.18     114.68
     1.2943 1.0129E+03     146.48
       1.33       986.     184.45
     1.3922 1.0410E+03      194.2
     1.4192     968.72     174.12
     1.4462     917.86     115.97
     1.4543 1.1393E+03     224.78
     1.4717 1.2694E+03     306.19
     1.4819      885.5     184.84
     1.5072 1.3281E+03     205.76
     1.5433 1.1815E+03     194.75
     1.5435 1.1295E+03     222.88
     1.5702 1.1296E+03     186.86
     1.5971 1.0897E+03     154.71
      1.624 1.0325E+03     149.32
     1.6685 1.0610E+03     117.21
     1.7219 1.0612E+03     110.49
     1.7486 1.0709E+03     109.68
     1.8021 1.0906E+03     113.51
     1.8645 1.0810E+03     91.219
     1.9091 1.0715E+03     118.37
     1.9537 1.0621E+03     100.04
     2.0071 1.0623E+03     121.18
     2.0159 1.1112E+03     140.37
     2.0605 1.1114E+03     126.79
     2.1049 1.1420E+03     116.97
     2.1406 1.1218E+03     128.01
     2.1852 1.1220E+03     132.89
     2.2565 1.1223E+03     128.06
     2.2922 1.1024E+03     103.96
     2.3546 1.1126E+03     115.85
     2.3991 1.1229E+03     124.04
     2.4436 1.1435E+03     130.52
      2.497 1.1645E+03     168.45
     2.5328 1.1336E+03     118.03
     2.5775 1.0838E+03     84.373
      2.622 1.1037E+03       104.
       2.64 1.0364E+03     106.15
     2.6669 1.0088E+03     111.45
     2.6756 1.0649E+03     110.88
     2.7203 1.0090E+03     111.44
      2.765     991.18     133.17
     2.7829     956.18     105.63
     2.8185     973.68     91.713
     2.8365     930.88     87.787
     2.8899     939.48     79.309
     2.9257     914.56     129.79
     2.9525     898.33     102.51
     2.9793     866.63     107.59
     2.9884       836.     85.626
     3.0063     821.13     101.95
     3.0064     784.98     80.401
     3.0333     750.49     56.059
     3.0425     704.67     66.454
     3.0871      692.2     70.898
     3.1318     667.82     57.508
     3.1588     621.47     83.388
     3.1774     505.24     62.746
     3.1853     656.03     61.867
     3.2215     573.22     59.665
     3.2218      528.6     49.849
     3.2483       558.     58.101
     3.2574     528.67     54.148
     3.2843     510.01     63.357
     3.2934     478.87     41.237
     3.3292     466.17     51.498
     3.3737     466.25     67.393
     3.4184     453.89     56.335
     3.4274     441.81      52.33
     3.4541     445.85      50.86
     3.4811     418.65     59.412
     3.5079     403.88     66.795
     3.5524     411.29     51.078
     3.5704     396.76     40.638
     3.5972     382.76     39.855
     3.6063     365.92     40.424
       3.66     340.56     56.137
     3.6686     372.66     42.511
     3.7049     311.28     48.942
     3.7224     340.64     63.549
     3.7586     294.97     34.937
      3.776     328.65     40.815
     3.7858     262.41     20.427
     3.8121     289.76     24.451
     3.8216     246.41     25.238
     3.8392     267.23      25.18
     3.8752     239.89     32.195
     3.8844     223.22     29.952
     3.9202     215.35     30.567
     3.9376     237.79     27.127
     4.0091     227.38      30.51
     4.0175     257.94     32.015
     4.0717     211.63     24.157
     4.0809     195.16     21.565
     4.1253     206.03     36.261
     4.1434     191.72     21.179
     4.1792     184.96     29.091
     4.1885     166.02     18.341
     4.2056     202.41     23.097
     4.2596     173.71     34.279
     4.2689     154.53     20.734
     4.2951     180.11     16.985
     4.3488     172.21     41.538
     4.3664     181.78      32.67
     4.4198     183.46     24.643
     4.4289     175.39     23.539
     4.4746     129.16     28.777
     4.4828     156.05     13.438
     4.4915     166.21     22.325
     4.4923      133.9     16.922
     4.5014     125.73      11.86
     4.5016     120.19     11.331
     4.5187     146.53     16.727
     4.5548     126.89      20.98
     4.5727     124.63     20.612
     4.5731     112.88     9.7203
     4.6266     111.89      12.36
     4.6352     122.44      13.98
     4.6447     102.26     12.121
     4.6627     98.649     12.464
     4.6806     95.165     8.9637
     4.6889     112.93      9.533
     4.7076     89.361     7.6951
     4.7164     93.479     10.667
     4.7255     86.985     14.987
     4.7259     78.781     15.312
      4.761     91.002     14.099
     4.7793     80.229     10.765
     4.7879     87.004     9.9251
     4.8333     70.106     10.494
     4.8417     79.528     17.424
     4.8508     76.717     11.095
     4.8512     67.024     13.512
     4.9135     68.875     7.8594
     4.9228     62.381     9.3343
     4.9236     50.257     5.9541
     4.9327     46.766     8.7497
     4.9587     58.578     7.8705
     4.9687     43.521     7.8226
     4.9946     54.025      6.399
     4.9948     51.647     9.6602
     4.9962     35.066     10.607
     5.0212      57.03     5.9341
     5.0379     76.769     11.487
     5.0466     82.506     7.7684
     5.0554     85.535     15.051
     5.1265     88.695     13.745
       5.18     89.515     26.712
     5.2424     87.937     9.7145
     5.2605     81.097     13.363
     5.3046      92.84      20.34
     5.3316     86.396     13.586
     5.3669     94.549     12.686
     5.4107     118.44     19.588
     5.4821     116.36      20.47
     5.5091     108.28     12.352
     5.5448     104.46     9.8544
     5.5538     101.68     15.215
     5.5818     72.223     14.252
     5.6186     53.182     6.7194
     5.6192     44.819      5.664
     5.6362     56.138     5.8413
     5.6372     42.464     6.6789
     5.6732      38.12     6.5669
     5.6818     41.713     14.147
     5.6914     34.218     4.8559
     5.7268     36.779     11.124
     5.7279     27.571     11.363
     5.7796     44.845     5.1141
     5.7877     55.666     8.3294
     5.7977     40.986     7.0629
     5.8057     54.186     10.923
     5.8141     62.024     11.576
     5.8158     38.485     2.9947
     5.8659      99.98      15.49
     5.9199     85.805     13.297
     5.9379     81.298     13.399
     5.9864      27.35     9.7931
       6.02     47.376     11.429
     6.0291     45.292     9.9231
     6.0471     42.913     8.6503
     6.0573     30.205     8.3147
     6.1022     27.361     5.3193
     6.1198     29.407     4.5573
     6.1304     18.247      8.791
     6.1306     17.444     3.1354
     6.1411      11.12     4.5835
      6.169     7.9701     5.1406
     6.1735     27.123     6.5433
     6.2216     10.258     9.0438
     6.2816     19.978     7.5818
     6.2852     7.2868     6.0617
     6.2893      28.13     7.4195
     6.2894     26.891     54.507
     6.3038     5.8183      4.795
     6.3492     4.6046     3.5718
      6.357     6.3678     3.4585
     6.3576     5.3183     2.4612
     6.3855     3.8462     2.7945
     6.4447     9.5525     2.7068
     6.4531     10.836     6.4328
     6.4618     11.542     10.729
     6.4711     10.267     8.6703
     6.4744     4.1348     0.5869
     6.5325     13.699     1.0223
     6.5422      10.84    0.70489
     6.5938     18.779     1.5852
      6.595     13.457    0.82209
ENDDATA            231
ENDSUBENT          249
SUBENT        22482013   20081119   20090306   20090302       2206
BIB                  5          9
REACTION   (66-DY-163(N,G)66-DY-164,,MLT/DE,,REL/AV) Counts/
             25 keV. Averaged over incident neutron energy
             interval
EN-SEC     (E,G)
ERR-ANALYS (E-ERR-DIG)  Gamma secondary energy digitizing error
           (ERR-DIG)    Data digitizing error
           (DATA-ERR)   Error from the graphic bars
STATUS     (CURVE) Fig.9   (Dy-163)
HISTORY    (20081124C)  SM
ENDBIB               9
COMMON               4          3
EN-MIN     EN-MAX     E-ERR-DIG  ERR-DIG
KEV        KEV        MEV        ARB-UNITS
     15.        90.    8.7141E-03 4.0342E-03
ENDCOMMON            3
DATA                 3        195
E          DATA       DATA-ERR
MEV        ARB-UNITS  ARB-UNITS
    0.41197 1.9355E+03     134.53
    0.43809 2.3384E+03
    0.46375 3.2337E+03
     0.4733 2.7010E+03
    0.51842 2.3602E+03
    0.56262 2.6777E+03
    0.59799 2.9567E+03
    0.61453 4.3155E+03
    0.63094 6.5295E+03
    0.65791 6.1868E+03
    0.70277 5.8099E+03
    0.71029 8.7116E+03
    0.74619 8.2546E+03
    0.76606 4.6402E+03
    0.79479 2.6558E+03
    0.81299 2.4056E+03
    0.84902 2.1988E+03
    0.87647 1.8203E+03
     0.9118 2.0282E+03
    0.95663 1.9218E+03
     1.0103 1.8879E+03
     1.1175 1.8383E+03     112.26
      1.135 2.0298E+03
     1.1613 2.3656E+03
     1.2326 2.4530E+03     206.91
     1.2507 2.2622E+03
     1.3672 2.0132E+03     105.85
     1.4115 2.2432E+03
     1.4379 2.4548E+03
     1.4821 2.7849E+03     181.12
     1.5451 2.4557E+03
     1.5626 2.6631E+03
     1.6159 2.8884E+03
     1.6425 3.0765E+03
     1.6782 3.0493E+03
     1.7052 2.9154E+03
      1.741 2.8637E+03
     1.7679 2.7380E+03
     1.8394 2.6898E+03
     1.8843 2.5033E+03
     1.9292 2.3089E+03
     1.9914 2.5269E+03
     2.0096 2.3095E+03
     2.0629 2.4382E+03
     2.1257 2.2489E+03
     2.1433 2.4389E+03
     2.1968 2.4614E+03       160.
     2.2326 2.4617E+03     212.05
     2.2683 2.4620E+03     232.02
     2.3128 2.5071E+03     187.11
     2.3398 2.4187E+03     188.22
     2.3753 2.5304E+03     164.56
     2.4112 2.4193E+03     188.26
     2.4378 2.5082E+03     163.13
     2.4736 2.5086E+03     195.21
     2.5272 2.4643E+03     160.27
     2.5719 2.3990E+03     156.02
     2.6167 2.2938E+03     197.45
     2.6255 2.3779E+03     154.65
     2.6793 2.2332E+03     192.23
     2.7331 2.1353E+03     183.81
     2.7867 2.0602E+03     143.14
     2.8315 2.0237E+03     174.15
     2.8941 1.9178E+03     165.03
     2.9746 1.8505E+03     159.29
     3.0284 1.7378E+03      191.9
     3.0733 1.6028E+03     151.05
     3.1271 1.5188E+03     191.87
      3.199 1.3393E+03     113.06
     3.2528 1.2578E+03     106.14
     3.2886 1.2244E+03     103.36
     3.3067 1.1394E+03     161.71
     3.3606 1.0322E+03     107.47
     3.4143      995.9     117.94
     3.4859     943.78     119.23
     3.4951     870.36     116.72
     3.5844     862.84     122.38
     3.6829     803.17     150.18
     3.6835     676.91     90.911
     3.7366     761.09     113.84
     3.8083     714.79     101.46
     3.8264     671.18      84.79
      3.907     613.58     87.061
     3.9609     560.87     57.426
     4.0058     531.47     54.415
     4.0684     517.42     52.992
     4.1221     494.75      46.64
     4.2025     490.45     61.945
     4.3009     460.66     72.416
     4.3548      424.9     36.575
      4.417     456.72     68.328
     4.4261     432.72     51.235
     4.4798     413.76     45.703
     4.5335     402.81      54.03
     4.6321     364.97
     4.6326     310.37
     4.7039     327.68       30.9
      4.758     276.22     26.047
     4.7844     313.35     21.771
       4.82     321.97     40.665
     4.8297     261.77     22.541
     4.8827     305.11     40.916
      4.919     254.87     44.839
     4.9462     230.87     14.098
     4.9992     266.68     29.457
     5.0351     252.69     52.579
     5.0891     226.86     15.769
     5.0976     255.03     16.578
      5.116     220.84     31.335
     5.1514     241.67     30.001
     5.1786     209.28     15.619
     5.2057     191.28     34.369
     5.2686     173.29      19.76
     5.3313     162.74     15.342
     5.4022       188.      12.22
     5.4204     171.82     21.702
     5.4654     155.65       24.1
     5.5274      179.8     18.409
     5.5547      155.7     15.942
     5.5994     151.58     13.048
     5.6617     161.47     20.051
     5.6621     144.94     16.005
      5.734     125.53     13.862
     5.7605     136.13     12.822
     5.7876     123.31     12.629
     5.8062     102.08     12.668
     5.8333     91.637     11.574
     5.8594     110.72      11.52
     5.9146     70.604     11.672
     5.9782     51.535     6.9138
     6.0134     58.992     9.1384
     6.0153     34.067     3.7591
     6.0594     40.065     3.1166
     6.0613     23.346       7.06
     6.0767     46.693      7.719
     6.1133     36.295     3.4205
     6.1425     18.314     5.8783
     6.1502     26.253     6.3306
     6.1803     10.112     5.4911
     6.1951     24.213      6.222
     6.2322     16.297     5.0298
     6.2406     19.164     6.3964
     6.3386     20.235     6.8603
     6.3559     23.582     6.8303
     6.4091     26.277     7.7793
     6.4263     32.033     4.2958
     6.4616     35.372       7.36
     6.5165     24.241     6.8666
     6.5411     45.524     10.774
      6.586     41.988     7.5433
     6.6033     49.823      7.718
     6.6304      45.95     7.9131
     6.6473     60.743     13.303
     6.7096     64.128     26.422
     6.7715     75.425     27.002
     6.8076     68.323     9.1623
      6.889     50.324     9.0409
      6.915     62.465     22.998
      6.943     43.976     8.8628
     6.9633     21.794     6.7253
      6.989     29.599     7.1388
     7.0075     24.724     6.0196
     7.0444     17.564     5.2003
     7.0566     6.8879     5.5003
     7.0697     27.304     7.7348
     7.0904     12.146     6.1809
     7.1167     13.778     7.3099
     7.1653     4.3933     4.2903
     7.1977     11.511     6.6606
     7.2177     6.2421      5.411
     7.2449     5.5036     4.6724
     7.2582     20.301     7.2414
     7.2945     17.266     6.4543
     7.3017     28.328     9.4345
     7.3282     30.999     11.056
     7.3815     33.622     21.041
     7.4075     41.359     18.456
      7.436     25.212     10.119
     7.4416     66.055     8.8618
     7.4603     52.275     16.458
     7.4777     59.835     9.8917
     7.5147     41.375     10.075
     7.5427     28.867     27.319
     7.5854     50.905     11.148
     7.6413     26.155     24.564
     7.6694     1.3535     1.2466
     7.6878     15.243     11.073
     7.7075     9.0441     8.6804
     7.7338     10.168      9.804
     7.7659     2.2213     2.1134
     7.7831     2.7324     2.6245
     7.8361     3.1563     3.0484
     7.8652      1.651     1.5431
     7.8937     1.0155    0.90758
     7.9081     2.7336     2.6257
ENDDATA            197
ENDSUBENT          215
SUBENT        22482014   20081119   20090306   20090302       2206
BIB                  5          9
REACTION   (66-DY-161(N,G)66-DY-162,,MLT/DE,,REL/SPA) Counts/
             100 keV. Averaged over incident neutron energy
             spectrum
EN-SEC     (E,G)
ERR-ANALYS (E-ERR-DIG)  Gamma secondary energy digitizing error
           (ERR-DIG)    Data digitizing error
           (DATA-ERR)   Error from the graphic bars
STATUS     (CURVE) Fig. 11   (Dy-161)
HISTORY    (20081124C)  SM
ENDBIB               9
COMMON               4          3
EN-MEAN    EN-RSL-FW  E-ERR-DIG  ERR-DIG
KEV        KEV        MEV        ARB-UNITS
   550.        80.     1.1073E-02 6.7635E-03
ENDCOMMON            3
DATA                 3         81
E          DATA       DATA-ERR
MEV        ARB-UNITS  ARB-UNITS
    0.58585 2.9257E+03     203.41
    0.69183 3.5065E+03     214.28
    0.78877 4.2403E+03     294.82
    0.87829 4.2819E+03     261.66
    0.98046 2.8063E+03     195.12
     1.0799 2.5209E+03     196.31
     1.1875 2.5233E+03     188.55
     1.2868 2.3079E+03     160.46
     1.3873 1.8275E+03     136.56
     1.4949 1.8128E+03     117.99
     1.5948 1.5568E+03     131.47
      1.685 1.4496E+03     112.89
     1.7918 1.5735E+03     132.88
     1.8729 1.5053E+03     91.985
     1.9713 1.5202E+03      105.7
     2.0874 1.5918E+03     118.94
      2.186 1.5932E+03     103.69
     2.2849 1.5381E+03     93.988
     2.3919 1.6250E+03     121.29
     2.4905 1.6118E+03      104.9
      2.572 1.4608E+03     94.954
     2.6796 1.4490E+03      94.31
     2.7703 1.2783E+03     95.413
      2.851 1.2677E+03     82.511
     2.9139 1.2458E+03     69.183
     3.0044 1.1190E+03      72.83
     3.0955     935.23     69.884
     3.2037      863.2     56.181
     3.2858     727.92     54.393
     3.3947     625.14     46.713
     3.4931     631.34     41.091
     3.5837     567.09     42.375
     3.7012      500.4     47.168
     3.7917     449.48     33.549
     3.8906     433.94     36.645
     4.0081     386.37     39.641
     4.1066      390.2     36.747
     4.1879     360.06     42.662
     4.2967     309.23     38.417
     4.4052      277.8     28.936
     4.5062     208.41     31.195
     4.6125     240.94     29.954
     4.7029     218.38     31.007
     4.8126     168.33     29.023
     4.9087      226.8      25.87
     5.0016     154.08     29.947
     5.1014     132.32      24.76
     5.2113     100.17     25.086
     5.3104     94.129     24.205
     5.4004     90.053     24.346
     5.5067     104.11     23.935
     5.6049       109.     21.191
     5.7057     83.259     21.965
     5.8158     61.906     22.452
     5.9113     88.835      26.52
     6.0123     66.645     25.296
     6.1196     67.919     20.549
     6.2066     93.165       18.4
     6.3175     62.737     18.984
     6.4165     59.486     21.574
     6.5109     33.751     18.338
     6.6028     25.779     17.033
     6.7071     37.668     18.675
     6.7932     6.9306     5.8761
     6.8891     27.278     19.687
     7.0003      17.56     18.868
     7.1926     10.814     16.295
     7.2976     5.1243     16.342
      7.506     31.962     17.234
      7.601     48.412       26.7
     7.7038     29.523     22.347
     7.7861     8.5223     15.277
     7.9938     7.0026     4.5176
     8.0925     6.9457     5.8709
     8.1881     3.4119     4.6181
     8.2926     4.8965     4.6405
     8.3988      5.712     3.9412
     8.4849     3.0153     4.6812
     8.5955     5.9854     3.9913
     8.6808     3.4887      3.478
     8.9904    0.67885    0.66808
ENDDATA             83
ENDSUBENT          101
SUBENT        22482015   20081119   20090306   20090302       2206
BIB                  5          9
REACTION   (66-DY-162(N,G)66-DY-163,,MLT/DE,,REL/SPA) Counts/
             100 keV. Averaged over incident neutron energy
             spectrum
EN-SEC     (E,G)
ERR-ANALYS (E-ERR-DIG)  Gamma secondary energy digitizing error
           (ERR-DIG)    Data digitizing error
           (DATA-ERR)   Error from the graphic bars
STATUS     (CURVE) Fig. 11   (Dy-162)
HISTORY    (20081124C)  SM
ENDBIB               9
COMMON               4          3
EN-MEAN    EN-RSL-FW  E-ERR-DIG  ERR-DIG
KEV        KEV        MEV        ARB-UNITS
   550.       113.     1.3613E-02 9.9539E-03
ENDCOMMON            3
DATA                 3         64
E          DATA       DATA-ERR
MEV        ARB-UNITS  ARB-UNITS
    0.60874 3.2361E+03      198.2
    0.69737 3.6418E+03     416.45
    0.84199 3.1274E+03     321.34
    0.94929 3.2161E+03      240.9
     1.1394 2.5472E+03     198.62
     1.2194 2.7398E+03     231.94
     1.2907 2.8941E+03     244.76
     1.3891 2.9492E+03     303.04
     1.5154 2.6492E+03     272.39
     1.6052 2.5803E+03     295.28
     1.6861 2.5130E+03     216.96
     1.8015 2.8544E+03     269.72
     1.8926 2.3846E+03     178.62
     1.9918 2.2003E+03     171.73
     2.0981 2.5677E+03     217.36
     2.1966 2.5931E+03     202.38
     2.3122 2.8666E+03     214.72
      2.393 2.8172E+03     172.55
     2.5096 2.7695E+03     207.45
        2.6 2.5323E+03      155.1
     2.6995 2.2537E+03     190.78
     2.8076 2.0985E+03     163.78
     2.8971 2.1384E+03     139.51
     2.9971 1.7865E+03      124.5
      3.095 1.9394E+03     145.27
     3.2046 1.5075E+03     142.45
     3.3146 1.1100E+03     93.876
     3.4045 1.0714E+03     111.97
     3.5226     879.26     118.55
     3.6037     833.46     120.95
     3.7023     834.15     131.55
     3.8102     798.04     91.324
     3.9006     723.13     54.107
     3.9369      685.2     53.478
       4.01     577.53      73.19
     4.1007     504.76     75.747
     4.1989      528.5     76.651
     4.2985     461.94      65.76
     4.3914     310.72      71.58
     4.4923     232.94      69.14
     4.6049     376.27     66.369
     4.6962     305.94     63.995
     4.7873     253.29     71.947
     4.8943      272.5     78.383
     4.9873      178.4     67.856
     5.0945     186.81     60.338
     5.1872     127.95     56.161
     5.2928     161.95      55.05
     5.3837     137.76     53.912
     5.4938     100.52     50.369
     5.5963     185.91     49.142
     5.6941     203.64     52.483
     5.7911     83.365     56.154
     5.8895     253.33     60.097
     5.9885     238.01     61.314
      6.104     90.659     46.237
     6.1952     75.057     43.227
     6.2928     83.715     50.387
     6.3977     114.93     49.268
     6.4936     159.21     48.269
      6.684     13.801     85.901
     6.7907     45.493     44.381
     6.8839     86.439      58.48
     6.9892     4.3167     31.396
ENDDATA             66
ENDSUBENT           84
SUBENT        22482016   20081119   20090306   20090302       2206
BIB                  5          9
REACTION   (66-DY-163(N,G)66-DY-164,,MLT/DE,,REL/SPA) Counts/
             100 keV. Averaged over incident neutron energy
             spectrum
EN-SEC     (E,G)
ERR-ANALYS (E-ERR-DIG)  Gamma secondary energy digitizing error
           (ERR-DIG)    Data digitizing error
           (DATA-ERR)   Error from the graphic bars
STATUS     (CURVE) Fig. 11   (Dy-163)
HISTORY    (20081124C)  SM
ENDBIB               9
COMMON               4          3
EN-MEAN    EN-RSL-FW  E-ERR-DIG  ERR-DIG
KEV        KEV        MEV        ARB-UNITS
   550.        80.     9.2889E-03 5.2680E-03
ENDCOMMON            3
DATA                 3         77
E          DATA       DATA-ERR
MEV        ARB-UNITS  ARB-UNITS
    0.59301 3.4869E+03     300.59
    0.69614 5.8873E+03     360.03
    0.79705 4.3759E+03     267.61
    0.90116 2.2074E+03     226.63
     1.0004 2.0187E+03     206.99
     1.0915 1.6568E+03     196.34
     1.1881 2.0961E+03     215.21
     1.2865 2.1169E+03     182.49
     1.3932 2.2978E+03     194.21
      1.493 1.9553E+03     216.23
     1.5905 2.2201E+03     144.61
      1.698 2.1824E+03     133.46
     1.7965 2.1842E+03     152.13
     1.8947 2.2662E+03     125.96
     1.9855 1.9282E+03     117.92
     2.1021 1.8786E+03     130.71
     2.2007 1.8633E+03     145.21
     2.2994 1.7987E+03     169.81
     2.3969 2.0241E+03     123.78
     2.5042 2.0627E+03     126.29
     2.6028 2.0459E+03     142.35
     2.7025 1.7566E+03     122.23
     2.7925 1.6654E+03     115.88
     2.9091 1.6080E+03       112.
     2.9907 1.4183E+03     86.734
     3.0987 1.3327E+03     92.732
     3.1979 1.2188E+03     84.808
     3.2985     939.21     73.193
      3.398     828.53      71.48
     3.4967     807.09     76.249
     3.5958     751.55       70.9
     3.7045     645.34     55.632
     3.8034     611.86     57.764
     3.9024     574.91     63.579
     4.0033     427.33     54.048
     4.0932     405.13     54.417
     4.2094     416.64     55.963
     4.3013     312.46     53.872
     4.4094     288.37     51.878
     4.4992     278.37     50.078
     4.6059      304.9     45.651
     4.7037     330.94     44.495
     4.8054     222.76     46.545
     4.9088     362.78     51.547
     5.0089     300.46      51.84
     5.1094     233.62     43.749
     5.2123     136.13     39.494
     5.3123     113.77     39.293
     5.4136      80.11     37.495
     5.5119     82.374     36.116
     5.6129     179.01     37.404
     5.7208     169.74     39.058
     5.8135     115.28     39.138
     5.9106      135.7      42.78
       6.01     138.27     43.576
      6.151     114.52     34.669
     6.1985     114.61     31.757
     6.3073     97.532     32.529
     6.4001     65.056     35.364
     6.5006     51.043     31.236
     6.9007     71.492     40.858
     6.9968     32.073     28.518
     7.0934     40.213      39.77
     7.1882     21.219     21.111
     7.3854     20.501     20.392
     7.4791     108.76     39.463
     7.5937     45.814     45.707
     7.6949     32.847     32.739
     7.7739     1.5192     1.4119
     7.8833     31.448     90.152
     7.9885     13.857     13.752
     8.0887     33.253     24.337
     8.1859     13.149     13.042
     8.2913     16.788     16.005
     8.3859      9.101     8.9922
      8.484     9.5285     9.4205
     8.5865     5.8083     3.7672
ENDDATA             79
ENDSUBENT           97
SUBENT        22482017   20090116   20090306   20090302       2206
BIB                  5          8
REACTION   (66-DY-161(N,G)66-DY-162,,MLT/DE,,SPA)   Averaged over
             incident neutron energy spectrum width
EN-SEC     (E,G)
ERR-ANALYS (E-ERR-DIG)  Gamma secondary energy digitizing error
           (ERR-DIG)    Data digitizing error
           (DATA-ERR)   Error from the graphic bars
STATUS     (CURVE) Fig. 13(a) (Dy-161, 550 keV)
HISTORY    (20090116C)  SM
ENDBIB               8
COMMON               4          3
EN-MEAN    EN-RSL-FW  E-ERR-DIG  ERR-DIG
KEV        KEV        MEV        PT/RCT/MEV
   550.        80.     2.5833E-02 6.3357E-03
ENDCOMMON            3
DATA                 3         80
E          DATA       DATA-ERR
MEV        PT/RCT/MEV PT/RCT/MEV
    0.62559     1.4721    0.57899
    0.71063     2.2612    0.56203
    0.81599     2.7059    0.23102
    0.90456     2.9088    0.24834
     1.0179     1.5591    0.23136
     1.1112     1.0351    0.24298
     1.1971     1.4542     0.1935
      1.305     1.3554    0.15321
     1.4151     1.0018    0.16375
     1.5221     1.0209     0.1779
     1.5953    0.85462    0.11372
     1.7031    0.79657    0.13021
      1.791    0.91965    0.10413
     1.8985    0.88834    0.10433
     1.9874    0.92144    0.10822
     2.0936     1.0085    0.11845
     2.1827     1.0276    0.12053
     2.3081    0.99278    0.10082
     2.3965     1.0864 7.4859E-02
     2.4854     1.1269 9.6209E-02
     2.5929     1.0885 9.2934E-02
     2.7005     1.0329 8.8349E-02
     2.7898     1.0338 7.1232E-02
     2.8798     0.9634 6.6383E-02
      2.988    0.86648 7.3976E-02
     3.0792    0.71265 7.2374E-02
     3.1872     0.6525 5.5707E-02
     3.2779    0.56617 6.6409E-02
     3.3868    0.47413 5.5686E-02
     3.4938    0.48318 4.9070E-02
      3.602    0.43457 5.1040E-02
     3.6921    0.39782 4.0401E-02
     3.8007    0.34525 4.5940E-02
     3.8898    0.35178 4.6808E-02
     3.9978    0.32209 3.7829E-02
     4.0876    0.30556 3.5888E-02
     4.1949    0.30048 3.5291E-02
     4.2854    0.26542 3.5317E-02
     4.3936    0.23872 3.9022E-02
     4.4861    0.17328 3.8289E-02
     4.5731    0.21872 3.8114E-02
     4.6993    0.19327 3.1622E-02
     4.7914    0.14539 3.0107E-02
     4.8945    0.21942 3.5867E-02
     4.9883    0.13808 3.0529E-02
     5.0792    0.11769 2.7644E-02
     5.2076 8.3947E-02 2.5212E-02
     5.2977 7.6847E-02 2.4021E-02
     5.3858 8.7151E-02 2.3936E-02
     5.4918 9.7105E-02 2.4123E-02
     5.5981    0.10628 2.4978E-02
     5.6909 7.4441E-02 2.1400E-02
     5.8008 5.6008E-02 2.3801E-02
     5.8857 8.7583E-02 2.5189E-02
     5.9785 6.1345E-02 2.4786E-02
     6.1021 7.0848E-02 2.1269E-02
     6.2062 9.6064E-02 2.2564E-02
     6.2817 6.3765E-02 1.9932E-02
     6.3892 6.1594E-02 2.0731E-02
     6.4995 4.4717E-02 2.0775E-02
     6.6086 3.6785E-02 1.8450E-02
     6.6934 5.7523E-02 2.0042E-02
     6.7811 6.7606E-02 2.2754E-02
     6.8909 5.1782E-02 2.3557E-02
     7.0023 3.3775E-02 1.9941E-02
     7.0992 1.5692E-02 1.1503E-02
     7.1793 6.5487E-03 4.7045E-03
     7.2857 7.0408E-03 4.9113E-03
      7.405 1.2480E-02 8.9660E-03
     7.7992 1.0861E-02 9.6307E-03
     7.8949 5.7176E-03 4.1917E-03
     7.9794 9.2659E-03 6.1467E-03
     8.0897 6.7270E-03 4.7988E-03
      8.185 3.6699E-03 2.5991E-03
     8.2884 5.3444E-03 3.8125E-03
     8.3768 5.8484E-03 4.1105E-03
     8.4839 5.8546E-03 4.0842E-03
       8.59 6.5233E-03 4.0795E-03
     8.6841 4.0324E-03 2.8968E-03
     8.8057 9.3412E-04 8.2248E-04
ENDDATA             82
ENDSUBENT           99
SUBENT        22482018   20090116   20090306   20090302       2206
BIB                  5          8
REACTION   (66-DY-161(N,G)66-DY-162,,MLT/DE,,AV)    Averaged over
             incident neutron energy interval
EN-SEC     (E,G)
ERR-ANALYS (E-ERR-DIG)  Gamma secondary energy digitizing error
           (ERR-DIG)    Data digitizing error
           (DATA-ERR)   Error from the graphic bars
STATUS     (CURVE) Fig. 13(a) (Dy-161, 15-90 keV)
HISTORY    (20090116C)  SM
ENDBIB               8
COMMON               4          3
EN-MIN     EN-MAX     E-ERR-DIG  ERR-DIG
KEV        KEV        MEV        PT/RCT/MEV
   15.         90.     2.1733E-02 6.0614E-03
ENDCOMMON            3
DATA                 3        119
E          DATA       DATA-ERR
MEV        PT/RCT/MEV PT/RCT/MEV
    0.62324    0.81736 9.5655E-02
    0.65609     1.0867 7.4605E-02
    0.71393     0.6971 7.0539E-02
    0.74065     1.7269    0.11856
    0.81002     2.1014    0.14427
    0.85947     3.1648    0.21727
    0.91469     2.6507    0.18197
    0.95629     1.4486    0.16953
    0.99439     1.1298    0.11432
     1.0723    0.57527    0.16499
     1.1038    0.88176    0.30639
     1.1366     1.1723    0.15544
     1.1892      1.282    0.15003
     1.2953     1.4027 9.6296E-02
     1.3523    0.98343 9.1434E-02
      1.426    0.76725    0.10185
     1.4956    0.91719    0.12157
     1.5503    0.81028    0.10744
     1.6747    0.84064 7.1509E-02
     1.7454    0.88732 6.0916E-02
     1.8337    0.97066 8.2570E-02
     1.9226    0.98894 8.4125E-02
     2.0294     1.0077 8.5725E-02
     2.0825     1.0448 9.7136E-02
      2.154     1.0271 8.7368E-02
     2.2424     1.1037    0.10262
      2.331     1.1652    0.11791
     2.4198     1.2085 8.2964E-02
     2.4909      1.231    0.14406
     2.5809     1.1273 7.7390E-02
     2.6709     1.0323 7.0868E-02
     2.7782    0.99727 7.3510E-02
     2.8676    0.96327 8.9559E-02
     2.9218    0.89761 6.6165E-02
     2.9936    0.85158 6.2772E-02
      3.048    0.77955 6.6312E-02
     3.1201    0.71373 6.6359E-02
      3.192    0.67713 6.2956E-02
     3.2643    0.60904 4.1812E-02
     3.3536    0.59883 4.4141E-02
     3.3903    0.53842 4.5801E-02
     3.4799     0.5109 3.7660E-02
     3.5338    0.49331 3.6363E-02
     3.6051    0.49365 3.3890E-02
     3.6426     0.4061 2.9934E-02
      3.697    0.37175 3.1623E-02
     3.7866    0.35275 3.2796E-02
     3.8759    0.34683 2.5566E-02
      4.001    0.33512 3.1158E-02
     4.0736    0.29611 3.4654E-02
      4.163    0.28602 3.2200E-02
     4.2352    0.26187 3.0646E-02
     4.3432    0.23562 2.1906E-02
     4.4148    0.22754 1.9356E-02
     4.5225    0.21215 1.9724E-02
     4.5772    0.18742 2.1100E-02
     4.6492    0.17467 1.7675E-02
     4.7392    0.15995 1.8008E-02
     4.8112    0.14908 1.7446E-02
     4.9004    0.14658 1.9427E-02
     4.9901    0.13908 1.6277E-02
     5.0799    0.12965 1.5173E-02
     5.1872    0.12525 1.6626E-02
      5.259    0.11883 1.5756E-02
     5.3668    0.10883 1.4425E-02
     5.4565    0.10327 1.2086E-02
     5.5273      0.109 1.2272E-02
     5.6157    0.11714 1.3188E-02
     5.6877    0.10918 1.6666E-02
     5.7773     0.1036 1.0483E-02
     5.8848 9.8318E-02 1.1069E-02
     5.9578 8.2360E-02 7.6574E-03
     6.0137 6.4244E-02 8.5150E-03
     6.0511 5.3798E-02 6.0567E-03
     6.1064 4.5058E-02 5.0727E-03
     6.1436 3.8409E-02 6.2509E-03
     6.2154 3.6439E-02 6.4733E-03
     6.2865 3.7119E-02 5.4890E-03
     6.3576 3.7811E-02 6.1647E-03
     6.4468 3.7844E-02 5.0159E-03
     6.5013 3.4032E-02 5.2021E-03
      6.538 3.0599E-02 2.6029E-03
     6.5932 2.5628E-02 4.9242E-03
     6.6673 1.9296E-02 4.2495E-03
     6.7213 1.8303E-02 5.0131E-03
     6.7919 1.9666E-02 6.4718E-03
     6.8457 1.8989E-02 5.3673E-03
     6.9013 1.5349E-02 4.4002E-03
     6.9373 1.4818E-02 4.9736E-03
     6.9714 1.7395E-02 4.0699E-03
     7.0248 1.7404E-02 4.1394E-03
     7.0593 1.9718E-02 4.6897E-03
     7.0963 1.7109E-02 3.7703E-03
     7.1545 1.0592E-02 3.4856E-03
     7.1952 6.3268E-03 3.2754E-03
     7.2312 6.1079E-03 2.8304E-03
     7.3186 7.3028E-03 3.4960E-03
     7.3207 5.8997E-03 1.6158E-03
     7.4128 4.3645E-03 1.6161E-03
     7.4278 5.8018E-03 1.7747E-03
     7.4858 3.6561E-03 1.4733E-03
     7.5003 5.1264E-03 2.3218E-03
     7.5105 1.8278E-03 1.7766E-03
     7.5311 1.3755E-03 1.3620E-03
     7.5374 4.4482E-03 2.0135E-03
     7.5935 3.4087E-03 2.4941E-03
     7.6221 6.9441E-03 9.2038E-04
      7.631 2.8041E-03 1.7683E-03
     7.6695 2.1105E-03 1.3445E-03
     7.7254 1.6463E-03 1.4514E-03
     7.7546 3.1796E-03 1.9593E-03
     7.8275 2.7113E-03 1.7948E-03
      7.893 4.8788E-03 1.9661E-03
     7.9606 7.0922E-03 1.8443E-03
     8.0481 8.3302E-03 2.3564E-03
     8.1028 7.3592E-03 2.2511E-03
     8.1942 5.8455E-03 1.6509E-03
     8.2341 3.8163E-03 1.3469E-03
     8.2944 1.9086E-03 1.6702E-03
ENDDATA            121
ENDSUBENT          138
SUBENT        22482019   20090116   20090306   20090302       2206
BIB                  5          8
REACTION   (66-DY-162(N,G)66-DY-163,,MLT/DE,,SPA)   Averaged over
             incident neutron energy spectrum width
EN-SEC     (E,G)
ERR-ANALYS (E-ERR-DIG)  Gamma secondary energy digitizing error
           (ERR-DIG)    Data digitizing error
           (DATA-ERR)   Error from the graphic bars
STATUS     (CURVE) Fig. 13(b)  (Dy-162, 550 keV)
HISTORY    (20090116C)  SM
ENDBIB               8
COMMON               4          3
EN-MEAN    EN-RSL-FW  E-ERR-DIG  ERR-DIG
KEV        KEV        MEV        PT/RCT/MEV
   550.       113.     1.5281E-02 1.0536E-02
ENDCOMMON            3
DATA                 3         66
E          DATA       DATA-ERR
MEV        PT/RCT/MEV PT/RCT/MEV
    0.64045    0.60146    0.41126
    0.72782     1.3038    0.44177
    0.81724     1.0509    0.23396
    0.90643    0.94353    0.21003
     1.0136    0.77432    0.20399
     1.1211    0.54047    0.17664
     1.2097    0.65885    0.21531
     1.3161      0.761    0.19033
     1.4229     0.7476      0.187
     1.5122    0.65927    0.18235
     1.6185    0.81829    0.14691
     1.7076    0.76163    0.14787
      1.814    0.89568    0.12005
     1.9212    0.73504    0.13194
     2.0104    0.65996    0.11848
     2.0989    0.80452    0.12023
     2.2233    0.89645    0.13402
     2.3119     1.0354     0.1225
     2.4187     1.0172 8.7493E-02
     2.5076     1.0738 9.2362E-02
     2.6146    0.94694 8.1452E-02
     2.7215    0.88139 9.0175E-02
     2.8285    0.80576 8.2437E-02
     2.9173    0.86604 9.8703E-02
     3.0067    0.71069 8.4085E-02
     3.1131    0.83578 7.1891E-02
     3.2204    0.63827 6.5302E-02
     3.3101    0.45358 6.7797E-02
      3.399    0.45366 6.0791E-02
     3.5059    0.43773 5.8670E-02
     3.6131    0.35922 5.9129E-02
     3.7199    0.34043 5.0884E-02
     3.8088    0.35937 4.0958E-02
      3.916    0.28966 4.7689E-02
     4.0054    0.22931 4.4514E-02
     4.1123    0.22125 4.6136E-02
      4.201    0.25099 4.5067E-02
     4.3081    0.21352 4.4517E-02
     4.4158    0.13379 4.2091E-02
     4.5233 9.3384E-02 3.7960E-02
     4.6109    0.17848 3.2043E-02
     4.7004    0.14386 3.9787E-02
     4.8076    0.11595 3.9288E-02
     4.8962    0.13636 3.7712E-02
      5.004 8.2419E-02 3.6897E-02
     5.0931 7.8103E-02 3.1747E-02
     5.2183 5.6515E-02 3.0905E-02
     5.3065 8.1001E-02 2.9340E-02
     5.4142 5.1675E-02 2.7833E-02
     5.5035 4.3959E-02 2.6708E-02
     5.6087 9.5297E-02 2.8798E-02
     5.7153    0.10429 3.0191E-02
     5.8062 3.9487E-02 2.4805E-02
     5.8925    0.14422 3.4102E-02
     5.9994    0.13424 3.1745E-02
     6.0906 4.7297E-02 2.5863E-02
     6.1975 4.3239E-02 2.5004E-02
     6.3035 6.1975E-02 2.7123E-02
     6.3737    0.10074 2.7868E-02
     6.4985 9.0460E-02 2.3833E-02
     6.5903 2.2242E-02 1.4406E-02
     6.6982 1.2969E-02 1.1550E-02
     6.7844 5.0900E-02 1.8436E-02
     6.8915 4.3302E-02 2.3679E-02
     7.0015 8.7359E-03 8.3181E-03
     7.0992 1.2522E-04 6.5918E-04
ENDDATA             68
ENDSUBENT           85
SUBENT        22482020   20090116   20090306   20090302       2206
BIB                  5          8
REACTION   (66-DY-162(N,G)66-DY-163,,MLT/DE,,AV)    Averaged over
             incident neutron energy interval
EN-SEC     (E,G)
ERR-ANALYS (E-ERR-DIG)  Gamma secondary energy digitizing error
           (ERR-DIG)    Data digitizing error
           (DATA-ERR)   Error from the graphic bars
STATUS     (CURVE) Fig. 13(b) (Dy-162, 15-90 keV)
HISTORY    (20090116C)  SM
ENDBIB               8
COMMON               4          3
EN-MIN     EN-MAX     E-ERR-DIG  ERR-DIG
KEV        KEV        MEV        PT/RCT/MEV
   15.         90.     1.2657E-02 1.1338E-02
ENDCOMMON            3
DATA                 3         89
E          DATA       DATA-ERR
MEV        PT/RCT/MEV PT/RCT/MEV
    0.63272     1.1093    0.65963
     0.6863     1.0136    0.24523
    0.75767    0.92626      0.106
     0.8472    0.71948 9.6952E-02
    0.91881    0.58995    0.11496
    0.97227    0.56909     0.1191
     1.0075     0.6576    0.13016
      1.079    0.59016    0.13184
     1.1152     0.4421    0.18492
     1.1856    0.61202    0.15357
     1.1858    0.55917    0.18335
     1.2567    0.63463    0.12564
      1.328    0.60126 9.0216E-02
     1.3638     0.5594     0.1404
     1.3991    0.63483    0.16784
     1.4524    0.65826    0.23916
     1.5058    0.65834    0.16519
     1.5235    0.68258     0.1024
     1.6124    0.68272 6.4516E-02
     1.7014    0.68285 5.8983E-02
     1.7902    0.74753 7.0641E-02
     1.8791    0.74769 7.0656E-02
     2.0037    0.76153 6.5750E-02
     2.0747     0.8187 6.1330E-02
     2.1634    0.89625    0.10257
     2.2346     0.8964 9.2053E-02
     2.3413    0.91295 8.6272E-02
     2.4125    0.92974    0.11041
     2.5013     0.9817 9.2770E-02
     2.5725    0.96428 8.3255E-02
     2.6615    0.94722 7.0957E-02
     2.7151    0.88131    0.11876
     2.7863    0.88146 8.3297E-02
     2.8753    0.86585 7.4758E-02
     2.9643    0.85053 6.3714E-02
     3.0001    0.77716 5.4189E-02
     3.0538    0.64883 4.8604E-02
     3.1606    0.63737 3.5484E-02
     3.2143     0.5517 4.7634E-02
     3.2858    0.48626 4.9935E-02
     3.3394    0.44433 4.5629E-02
     3.4107    0.42097 3.6346E-02
     3.4997    0.41352 4.2465E-02
     3.6066    0.37791 4.3249E-02
      3.678    0.34533 2.5869E-02
     3.7493    0.32717 3.0918E-02
     3.8031    0.27315 3.6735E-02
       3.91    0.25418 3.0184E-02
     3.9991    0.23651 2.4288E-02
      4.106    0.22409 2.6611E-02
     4.1775    0.19398 1.8330E-02
     4.2132    0.18047 1.8533E-02
     4.3022     0.1838 2.1826E-02
     4.4088    0.19762 2.2616E-02
     4.4445    0.18721 1.7699E-02
     4.5161    0.15076 1.7253E-02
     4.5698    0.13049 1.1267E-02
     4.6591    0.11502 1.3163E-02
     4.6949    0.10322 9.7538E-03
     4.7309 8.7740E-02 1.0041E-02
     4.8201 7.7337E-02 1.0418E-02
     4.8917 6.4569E-02 1.4423E-02
     4.9462 3.7565E-02 1.1856E-02
     4.9997 3.5588E-02 1.1668E-02
     5.0517 6.6968E-02 1.3048E-02
     5.0866 9.1041E-02 1.0808E-02
     5.1755 9.7880E-02 1.3190E-02
     5.2999    0.10151 1.3655E-02
     5.3885    0.12162 1.2490E-02
     5.4591    0.15664 2.1071E-02
     5.4947    0.15385 1.4538E-02
     5.5485    0.13078 1.5531E-02
     5.6027 8.7914E-02 9.0281E-03
      5.657 5.9097E-02 9.7642E-03
     5.7111 4.2701E-02 7.6933E-03
     5.7647 3.9019E-02 8.7169E-03
     5.7995 5.4996E-02 8.5482E-03
     5.8518 9.1199E-02 9.3654E-03
     5.9046    0.11745 1.3441E-02
     5.9582     0.1054 1.4179E-02
     6.0124 7.2142E-02 1.0822E-02
     6.0488 5.0276E-02 8.3052E-03
     6.1028 3.8350E-02 8.0235E-03
      6.157 2.6249E-02 6.2289E-03
     6.2464 2.1139E-02 5.5927E-03
     6.2825 1.7022E-02 6.1159E-03
      6.355 9.3811E-03 5.1433E-03
     6.3931 3.0621E-03 2.8429E-03
     6.4518 2.6267E-04 2.5153E-04
ENDDATA             91
ENDSUBENT          108
SUBENT        22482021   20090116   20090306   20090302       2206
BIB                  5          8
REACTION   (66-DY-163(N,G)66-DY-164,,MLT/DE,,SPA)   Averaged over
             incident neutron energy spectrum width
EN-SEC     (E,G)
ERR-ANALYS (E-ERR-DIG)  Gamma secondary energy digitizing error
           (ERR-DIG)    Data digitizing error
           (DATA-ERR)   Error from the graphic bars
STATUS     (CURVE) Fig. 13(c) (Dy-163, 550 keV)
HISTORY    (20090116C)  SM
ENDBIB               8
COMMON               4          3
EN-MEAN    EN-RSL-FW  E-ERR-DIG  ERR-DIG
KEV        KEV        MEV        PT/RCT/MEV
   550.        80.     1.4189E-02 1.1256E-02
ENDCOMMON            3
DATA                 3         81
E          DATA       DATA-ERR
MEV        PT/RCT/MEV PT/RCT/MEV
    0.61264     1.5901    0.52136
    0.71611     3.2748    0.28274
    0.82008     2.2821    0.23436
    0.92433    0.87635    0.23167
     1.0283    0.62185    0.19627
      1.115    0.36175    0.13143
     1.2185    0.75857    0.18001
      1.305     0.7317    0.16346
      1.426    0.90881    0.21566
     1.5126    0.86092    0.18015
      1.599    0.95949    0.14914
     1.7028    0.95954    0.14394
     1.8239    0.97709    0.13144
     1.9104     1.0695    0.12239
     2.0143    0.84573    0.11378
     2.1008    0.86117    0.11584
     2.2219    0.86123     0.1292
     2.3084    0.83071    0.12462
     2.4122    0.99518 6.9354E-02
     2.4986     1.0698 7.4545E-02
     2.6197     1.0893 7.5916E-02
     2.7063    0.92597 9.5089E-02
     2.8101    0.92601 9.5094E-02
     2.8966     0.8932 7.7119E-02
     3.0178    0.80153 8.2310E-02
     3.1216     0.7593 7.7974E-02
     3.2082    0.69377 5.9900E-02
     3.3121    0.53881 7.2482E-02
      3.416    0.46635 5.5380E-02
     3.5025    0.47487 6.3990E-02
     3.6063     0.4418 5.9436E-02
     3.6929    0.38935 5.8405E-02
      3.814    0.36884 4.9618E-02
     3.9178    0.35577 4.7860E-02
     4.0045    0.25245 4.9187E-02
     4.1083    0.24351 4.3873E-02
     4.2121    0.25708 4.6316E-02
      4.316    0.18242 4.0754E-02
     4.4026    0.16076 4.2499E-02
     4.5064    0.15789 3.9623E-02
     4.6101    0.18577 3.8872E-02
     4.7139    0.22255 3.6771E-02
     4.8006    0.13916 3.8622E-02
     4.9041    0.26662 4.8037E-02
      5.008    0.21469 3.5473E-02
     5.1119    0.15794 3.5284E-02
     5.1988 8.0969E-02 3.1246E-02
     5.3026 7.0081E-02 3.0044E-02
     5.4068 3.4653E-02 2.2927E-02
     5.5104 4.5437E-02 2.3373E-02
     5.6138    0.12492 2.6141E-02
     5.7003    0.11622 2.9166E-02
     5.8043 8.2470E-02 3.0902E-02
     5.9253 9.8799E-02 3.4750E-02
     5.9945     0.1043 3.2920E-02
     6.0984 8.5516E-02 2.6991E-02
     6.2022 9.1926E-02 2.4323E-02
      6.306 7.6742E-02 2.7882E-02
     6.4966 4.7990E-02 2.3829E-02
      6.601 1.3557E-02 1.1522E-02
     6.7052 5.3008E-03 3.7762E-03
     6.8083 2.6930E-02 1.8753E-02
     6.9117 6.4081E-02 3.0023E-02
     6.9987 2.0916E-02 1.6159E-02
     7.1033 3.2559E-03 2.9332E-03
     7.2068 7.3388E-03 7.1545E-03
     7.2929 1.7150E-02 1.3250E-02
     7.3962 5.0685E-02 2.1729E-02
      7.517    0.10068 3.0521E-02
     7.6208 9.0345E-02 3.2824E-02
     7.6906 2.6460E-02 1.9991E-02
     7.7948 1.2850E-02 9.4728E-03
     7.8983 2.0183E-02 1.1517E-02
     8.0195 1.8112E-02 8.8272E-03
     8.0886 2.3748E-02 8.0718E-03
     8.1926 1.4850E-02 6.3660E-03
     8.2964 1.5677E-02 6.7208E-03
     8.4175 1.4851E-02 6.2123E-03
     8.5042 1.0538E-02 4.9374E-03
     8.5911 4.2720E-03 2.6898E-03
     8.7134 2.8976E-04 7.7375E-04
ENDDATA             83
ENDSUBENT          100
SUBENT        22482022   20090116   20090306   20090302       2206
BIB                  5          8
REACTION   (66-DY-163(N,G)66-DY-164,,MLT/DE,,AV)    Averaged over
             incident neutron energy interval
EN-SEC     (E,G)
ERR-ANALYS (E-ERR-DIG)  Gamma secondary energy digitizing error
           (ERR-DIG)    Data digitizing error
           (DATA-ERR)   Error from the graphic bars
STATUS     (CURVE) Fig. 13(c) (Dy-163, 15-90 keV)
HISTORY    (20090116C)  SM
ENDBIB               8
COMMON               4          3
EN-MIN     EN-MAX     E-ERR-DIG  ERR-DIG
KEV        KEV        MEV        PT/RCT/MEV
   15.         90.     1.3226E-02 1.1130E-02
ENDCOMMON            3
DATA                 3        117
E          DATA       DATA-ERR
MEV        PT/RCT/MEV PT/RCT/MEV
    0.61222     1.0063     0.1195
    0.66367     2.9207
    0.73289     2.8172
    0.76732     4.2679
    0.81995    0.75385 3.9756E-02
    0.87186    0.74037 5.1597E-02
    0.92398    0.44653 5.3027E-02
    0.97578      0.575 7.7484E-02
    0.99315       0.48 5.7001E-02
     1.0624    0.40801 8.5375E-02
     1.1145    0.28433    0.15116
     1.1661    0.57505    0.12847
     1.2178    0.85559     0.1016
     1.2871    0.74052 9.9617E-02
      1.339    0.68893 8.1811E-02
     1.4083    0.64093 6.5819E-02
     1.4601    0.76781    0.10328
     1.5119    0.93657 8.0864E-02
     1.5639     0.8106
     1.6157    0.95368 6.6462E-02
     1.6675     1.1425
     1.7367     1.1425
     1.7886      1.102
     1.8579     1.0439
     1.9098    0.93674
     1.9618    0.88736 7.6615E-02
     2.0655    0.92004 8.6943E-02
     2.1348     0.9036
     2.2039    0.97132    0.11535
     2.2904     1.0071 7.5442E-02
     2.3942     1.0442
     2.4807     1.1024
     2.5672     1.1024
     2.6537     1.0443
     2.7229    0.98926
     2.7922    0.93712
     2.8787    0.92038 7.9466E-02
     2.9652    0.88777 6.1869E-02
     3.0517    0.84098
      3.121    0.74114 5.1650E-02
     3.2075    0.65315 6.7074E-02
     3.2768    0.59678 5.1522E-02
      3.346    0.52593 4.5409E-02
     3.4326    0.48054 4.9348E-02
     3.5191    0.43907 3.7909E-02
     3.6057    0.40117 3.4637E-02
     3.6922    0.38696 2.6967E-02
     3.7787       0.36
      3.848    0.34103 2.9445E-02
     3.9345    0.30054 3.0863E-02
     4.0038     0.2746 2.3709E-02
     4.0903    0.26013 2.2460E-02
     4.1768    0.25091 2.1664E-02
     4.2633    0.24643
     4.3498    0.23345 1.6269E-02
     4.4537    0.23346 2.0157E-02
     4.5575    0.21331 1.4866E-02
      4.644    0.20207 1.9095E-02
      4.696    0.18463 1.2867E-02
     4.7652     0.1749 1.2189E-02
     4.8517    0.16271 1.1340E-02
     4.9556    0.15138 1.3070E-02
     5.0594    0.14868 1.0363E-02
     5.1286    0.13342 9.2977E-03
     5.2152    0.11972 1.1313E-02
     5.2325     0.1055 9.1099E-03
     5.3018    0.10176 1.0450E-02
     5.4228    0.10551 9.9709E-03
     5.5266    0.10552 7.3536E-03
     5.6305    0.10552 7.3539E-03
     5.6997 9.8172E-02 6.8416E-03
     5.7689 8.6516E-02 4.5626E-03
     5.8036 7.7633E-02 4.0941E-03
     5.8556 6.7191E-02 5.8013E-03
     5.9076 5.1248E-02 5.2628E-03
     5.9423 3.8388E-02 5.1641E-03
     5.9943 2.9279E-02 4.3921E-03
     6.0463 2.4887E-02 3.3537E-03
     6.0983 1.8982E-02 3.6984E-03
     6.1504 1.0651E-02 3.5682E-03
     6.2027 4.9885E-03 2.8149E-03
     6.2894 3.0087E-03 2.9714E-03
     6.3408 1.0274E-02 1.6974E-03
      6.341 6.1961E-03 9.6308E-04
      6.341 5.3626E-03 1.1221E-03
     6.4099 1.1871E-02 1.0249E-03
     6.4445 1.3966E-02 1.0461E-03
     6.4963 1.7346E-02 3.6297E-03
      6.548 2.3158E-02 4.1723E-03
     6.5999 2.8763E-02 3.8693E-03
     6.6517 3.6375E-02 4.3196E-03
     6.7035 4.6002E-02 5.4628E-03
     6.7554 4.7695E-02 5.4585E-03
     6.8419 4.4373E-02 5.9692E-03
     6.8938 3.8405E-02 4.5606E-03
     6.9459 2.8768E-02 4.3153E-03
      6.998 1.6141E-02 3.6060E-03
     7.0502 8.1265E-03 2.9525E-03
     7.1196 4.7274E-03 2.5918E-03
     7.1543 3.7383E-03 1.3148E-03
     7.2064 2.3376E-03 2.2144E-03
     7.2406 6.3116E-03 2.7058E-03
     7.3095 1.4486E-02 3.0311E-03
     7.3612 2.1945E-02 3.2922E-03
     7.3957 2.6289E-02 3.1219E-03
     7.4476 2.9832E-02 2.5757E-03
      7.534 3.5739E-02 4.0901E-03
     7.6033 2.8776E-02 3.2933E-03
     7.6554 1.7672E-02 3.6978E-03
     7.7076 9.2244E-03 2.6793E-03
     7.7425 4.6442E-03 2.0204E-03
     7.7946 2.9040E-03 1.1888E-03
     7.8467 1.8490E-03 1.1080E-03
     7.8815 1.1562E-03 3.9299E-04
     7.9507 1.0189E-03 7.0389E-04
      7.951 5.0379E-04 4.5563E-04
     8.0036 1.1458E-04 1.0363E-04
ENDDATA            119
ENDSUBENT          136
ENDENTRY            22
