ENTRY            30166   20080208   20080530   20080530       3126
SUBENT        30166001   20080208   20080530   20080530       3126
BIB                 14         28
INSTITUTE  (3BZLUSP)
REFERENCE  (R,IEA-136,196702) Sigma versus lambda, table, figure
AUTHOR     (S.B.Herdade,L.Q.Amaral,C.Rodriguez,L.A.Vinhas)
TITLE      79-Au-197 total cross section, neutron wavelength
           0.95-6.96 Angstrom
FACILITY   (REAC)
           (CHOPS) Curved slit slow-chopper, time of flight
           spectrometer
INC-SOURCE Tangential beam hole at the IEAR-1 swimming pool 5 mw
           research reactor
SAMPLE     In energy range from 0.95-2.00 angstroms, gold sample 1
           used with 0.01182 atoms/barn, whereas from 2.01-6.92
           angstroms sample 2 used with 0.003903 atoms/barn.
           Sample 2 found to have 0.63% silver impurity
METHOD     (TOF) Time-of-flight.
DETECTOR   (BF3) Boron-trifluoride counter, N. Wood model G-10-12
           1 inch diameter, 12 inch length, 60 cm Hg gas pressure,
           96% enriched in B-10
ANALYSIS   .Time-of-flight scale calibrated carefully and
            calculation of the wavelength for each channel
           .Total sigma calculation from transmission measurements
PART-DET   (N) neutrons
CORRECTION .Data obtained with sample 2  corrected for Ag-impurity
           .Corrected for dead-time losses
           .Background subtracted
ERR-ANALYS (ERR-S) Given errors are statistical
HISTORY    (19720412T).Data converted from Dastar
           (20080208A) BIB section updated
ENDBIB              28
NOCOMMON             0          0
ENDSUBENT           31
SUBENT        30166002   20080208   20080530   20080530       3126
BIB                  4         13
REACTION   (79-AU-197(N,TOT),,SIG)
STATUS     (TABLE)Data taken from appendix V  of  IEA-136 Feb/1967
                  corresponding to fig.17
HISTORY    (19681218C).Data compiled as Dastar-00465
           (19720412T).Data converted from Dastar
           (20080215S)  Dataset was restored.
MISC-COL   (MISC1)   Lowest neutron energy
           (MISC2)   Highest neutron energy
                     Highest and lowest neutron energies converted
                     by the compiler from (Angstrom) to (eV) using
                     the formula
                     E(milli-eV) = 0.081783/Lambda(angstrom)**2
                     given on page 51 of IEA-136 Feb/1967
ENDBIB              13
COMMON               2          3
MISC1      MISC2
MILLI-EV   MILLI-EV
 1.6880E+00 9.0618E+01
ENDCOMMON            3
DATA                 3        150
WVE-LN     DATA       ERR-S
ANGSTROM   B          B
0.95        59.6      0.4
0.98        61.8      0.4
1.00        61.8      0.4
1.02        63.9      0.4
1.04        65.1      0.3
1.06        65.3      0.3
1.08        66.7      0.3
1.10        68.1      0.3
1.12        69.6      0.3
1.14        70.7      0.3
1.17        70.7      0.3
1.19        71.9      0.3
1.21        72.5      0.3
1.23        73.0      0.3
1.25        75.2      0.3
1.27        75.7      0.3
1.29        76.8      0.3
1.31        78.7      0.3
1.33        79.0      0.3
1.36        80.1      0.3
1.38        81.2      0.4
1.40        82.2      0.4
1.42        82.9      0.4
1.44        85.0      0.4
1.46        84.4      0.4
1.48        85.7      0.4
1.50        86.3      0.4
1.52        88.9      0.4
1.55        89.3      0.4
1.57        90.8      0.4
1.59        90.5      0.4
1.61        92.9      0.4
1.63        94.0      0.4
1.65        93.5      0.4
1.67        95.5      0.4
1.69        97.1      0.4
1.71        98.0      0.5
1.74        97.9      0.5
1.76        99.9      0.5
1.78       101.9      0.5
1.80       103.7      0.5
1.82       104.7      0.5
1.84       106.4      0.5
1.86       105.3      0.5
1.88       107.3      0.5
1.90       106.8      0.6
1.93       107.0      0.6
1.95       111.2      0.6
1.97       112.5      0.6
1.99       114.3      0.6
2.01       117.6      0.7
2.03       121.       1.
2.05       121.       1.
2.09       122.       1.
2.11       126.       1.
2.14       123.       1.
2.18       129.       1.
2.20       124.       1.
2.22       129.       1.
2.26       130.       1.
2.28       131.       1.
2.31       131.       1.
2.35       134.       1.
2.37       133.       1.
2.39       135.       1.
2.43       138.       1.
2.45       138.       1.
2.48       141.       1.
2.52       143.       1.
2.54       144.       1.
2.56       143.       1.
2.60       147.       1.
2.62       140.       1.
2.65       152.       1.
2.69       150.       1.
2.71       155.       1.
2.73       152.       2.
2.77       156.       2.
2.79       157.       1.
2.82       156.       2.
2.86       163.       2.
2.88       166.       1.
2.90       163.       2.
2.94       166.       2.
2.96       167.       1.
2.99       169.       2.
3.03       173.       2.
3.05       168.       1.
3.07       174.       2.
3.11       174.       2.
3.13       174.       1.
3.16       183.       2.
3.20       179.       2.
3.22       179.       1.
3.24       178.       2.
3.28       185.       2.
3.30       189.       1.
3.33       184.       2.
3.37       188.       2.
3.39       190.       1.
3.41       194.       2.
3.45       195.       2.
3.47       191.       1.
3.49       198.       2.
3.54       198.       2.
3.56       193.       1.
3.58       196.       2.
3.62       206.       2.
3.64       200.       2.
3.66       207.       3.
3.71       201.       3.
3.73       207.       2.
3.81       212.       2.
3.90       216.       2.
3.98       218.       2.
4.07       226.       1.
4.15       233.       2.
4.24       236.       2.
4.32       238.       1.
4.41       238.       2.
4.49       246.       1.
4.58       250.       2.
4.66       253.       1.
4.75       258.       1.
4.83       261.       1.
4.92       265.       1.
5.00       271.       1.
5.09       277.       1.
5.17       285.       2.
5.26       286.       2.
5.34       293.       2.
5.43       296.       2.
5.51       301.       3.
5.60       304.       3.
5.68       310.       2.
5.77       315.       2.
5.85       316.       2.
5.94       320.       2.
6.02       324.       2.
6.11       332.       2.
6.19       343.       2.
6.28       336.       2.
6.36       346.       3.
6.45       343.       3.
6.53       356.       3.
6.62       366.       3.
6.70       360.       3.
6.79       368.       3.
6.87       375.       3.
6.96       380.       3.
ENDDATA            152
ENDSUBENT          174
ENDENTRY             2
