ENTRY            F1506   20240415   20240815   20240815       F099
SUBENT        F1506001   20240415   20240815   20240815       F099
BIB                 11         18
TITLE      Nuclear level densities of 208Bi and 209Po from neutron
           spectra in (p,n) reaction on nuclei of 208Pb and 209Bi
AUTHOR     (B.V.Zhuravlev,A.A.Lychagin,N.N.Titarenko,V.G.Demenkov,
           V.I.Trykova)
REFERENCE  (S,ISINN-17,308,2010)
INSTITUTE  (4RUSFEI)
FACILITY   (VDGT,4RUSFEI) EGP-15
METHOD     (TOF,BCINT)
DETECTOR   (SCIN) Time-of-flight fast neutron spectrometer was
           used. Neutrons were detected by the scintillation
           detector with stilben crystal (d-40 mm, h-40 mm) and
           photomultiplier FEU-143.
ANALYSIS   (INTAD)
SAMPLE     (82-PB-208,ENR=0.983) Self-supporting metal foils with
           the thickness of 4.20 mg/cm2 and enrichment of 98.3%
           were used as a target.
ERR-ANALYS (DATA-ERR) No source of uncertainty is given.
HISTORY    (20240415C)
ENDBIB              18
COMMON               2          3
E-ERR-DIG  ERR-DIG
MEV        PER-CENT
      0.008        2.8
ENDCOMMON            3
ENDSUBENT           25
SUBENT        F1506002   20240415   20240815   20240815       F099
BIB                  2          2
REACTION   (82-PB-208(P,X)0-NN-1,,DE)
STATUS     (CURVE,,B.V.Zhuravlev+,S,ISINN-17,308,2010) Fig. 1
ENDBIB               2
NOCOMMON             0          0
DATA                 4        326
EN         E          DATA       DATA-ERR
MEV        MEV        MB/MEV     MB/MEV
       8.07      0.501  7.255E+00
       8.07      0.560  7.559E+00
       8.07      0.619  8.549E+00
       8.07      0.638  1.007E+01
       8.07      0.697  1.094E+01
       8.07      0.736  1.094E+01
       8.07      0.795  1.139E+01
       8.07      0.834  1.187E+01
       8.07      0.893  1.093E+01
       8.07      0.951  1.093E+01
       8.07      1.010  1.093E+01
       8.07      1.049  1.237E+01
       8.07      1.089  1.288E+01
       8.07      1.147  1.139E+01
       8.07      1.206  1.049E+01
       8.07      1.245  8.903E+00
       8.07      1.304  7.251E+00
       8.07      1.363  6.959E+00
       8.07      1.402  7.871E+00
       8.07      1.441  8.544E+00
       8.07      1.500  7.554E+00
       8.07      1.539  4.616E+00
       8.07      1.598  5.904E+00
       8.07      1.637  8.199E+00
       8.07      1.696  7.869E+00
       8.07      1.754  8.198E+00
       8.07      1.813  8.198E+00
       8.07      1.852  7.552E+00
       8.07      1.891  5.903E+00
       8.07      1.950  3.758E+00
       8.07      2.009  2.938E+00
       8.07      2.048  3.061E+00
       8.07      2.107  3.189E+00
       8.07      2.146  3.462E+00
       8.07      2.205  3.322E+00
       8.07      2.244  2.493E+00
       8.07      2.302  1.795E+00
       8.07      2.342  2.030E+00
       8.07      2.400  3.606E+00
       8.07      2.459  5.007E+00
       8.07      2.498  5.217E+00
       8.07      2.557  4.249E+00
       8.07      2.616  3.060E+00
       8.07      2.655  2.596E+00
       8.07      2.714  2.203E+00
       8.07      2.753  2.492E+00
       8.07      2.792  2.705E+00
       8.07      2.851  2.295E+00
       8.07      2.909  1.461E+00  1.152E-01
       8.07      2.949  9.304E-01  7.332E-02
       8.07      3.007  6.700E-01  5.280E-02
       8.07      3.066  6.430E-01  5.067E-02
       8.07      3.105  6.699E-01  5.279E-02
       8.07      3.164  7.894E-01  6.221E-02
       8.07      3.203  1.190E+00  9.377E-02
       8.07      3.242  1.869E+00
       8.07      3.301  2.491E+00
       8.07      3.340  2.817E+00
       8.07      3.399  2.704E+00
       8.07      3.438  2.202E+00
       8.07      3.497  1.461E+00
       8.07      3.556  9.689E-01
       8.07      3.595  8.567E-01
       8.07      3.654  1.190E+00
       8.07      3.693  1.461E+00
       8.07      3.751  1.460E+00
       8.07      3.810  1.096E+00
       8.07      3.849  7.573E-01  5.968E-02
       8.07      3.908  5.453E-01  6.317E-02
       8.07      3.947  4.091E-01  3.224E-02
       8.07      4.006  3.198E-01  3.705E-02
       8.07      4.045  2.605E-01
       8.07      4.104  2.605E-01  3.017E-02
       8.07      4.162  2.946E-01  2.321E-02
       8.07      4.202  4.441E-01  5.144E-02
       8.07      4.241  6.425E-01  5.063E-02
       8.07      4.300  6.974E-01  5.496E-02
       8.07      4.358  6.424E-01  5.062E-02
       8.07      4.417  5.022E-01  3.957E-02
       8.07      4.456  3.471E-01  2.735E-02
       8.07      4.495  2.713E-01  2.138E-02
       8.07      4.554  1.954E-01  2.263E-02
       8.07      4.593  1.013E-01  1.174E-02
       8.07      4.652  5.703E-02  6.606E-03
       9.06      0.486  2.391E+01  1.875E+00
       9.06      0.584  2.595E+01  2.035E+00
       9.06      0.682  2.704E+01  2.120E+00
       9.06      0.799  2.817E+01  2.209E+00
       9.06      0.897  2.818E+01  2.209E+00
       9.06      0.995  2.706E+01  2.122E+00
       9.06      1.093  2.819E+01  2.210E+00
       9.06      1.191  2.707E+01  2.123E+00
       9.06      1.289  2.495E+01  1.957E+00
       9.06      1.387  2.396E+01  1.879E+00
       9.06      1.485  2.035E+01  1.596E+00
       9.06      1.583  2.301E+01  1.804E+00
       9.06      1.680  2.710E+01  2.125E+00
       9.06      1.778  2.602E+01  2.040E+00
       9.06      1.876  2.399E+01  1.881E+00
       9.06      1.994  2.303E+01  1.806E+00
       9.06      2.092  2.212E+01  1.734E+00
       9.06      2.190  1.731E+01  1.358E+00
       9.06      2.288  1.151E+01  9.027E-01
       9.06      2.386  1.250E+01  1.440E+00
       9.06      2.484  1.019E+01  7.990E-01
       9.06      2.582  1.019E+01  7.992E-01
       9.06      2.699  1.250E+01  9.804E-01
       9.06      2.778  1.020E+01  7.995E-01
       9.06      2.895  6.781E+00  5.317E-01
       9.06      2.993  3.989E+00  3.128E-01
       9.06      3.091  3.677E+00  2.883E-01
       9.06      3.189  3.124E+00  2.449E-01
       9.06      3.287  2.764E+00  2.167E-01
       9.06      3.385  4.159E+00  3.261E-01
       9.06      3.483  5.102E+00  4.000E-01
       9.06      3.581  3.534E+00  2.771E-01
       9.06      3.699  2.882E+00  2.260E-01
       9.06      3.797  2.551E+00  2.000E-01
       9.06      3.875  1.696E+00  1.330E-01
       9.06      3.993  9.195E-01  1.060E-01
       9.06      4.091  8.476E-01  6.646E-02
       9.06      4.188  1.564E+00  1.803E-01
       9.06      4.286  2.451E+00  2.826E-01
       9.06      4.384  2.660E+00  2.086E-01
       9.06      4.482  1.919E+00  1.505E-01
       9.06      4.580  1.276E+00  1.001E-01
       9.06      4.698  1.385E+00  1.086E-01
       9.06      4.796  1.226E+00  9.612E-02
       9.06      4.894  6.923E-01  7.981E-02
       9.06      4.992  3.321E-01  5.003E-02
       9.06      5.090  2.708E-01  3.122E-02
       9.06      5.188  4.421E-01  5.097E-02
       9.06      5.285  6.652E-01  5.216E-02
       9.06      5.383  5.651E-01  4.431E-02
       9.06      5.599  2.037E-01  3.070E-02
       9.06      5.796  7.970E-02  2.883E-02
       9.47      0.488  3.441E+01  2.717E+00
       9.47      0.586  3.737E+01  2.950E+00
       9.47      0.684  3.894E+01  4.519E+00
       9.47      0.782  4.059E+01  3.204E+00
       9.47      0.880  3.896E+01  3.076E+00
       9.47      0.997  3.740E+01  2.953E+00
       9.47      1.076  3.741E+01  2.953E+00
       9.47      1.193  3.742E+01  2.954E+00
       9.47      1.291  3.447E+01  2.721E+00
       9.47      1.389  3.176E+01  2.507E+00
       9.47      1.487  3.310E+01  2.613E+00
       9.47      1.585  3.449E+01  4.003E+00
       9.47      1.683  3.178E+01  2.509E+00
       9.47      1.781  2.928E+01  2.311E+00
       9.47      1.898  2.484E+01  1.961E+00
       9.47      1.996  2.196E+01  1.734E+00
       9.47      2.075  2.485E+01  1.962E+00
       9.47      2.192  2.812E+01  2.220E+00
       9.47      2.290  2.591E+01  2.046E+00
       9.47      2.388  2.387E+01  1.884E+00
       9.47      2.486  2.387E+01  2.770E+00
       9.47      2.584  1.866E+01  1.473E+00
       9.47      2.701  1.343E+01  1.559E+00
       9.47      2.800  1.050E+01  8.286E-01
       9.47      2.897  1.008E+01  1.169E+00
       9.47      2.976  9.282E+00  7.328E-01
       9.47      3.093  1.050E+01  8.292E-01
       9.47      3.191  9.676E+00  7.639E-01
       9.47      3.289  7.563E+00  8.776E-01
       9.47      3.387  4.812E+00  5.584E-01
       9.47      3.485  3.464E+00  4.020E-01
       9.47      3.583  3.063E+00  2.418E-01
       9.47      3.681  2.940E+00  2.321E-01
       9.47      3.799  3.193E+00  3.705E-01
       9.47      3.897  3.922E+00  4.552E-01
       9.47      3.995  3.923E+00  3.097E-01
       9.47      4.092  3.469E+00  2.738E-01
       9.47      4.191  2.825E+00  3.278E-01
       9.47      4.289  2.119E+00  2.459E-01
       9.47      4.387  1.405E+00  1.630E-01
       9.47      4.485  1.098E+00  2.040E-01
       9.47      4.602  1.294E+00  1.022E-01
       9.47      4.700  1.727E+00  2.267E-01
       9.47      4.798  2.036E+00  2.362E-01
       9.47      4.896  1.954E+00  2.268E-01
       9.47      4.994  1.728E+00  2.620E-01
       9.47      5.092  1.466E+00  2.223E-01
       9.47      5.190  1.244E+00  1.887E-01
       9.47      5.288  1.056E+00  1.961E-01
       9.47      5.386  8.595E-01  1.597E-01
       9.47      5.484  6.187E-01  1.150E-01
       9.47      5.601  4.836E-01  1.057E-01
       9.47      5.797  4.104E-01  1.027E-01
       9.47      5.993  3.343E-01  9.371E-02
       9.47      6.190  1.058E-01  5.098E-02
      10.22      0.494  5.834E+01
      10.22      0.592  6.078E+01
      10.22      0.690  6.332E+01
      10.22      0.807  6.333E+01
      10.22      0.885  6.598E+01
      10.22      1.003  6.874E+01
      10.22      1.101  6.600E+01
      10.22      1.199  6.336E+01
      10.22      1.297  6.336E+01
      10.22      1.395  6.602E+01
      10.22      1.493  6.338E+01
      10.22      1.590  6.338E+01
      10.22      1.688  5.841E+01
      10.22      1.786  5.608E+01
      10.22      1.884  5.383E+01
      10.22      2.002  4.762E+01
      10.22      2.100  4.572E+01
      10.22      2.197  4.389E+01
      10.22      2.296  4.214E+01
      10.22      2.393  3.883E+01
      10.22      2.491  3.435E+01
      10.22      2.589  2.800E+01
      10.22      2.707  2.581E+01
      10.22      2.805  2.801E+01
      10.22      2.883  2.689E+01
      10.22      3.001  2.478E+01
      10.22      3.099  2.284E+01
      10.22      3.196  2.104E+01
      10.22      3.294  1.787E+01
      10.22      3.412  1.342E+01
      10.22      3.490  1.094E+01
      10.22      3.588  1.008E+01
      10.22      3.706  9.292E+00
      10.22      3.784  9.681E+00
      10.22      3.902  9.294E+00
      10.22      4.000  7.576E+00
      10.22      4.098  5.244E+00
      10.22      4.196  3.781E+00
      10.22      4.313  3.484E+00
      10.22      4.391  3.345E+00
      10.22      4.489  3.940E+00
      10.22      4.587  4.834E+00
      10.22      4.705  5.247E+00
      10.22      4.803  4.277E+00
      10.22      4.901  3.486E+00
      10.22      4.998  2.728E+00
      10.22      5.096  1.888E+00
      10.22      5.194  1.255E+00  9.853E-02
      10.22      5.292  1.255E+00  9.854E-02
      10.22      5.390  1.740E+00  1.367E-01
      10.22      5.488  2.136E+00  1.677E-01
      10.22      5.586  2.136E+00  1.677E-01
      10.22      5.704  1.889E+00  1.484E-01
      10.22      5.802  1.540E+00  1.778E-01
      10.22      5.899  1.205E+00  1.392E-01
      10.22      5.997  8.689E-01  1.003E-01
      10.22      6.193  4.517E-01  5.216E-02
      10.22      6.409  3.683E-01  5.558E-02
      10.22      6.507  3.997E-01  4.615E-02
      10.22      6.605  3.837E-01  4.431E-02
      10.22      6.801  1.080E-01  6.137E-02
      10.22      6.997  4.049E-02  1.567E-02
      11.15      0.496  9.723E+01
      11.15      0.594  1.013E+02
      11.15      0.692  1.055E+02
      11.15      0.790  1.055E+02
      11.15      0.887  1.055E+02
      11.15      0.985  1.055E+02
      11.15      1.103  1.100E+02
      11.15      1.181  1.100E+02
      11.15      1.299  1.100E+02
      11.15      1.397  1.100E+02
      11.15      1.495  1.056E+02
      11.15      1.592  1.014E+02
      11.15      1.690  9.729E+01
      11.15      1.788  8.965E+01
      11.15      1.886  8.966E+01
      11.15      1.984  8.607E+01
      11.15      2.102  7.614E+01
      11.15      2.200  7.309E+01
      11.15      2.297  6.735E+01
      11.15      2.395  6.466E+01
      11.15      2.493  6.207E+01
      11.15      2.591  5.720E+01
      11.15      2.689  5.060E+01
      11.15      2.787  4.662E+01
      11.15      2.905  4.124E+01
      11.15      3.003  3.801E+01
      11.15      3.100  3.502E+01
      11.15      3.198  3.227E+01
      11.15      3.296  2.855E+01
      11.15      3.394  2.525E+01
      11.15      3.492  2.144E+01
      11.15      3.610  1.821E+01
      11.15      3.708  1.897E+01
      11.15      3.805  1.897E+01
      11.15      3.903  1.748E+01
      11.15      4.001  1.546E+01
      11.15      4.099  1.485E+01
      11.15      4.197  1.261E+01
      11.15      4.315  9.863E+00
      11.15      4.413  8.040E+00
      11.15      4.511  7.408E+00
      11.15      4.608  7.112E+00
      11.15      4.706  6.827E+00
      11.15      4.804  7.113E+00
      11.15      4.902  6.040E+00
      11.15      5.000  5.128E+00
      11.15      5.098  3.271E+00
      11.15      5.196  2.893E+00
      11.15      5.294  2.777E+00
      11.15      5.411  3.271E+00
      11.15      5.509  4.014E+00
      11.15      5.607  4.538E+00
      11.15      5.705  4.356E+00
      11.15      5.803  3.408E+00
      11.15      5.901  2.560E+00
      11.15      5.999  2.087E+00  2.409E-01
      11.15      6.097  1.701E+00  1.964E-01
      11.15      6.195  1.331E+00  1.537E-01
      11.15      6.293  1.226E+00  9.632E-02
      11.15      6.410  1.278E+00  1.004E-01
      11.15      6.508  1.387E+00  1.089E-01
      11.15      6.606  1.505E+00  1.738E-01
      11.15      6.704  1.445E+00  1.668E-01
      11.15      6.802  1.130E+00  1.305E-01
      11.15      6.900  8.490E-01  9.803E-02
      11.15      6.998  5.197E-01  7.844E-02
      11.15      7.096  3.315E-01  7.213E-02
      11.15      7.194  2.814E-01  6.124E-02
      11.15      7.292  3.748E-01  6.931E-02
      11.15      7.409  4.414E-01  8.163E-02
      11.15      7.507  3.183E-01  6.925E-02
      11.15      7.605  2.390E-01  6.670E-02
      11.15      7.801  1.013E-01  4.176E-02
ENDDATA            328
ENDSUBENT          335
ENDENTRY             2
