ENTRY            F1502   20240408   20240815   20240815       F099
SUBENT        F1502001   20240408   20240815   20240815       F099
BIB                 11         21
TITLE      Spectroscopy of exotic states of 13C
AUTHOR     (A.S.Demyanova,A.N.Danilov,S.V.Dmitriev,A.A.Ogloblin,
           T.L.Belyaeva,N.Burtebaev,P.Drobyshev,S.A.Goncharov,
           Yu.B.Gurov,P.Heikkinen,R.Julin,S.V.Khlebnikov,
           V.A.Maslov,N.Nassurlla,Yu.E.Penionzhkevich,
           Yu.G.Sobolev,W.Trzaska,G.P.Tyurin,V.I.Zherebchevskii)
INSTITUTE  (4RUSKUR,3MEXUMX,4KASKAZ,4RUSMOS,4RUSMIF,2SF JYV,
           4RUSRI,4ZZZDUB,4RUSSUL)
REFERENCE  (J,EPJ/CS,66,02027,2014)
           #doi:10.1051/epjconf/20146602027
REL-REF    (N,O2296002,A.A.Ogloblin+,J,JEL,102,199,2015) Data for
           the level 9.90 MeV are given.
FACILITY   (CYCLO,2SF JYV)
METHOD     (EDE)
DETECTOR   (TELES) A set of the dE - E telescopes was used for
           the detection of alpha particles.
SAMPLE     (6-C-13,ENR=0.98) A self-supporting 13C target
            (0.3 mg/cm2) with the 98% enrichment was used. It
           contained some impurities of 12C and 16O.
ERR-ANALYS (ERR-S) Statistical error
HISTORY    (20240408C)
ENDBIB              21
COMMON               1          3
EN
MEV
        65.
ENDCOMMON            3
ENDSUBENT           28
SUBENT        F1502002   20240408   20240815   20240815       F099
BIB                  2          3
REACTION   (6-C-13(A,INL)6-C-13,PAR,DA)
STATUS     (TABLE,,A.S.Demyanova+,J,EPJ/CS,66,02027,2014) The same
           on Figs. 2, 3. Data were presented by Dr. A.S.Demyanova
ENDBIB               3
NOCOMMON             0          0
DATA                 4        128
E-LVL      ANG-CM     DATA-CM    ERR-S
MEV        ADEG       MB/SR      MB/SR
       3.09       7.93       4.22      0.285
       3.09      10.57        3.1      0.244
       3.09       11.9      0.857     0.0625
       3.09       13.2       1.53     0.0835
       3.09      14.52       1.56     0.0844
       3.09      15.84       1.87     0.0927
       3.09      17.15       1.42     0.0399
       3.09      18.47       1.41     0.0398
       3.09      19.78       1.29     0.0405
       3.09      21.09      0.796     0.0319
       3.09       22.4      0.649     0.0305
       3.09      23.71      0.323     0.0215
       3.09      25.01      0.186     0.0187
       3.09      26.32       0.14     0.0162
       3.09      27.62      0.261     0.0222
       3.09      28.92      0.383     0.0269
       3.09      30.22    0.50265    0.02177
       3.09      31.52    0.48395    0.02141
       3.09      32.82    0.53294    0.02252
       3.09      34.11    0.38732    0.01925
       3.09       35.4    0.35539    0.02139
       3.09      36.69    0.27304     0.0188
       3.09      37.97    0.26286    0.01849
       3.09      39.26      0.232     0.0174
       3.09      40.54      0.268     0.0175
       3.09      41.81      0.238     0.0165
       3.09      43.09       0.27     0.0177
       3.09      44.36      0.289     0.0183
       3.09      45.63      0.278     0.0178
       3.09       46.9      0.267     0.0175
       3.09      48.16      0.275     0.0178
       3.09      49.42      0.212     0.0157
       3.09      50.68      0.121    0.00957
       3.09       51.3      0.101     0.0161
       3.09      51.93     0.0573    0.00661
       3.09      53.18    0.02781    0.00284
       3.09      54.42     0.0579     0.0067
       3.09      55.66     0.0615    0.00803
       3.09       56.9     0.0632    0.00818
       3.09      59.37    0.03837    0.00506
       3.09       60.6    0.03782    0.00505
       3.09      61.82     0.0497    0.00366
       3.09      63.04     0.0272    0.00272
       3.09      64.25     0.0162    0.00211
       3.09      65.46     0.0167    0.00215
       3.09      66.67     0.0122    0.00164
       3.09      67.87    0.00813    0.00135
       3.09      69.07     0.0117    0.00178
       3.09      70.26     0.0277    0.00275
       3.09      71.45      0.034    0.00317
       3.09      72.63     0.0358    0.00326
       3.09      73.81     0.0448     0.0033
       3.09      74.98     0.0425    0.00323
       3.09      76.15     0.0386    0.00423
       3.09      77.31     0.0329    0.00393
       3.09      78.47     0.0342    0.00402
       3.09      79.63     0.0365    0.00417
       3.09      81.92    0.04237    0.00361
       3.09      83.06    0.03136    0.00312
       3.09      84.19    0.02742    0.00293
       3.09      85.32    0.03095    0.00313
       3.09      86.44    0.02193    0.00357
       3.09      87.56    0.02717    0.00399
       3.09      89.77    0.01946    0.00341
       8.86       6.72       1.06      0.178
       8.86       8.06       1.97      0.277
       8.86        9.4       2.91      0.375
       8.86      10.74       2.23      0.305
       8.86      13.42        1.8      0.202
       8.86      14.76      0.874      0.108
       8.86       16.1      0.642      0.084
       8.86      17.43      0.293     0.0345
       8.86      18.77      0.269      0.032
       8.86       20.1      0.189     0.0238
       8.86      21.43      0.115     0.0161
       8.86      22.76      0.161     0.0221
       8.86      24.09      0.309     0.0374
       8.86      25.42      0.386     0.0471
       8.86      26.75      0.386     0.0471
       8.86      28.07      0.496     0.0583
       8.86       29.4      0.304     0.0387
       8.86      30.71     0.0876     0.0127
       8.86      32.03     0.0785     0.0117
       8.86      33.34     0.0671     0.0105
       8.86      34.66     0.0622    0.00994
       8.86      35.97      0.164     0.0218
       8.86      37.28      0.218     0.0274
       8.86      38.58       0.41     0.0469
       8.86      39.88      0.459     0.0518
       8.86      41.18      0.411     0.0464
       8.86      42.48       0.33     0.0381
       8.86      43.78      0.243     0.0294
       8.86      45.07       0.18      0.023
       8.86      46.35      0.133    0.01805
       8.86      47.64       0.14    0.01877
       8.86      48.92      0.102    0.01478
       8.86       50.2     0.0584     0.0111
       8.86      51.47     0.0535    0.00845
       8.86      52.74       0.06    0.00933
       8.86       53.8    0.04769     0.0109
       8.86      54.01     0.0461    0.00543
       8.86      55.27    0.05343     0.0144
       8.86      56.53     0.0661     0.0048
       8.86      57.79     0.0492     0.0119
       8.86      60.29     0.0546    0.00811
       8.86      61.53     0.0637    0.00909
       8.86      62.77     0.0616    0.00737
       8.86        64.     0.0638     0.0076
       8.86      65.23     0.0688    0.01608
       8.86      66.46     0.0782    0.01455
       8.86      67.68     0.0705    0.00695
       8.86      68.89     0.0698     0.0064
       8.86      70.11     0.0831    0.00827
       8.86      71.31     0.0888    0.00969
       8.86      72.51     0.0871    0.01219
       8.86      73.71     0.0883    0.01286
       8.86       74.9     0.0929    0.01495
       8.86      76.09     0.0794    0.00945
       8.86      77.27      0.096    0.01864
       8.86      78.44     0.0947    0.01971
       8.86      79.61     0.0661    0.01114
       8.86      80.78     0.0734    0.01342
       8.86      83.09    0.07517    0.01046
       8.86      84.24    0.06797    0.01045
       8.86      85.38     0.0497    0.01067
       8.86      86.52    0.05274    0.00625
       8.86      87.65    0.04848    0.00795
       8.86      88.78    0.03556    0.00554
ENDDATA            130
ENDSUBENT          138
ENDENTRY             2
