ENTRY            G0040   20140325   20141007   20140911       G030
SUBENT        G0040001   20140325   20141007   20140911       G030
BIB                 14         51
TITLE      Quasi-free photoproduction of eta-mesons off 3He nuclei
AUTHOR     (L.Witthauer, D.Werthmueller, I.Keshelashvili,
            P.Aguar-Bartolome, J.Ahrens, J.R.M.Annand, H.J.Arends,
            K.Bantawa, R.Beck, V.Bekrenev, A.Braghieri,
            D.Branford, W.J.Briscoe, J.Brudvik, S.Cherepnya,
            B.Demissie, M.Dieterle, E.J.Downie, P.Drexler,
            L.V.Fil'kov, A.Fix, D.I.Glazier, D.Hamilton, E.Heid,
            D.Hornidge, D.Howdle, G.M.Huber, I.Jaegle, O.Jahn,
            T.C.Jude, A.Kaeser, V.L.Kashevarov, R.Kondratiev,
            M.Korolija, S.P.Kruglov, B.Krusche, A.Kulbardis,
            V.Lisin, K.Livingston, I.J.D.MacGregor, Y.Maghrbi,
            J.Mancell, D.M.Manley, Z.Marinides, M.Martinez,
            J.C.McGeorge, E.McNicoll, V.Metag, D.G.Middleton,
            A.Mushkarenkov, B.M.K.Nefkens, A.Nikolaev, R.Novotny,
            M.Oberle, M.Ostrick, B.Oussena, P.Pedroni,
            F.Pheron, A.Polonski, S.Prakhov, J.Robinson, G.Rosner,
            M.Rost, T.Rostomyan, S.Schumann, M.H.Sikora, D.Sober,
            A.Starostin, I.Supek, M.Thiel, A.Thomas, M.Unverzagt,
            D.P.Watts)
INSTITUTE  (2SWTBAS,2GERMNZ,2UK GLS,1USAKNT,2GERBON,4RUSLIN,
           2ITYPAV,2UK EDG,1USAGWU,1USALAS,4RUSLEB,2GERJLU,
           4RUSTPI,4RUSJIA,3CRORBZ,1USACUA)
           (1CANCAN) Mount Allison University, Sackville,
                 and University of Regina, Regina
REFERENCE  (J,EPJ/A,49,154,2013)
REL-REF    (N,,F.Pheron+,J,PL/B,709,21,2012)
            Total systematic uncertainty discussed
           (R,,J.Beringer+,J,PR/D,86,010001,2012)
            eta decay branching ratio given
FACILITY   (MICRT,2GERMNZ) MAMI accelerator
INC-SOURCE (TAGD) 1508 MeV electron (8 nA) on 10 um Cu
SAMPLE     Liquid 3He (surface density of 0.073 nuclei/barn at
            T=2.6 K) in Mylar cylinder (3.0 cm diam., 5.08 cm
            length)
DETECTOR   (NAICR) Crystal Ball (CB): 672 NaI(Tl) crystals with
            the overall geometry of sphere (20 deg to 160 deg)
           (BAF2) TAPS detector: 384 BaF2 crystals convering
            forward angle (5 deg to 21 deg)
           (SCIN) 5 mm thick plastic scintillators in front of
            TAPS
METHOD     (COINC) eta-mesons were detected in coincidence with
            recoil nucleons
ANALYSIS   The following branching ratios were assumed:
            eta -> 2gamma:        39.31+/-0.20 %
            eta -> 3pi0 -> 6gamma 32.57+/-0.23 %
ERR-ANALYS (ERR-SYS)     Total normalization uncertainty (10%)
           (ERR-S)       Statistical uncertainty
           (ERR-1,7.,8.) Target density                (7%-8%)
           (ERR-2,,5.)   Photon flux                     (<5%)
STATUS     (APRVD) Approved by Lilian Witthauer (2014-04-01)
HISTORY    (20140325C) On
ENDBIB              51
COMMON               1          3
ERR-SYS
PER-CENT
 10.
ENDCOMMON            3
ENDSUBENT           58
SUBENT        G0040002   20140325   20141007   20140911       G030
BIB                  3          9
REACTION  1(2-HE-3(G,ETA+X)0-NN-1,,DA,ETA)
            weighted average of average 2gammas and 6gammas
             events from 3He(g,eta+n)X
          2(2-HE-3(G,ETA+X)0-NN-1,,DA,ETA)
            data derived from 2gammas events from 3He(g,eta+n)X
          3(2-HE-3(G,ETA+X)0-NN-1,,DA,ETA)
            data derived from 6gammas events from 3He(g,eta+n)X
PART-DET   (G,N)
STATUS     (TABLE) Plotted in Fig.13 of Euro.Phys.J.A49(2013)154
ENDBIB               9
NOCOMMON             0          0
DATA                 9        420
EN         EN-RSL     COS-CM     DATA-CM   1ERR-S     1DATA-CM   2
ERR-S     2DATA-CM   3ERR-S     3
MEV        MEV        NO-DIM     MU-B/SR    MU-B/SR    MU-B/SR
MU-B/SR    MU-B/SR    MU-B/SR
  655.00    25.00      -0.9       1.51617E-1 1.11342E-2 1.43111E-1
 1.24304E-2 1.86142E-1 2.50420E-2
  655.00    25.00      -0.7       9.82158E-2 8.57237E-3 1.00748E-1
 1.02097E-2 9.21648E-2 1.57824E-2
  655.00    25.00      -0.5       5.79881E-2 7.01052E-3 6.35021E-2
 8.73535E-3 4.80098E-2 1.17510E-2
  655.00    25.00      -0.3       3.64306E-2 6.44019E-3 4.03365E-2
 8.48740E-3 3.11294E-2 9.88775E-3
  655.00    25.00      -0.1       7.92903E-3 5.04735E-3 2.46009E-2
 9.29089E-3 9.48502E-4 6.01186E-3
  655.00    25.00       0.1       3.50048E-2 8.03251E-3 4.15718E-2
 1.12435E-2 2.81591E-2 1.14796E-2
  655.00    25.00       0.3       2.01472E-2 8.10430E-3 2.77381E-2
 1.36364E-2 1.60019E-2 1.00771E-2
  655.00    25.00       0.5       9.90137E-3 8.58108E-3 1.97543E-2
 1.65660E-2 6.28822E-3 1.00318E-2
  655.00    25.00       0.7       4.37048E-4 5.46012E-3 4.07248E-2
 1.83242E-2-3.48857E-3 5.71996E-3
  655.00    25.00       0.9       4.30915E-2 1.40420E-2 4.17315E-2
 2.18624E-2 4.40465E-2 1.83206E-2
  690.00    10.00      -0.9       3.19626E-1 1.83654E-2 3.20553E-1
 2.15766E-2 3.17188E-1 3.49888E-2
  690.00    10.00      -0.7       2.54735E-1 1.44350E-2 2.52531E-1
 1.68641E-2 2.60774E-1 2.79183E-2
  690.00    10.00      -0.5       2.02059E-1 1.24920E-2 2.07543E-1
 1.51712E-2 1.90513E-1 2.20139E-2
  690.00    10.00      -0.3       1.35036E-1 1.08001E-2 1.30304E-1
 1.29831E-2 1.45668E-1 1.94601E-2
  690.00    10.00      -0.1       8.99925E-2 9.73328E-3 9.27099E-2
 1.22662E-2 8.53726E-2 1.59938E-2
  690.00    10.00       0.1       8.12758E-2 1.05629E-2 7.65735E-2
 1.32885E-2 8.93462E-2 1.74087E-2
  690.00    10.00       0.3       3.88848E-2 1.06377E-2 6.28518E-2
 1.64604E-2 2.16962E-2 1.39398E-2
  690.00    10.00       0.5       1.89499E-2 1.13824E-2 2.46567E-2
 1.76041E-2 1.48502E-2 1.49208E-2
  690.00    10.00       0.7       4.99780E-2 1.50511E-2 5.62773E-2
 2.17219E-2 4.41607E-2 2.08743E-2
  690.00    10.00       0.9       5.02006E-3 1.59587E-2-2.36403E-3
 2.38255E-2 1.10288E-2 2.14925E-2
  710.00    10.00      -0.9       4.36589E-1 2.54711E-2 4.39680E-1
 3.01249E-2 4.28838E-1 4.77032E-2
  710.00    10.00      -0.7       3.33747E-1 1.85376E-2 3.44045E-1
 2.21116E-2 3.09391E-1 3.40068E-2
  710.00    10.00      -0.5       2.93038E-1 1.67469E-2 2.78112E-1
 1.95980E-2 3.33436E-1 3.22418E-2
  710.00    10.00      -0.3       2.45694E-1 1.52504E-2 2.67622E-1
 1.93157E-2 2.09401E-1 2.48497E-2
  710.00    10.00      -0.1       1.78415E-1 1.35041E-2 2.05142E-1
 1.74479E-2 1.38488E-1 2.13258E-2
  710.00    10.00       0.1       1.15979E-1 1.21607E-2 1.34205E-1
 1.61681E-2 9.22362E-2 1.84533E-2
  710.00    10.00       0.3       1.03216E-1 1.40914E-2 9.97772E-2
 1.78076E-2 1.08977E-1 2.30472E-2
  710.00    10.00       0.5       9.12140E-2 1.57245E-2 1.11844E-1
 2.18974E-2 6.92493E-2 2.25946E-2
  710.00    10.00       0.7       8.99201E-2 1.87083E-2 6.74971E-2
 2.27991E-2 1.36141E-1 3.27332E-2
  710.00    10.00       0.9       1.23771E-1 2.85539E-2 1.15452E-1
 3.70531E-2 1.35934E-1 4.48047E-2
  730.00    10.00      -0.9       5.34106E-1 2.16996E-2 5.59453E-1
 2.63198E-2 4.80309E-1 3.83441E-2
  730.00    10.00      -0.7       4.13322E-1 1.57694E-2 4.35547E-1
 1.91358E-2 3.66287E-1 2.78377E-2
  730.00    10.00      -0.5       3.37525E-1 1.33113E-2 3.47218E-1
 1.61103E-2 3.16669E-1 2.36313E-2
  730.00    10.00      -0.3       2.90315E-1 1.20982E-2 2.96768E-1
 1.46555E-2 2.76511E-1 2.14360E-2
  730.00    10.00      -0.1       2.43866E-1 1.12762E-2 2.54630E-1
 1.38339E-2 2.22554E-1 1.94652E-2
  730.00    10.00       0.1       2.16560E-1 1.13878E-2 2.17985E-1
 1.39224E-2 2.13680E-1 1.97948E-2
  730.00    10.00       0.3       1.86888E-1 1.18916E-2 1.94265E-1
 1.49539E-2 1.74199E-1 1.96127E-2
  730.00    10.00       0.5       1.42375E-1 1.22940E-2 1.49415E-1
 1.57443E-2 1.31376E-1 1.96796E-2
  730.00    10.00       0.7       1.39825E-1 1.45085E-2 1.55510E-1
 1.95342E-2 1.20528E-1 2.16676E-2
  730.00    10.00       0.9       1.54488E-1 2.13625E-2 1.41486E-1
 2.67679E-2 1.77296E-1 3.54520E-2
  747.50     7.50      -0.9       5.73845E-1 2.42771E-2 6.07016E-1
 2.96024E-2 5.05708E-1 4.24265E-2
  747.50     7.50      -0.7       4.50929E-1 1.76481E-2 4.82428E-1
 2.15876E-2 3.87458E-1 3.06440E-2
  747.50     7.50      -0.5       4.06621E-1 1.53395E-2 4.07080E-1
 1.81341E-2 4.05469E-1 2.87603E-2
  747.50     7.50      -0.3       3.55599E-1 1.39271E-2 3.64549E-1
 1.67097E-2 3.35236E-1 2.52047E-2
  747.50     7.50      -0.1       2.84409E-1 1.24476E-2 2.93249E-1
 1.50800E-2 2.65508E-1 2.20510E-2
  747.50     7.50       0.1       2.67341E-1 1.25603E-2 2.95414E-1
 1.59311E-2 2.21227E-1 2.04183E-2
  747.50     7.50       0.3       2.09755E-1 1.21802E-2 2.13529E-1
 1.49843E-2 2.02404E-1 2.09121E-2
  747.50     7.50       0.5       1.99958E-1 1.38227E-2 2.20937E-1
 1.78054E-2 1.68138E-1 2.19287E-2
  747.50     7.50       0.7       1.76736E-1 1.60634E-2 1.75573E-1
 2.01067E-2 1.78788E-1 2.67079E-2
  747.50     7.50       0.9       1.60577E-1 2.15472E-2 1.64810E-1
 2.77433E-2 1.54141E-1 3.42066E-2
  762.50     7.50      -0.9       5.99126E-1 2.70441E-2 5.99372E-1
 3.20440E-2 5.98519E-1 5.04185E-2
  762.50     7.50      -0.7       4.76105E-1 1.95481E-2 4.70133E-1
 2.29213E-2 4.92036E-1 3.74355E-2
  762.50     7.50      -0.5       4.13619E-1 1.65298E-2 4.09643E-1
 1.93223E-2 4.24472E-1 3.19208E-2
  762.50     7.50      -0.3       3.68844E-1 1.50148E-2 3.54700E-1
 1.73020E-2 4.11983E-1 3.02171E-2
  762.50     7.50      -0.1       3.44643E-1 1.41984E-2 3.58877E-1
 1.71044E-2 3.13099E-1 2.54631E-2
  762.50     7.50       0.1       2.65988E-1 1.28940E-2 2.75483E-1
 1.56195E-2 2.45674E-1 2.28454E-2
  762.50     7.50       0.3       2.61292E-1 1.37760E-2 2.79729E-1
 1.72270E-2 2.28588E-1 2.29432E-2
  762.50     7.50       0.5       2.38743E-1 1.51413E-2 2.19738E-1
 1.75875E-2 2.93165E-1 2.97615E-2
  762.50     7.50       0.7       2.19870E-1 1.80911E-2 2.20603E-1
 2.26842E-2 2.18589E-1 2.99872E-2
  762.50     7.50       0.9       2.12968E-1 2.49035E-2 2.20186E-1
 3.17497E-2 2.01426E-1 4.01482E-2
  777.50     7.50      -0.9       5.71377E-1 2.56578E-2 6.10121E-1
 3.12669E-2 4.91497E-1 4.48958E-2
  777.50     7.50      -0.7       4.52189E-1 1.82943E-2 4.63332E-1
 2.17801E-2 4.25490E-1 3.37128E-2
  777.50     7.50      -0.5       4.48112E-1 1.63179E-2 4.45955E-1
 1.89971E-2 4.54182E-1 3.18693E-2
  777.50     7.50      -0.3       4.02700E-1 1.47444E-2 4.26533E-1
 1.76806E-2 3.48277E-1 2.67172E-2
  777.50     7.50      -0.1       3.59159E-1 1.34389E-2 3.73094E-1
 1.60296E-2 3.26195E-1 2.46546E-2
  777.50     7.50       0.1       3.47112E-1 1.35104E-2 3.41394E-1
 1.57902E-2 3.62734E-1 2.61018E-2
  777.50     7.50       0.3       3.01957E-1 1.34674E-2 3.04534E-1
 1.61920E-2 2.96173E-1 2.42580E-2
  777.50     7.50       0.5       2.68359E-1 1.45615E-2 2.87977E-1
 1.81676E-2 2.33116E-1 2.43508E-2
  777.50     7.50       0.7       2.51584E-1 1.74460E-2 2.84566E-1
 2.28919E-2 2.05887E-1 2.69456E-2
  777.50     7.50       0.9       2.62314E-1 2.54195E-2 2.64547E-1
 3.19014E-2 2.58429E-1 4.20695E-2
  792.50     7.50      -0.9       5.76669E-1 2.40921E-2 5.91579E-1
 2.86061E-2 5.40288E-1 4.46842E-2
  792.50     7.50      -0.7       5.09432E-1 1.80733E-2 5.35844E-1
 2.16699E-2 4.49077E-1 3.27580E-2
  792.50     7.50      -0.5       4.40306E-1 1.50526E-2 4.64106E-1
 1.79513E-2 3.83939E-1 2.76261E-2
  792.50     7.50      -0.3       3.93506E-1 1.34254E-2 4.17478E-1
 1.60365E-2 3.37339E-1 2.45470E-2
  792.50     7.50      -0.1       3.89519E-1 1.28869E-2 3.91009E-1
 1.50250E-2 3.85372E-1 2.50638E-2
  792.50     7.50       0.1       3.69279E-1 1.26757E-2 3.87660E-1
 1.52027E-2 3.27355E-1 2.29595E-2
  792.50     7.50       0.3       3.45799E-1 1.30291E-2 3.39331E-1
 1.53006E-2 3.62862E-1 2.48512E-2
  792.50     7.50       0.5       2.83564E-1 1.34365E-2 3.15341E-1
 1.70360E-2 2.31261E-1 2.18566E-2
  792.50     7.50       0.7       2.68202E-1 1.60646E-2 2.62636E-1
 1.94135E-2 2.80292E-1 2.86114E-2
  792.50     7.50       0.9       2.61487E-1 2.32615E-2 2.91605E-1
 3.06699E-2 2.20699E-1 3.56916E-2
  807.50     7.50      -0.9       6.25754E-1 2.46460E-2 6.26325E-1
 2.86691E-2 6.24137E-1 4.82453E-2
  807.50     7.50      -0.7       5.02419E-1 1.77238E-2 5.00620E-1
 2.05339E-2 5.07674E-1 3.51000E-2
  807.50     7.50      -0.5       4.55381E-1 1.52291E-2 4.48895E-1
 1.74207E-2 4.76403E-1 3.13631E-2
  807.50     7.50      -0.3       4.47528E-1 1.40489E-2 4.49931E-1
 1.62609E-2 4.40452E-1 2.79003E-2
  807.50     7.50      -0.1       4.16527E-1 1.30727E-2 4.30971E-1
 1.53787E-2 3.78905E-1 2.48199E-2
  807.50     7.50       0.1       3.96028E-1 1.27201E-2 3.89808E-1
 1.46159E-2 4.15449E-1 2.58254E-2
  807.50     7.50       0.3       3.26364E-1 1.21284E-2 3.18144E-1
 1.41022E-2 3.49719E-1 2.37706E-2
  807.50     7.50       0.5       3.27186E-1 1.37984E-2 3.42267E-1
 1.68461E-2 2.96442E-1 2.40527E-2
  807.50     7.50       0.7       3.02492E-1 1.63156E-2 3.36863E-1
 2.09853E-2 2.49964E-1 2.59427E-2
  807.50     7.50       0.9       2.75779E-1 2.31662E-2 3.06547E-1
 3.04262E-2 2.33340E-1 3.57342E-2
  822.50     7.50      -0.9       6.22463E-1 2.53123E-2 6.37201E-1
 2.96241E-2 5.82597E-1 4.87213E-2
  822.50     7.50      -0.7       4.87255E-1 1.81355E-2 4.96526E-1
 2.11967E-2 4.61932E-1 3.50327E-2
  822.50     7.50      -0.5       4.85432E-1 1.63985E-2 5.00657E-1
 1.91387E-2 4.43388E-1 3.18043E-2
  822.50     7.50      -0.3       4.23966E-1 1.41284E-2 4.20547E-1
 1.61395E-2 4.35178E-1 2.92266E-2
  822.50     7.50      -0.1       4.12820E-1 1.33491E-2 4.18696E-1
 1.54194E-2 3.95238E-1 2.66713E-2
  822.50     7.50       0.1       3.71909E-1 1.25633E-2 3.88837E-1
 1.48054E-2 3.28367E-1 2.37446E-2
  822.50     7.50       0.3       3.47311E-1 1.27751E-2 3.30658E-1
 1.45351E-2 4.03855E-1 2.67834E-2
  822.50     7.50       0.5       2.92337E-1 1.30978E-2 2.75728E-1
 1.49981E-2 3.45706E-1 2.68842E-2
  822.50     7.50       0.7       3.17840E-1 1.70294E-2 3.04781E-1
 2.01605E-2 3.50362E-1 3.18157E-2
  822.50     7.50       0.9       2.79819E-1 2.36937E-2 3.36879E-1
 3.22009E-2 2.12453E-1 3.49884E-2
  837.50     7.50      -0.9       6.14889E-1 2.63262E-2 6.56906E-1
 3.14925E-2 5.17402E-1 4.79701E-2
  837.50     7.50      -0.7       5.49068E-1 2.01718E-2 5.48561E-1
 2.32766E-2 5.50598E-1 4.04260E-2
  837.50     7.50      -0.5       4.86875E-1 1.70962E-2 5.11771E-1
 2.01359E-2 4.22579E-1 3.23590E-2
  837.50     7.50      -0.3       4.66877E-1 1.55461E-2 4.57942E-1
 1.75455E-2 4.99515E-1 3.35331E-2
  837.50     7.50      -0.1       3.79573E-1 1.32895E-2 3.82210E-1
 1.52067E-2 3.71046E-1 2.73410E-2
  837.50     7.50       0.1       3.70427E-1 1.29916E-2 3.77187E-1
 1.50182E-2 3.50326E-1 2.58960E-2
  837.50     7.50       0.3       3.15238E-1 1.24757E-2 3.19040E-1
 1.45120E-2 3.04472E-1 2.44220E-2
  837.50     7.50       0.5       3.19256E-1 1.39627E-2 3.17344E-1
 1.63126E-2 3.24494E-1 2.70034E-2
  837.50     7.50       0.7       2.92073E-1 1.65136E-2 2.83237E-1
 1.95181E-2 3.14331E-1 3.09779E-2
  837.50     7.50       0.9       2.74660E-1 2.41894E-2 2.56337E-1
 2.86710E-2 3.19917E-1 4.50594E-2
  852.50     7.50      -0.9       5.75164E-1 2.53904E-2 6.10142E-1
 3.03299E-2 4.93235E-1 4.64183E-2
  852.50     7.50      -0.7       4.88843E-1 1.88534E-2 4.94741E-1
 2.18749E-2 4.71807E-1 3.71774E-2
  852.50     7.50      -0.5       5.07616E-1 1.73956E-2 5.39844E-1
 2.05617E-2 4.26465E-1 3.26275E-2
  852.50     7.50      -0.3       4.75045E-1 1.55828E-2 4.88324E-1
 1.79313E-2 4.34078E-1 3.14953E-2
  852.50     7.50      -0.1       4.19247E-1 1.38410E-2 4.19658E-1
 1.56756E-2 4.17791E-1 2.94842E-2
  852.50     7.50       0.1       3.55432E-1 1.25514E-2 3.56969E-1
 1.43400E-2 3.50396E-1 2.59520E-2
  852.50     7.50       0.3       3.38358E-1 1.26486E-2 3.55232E-1
 1.48822E-2 2.94456E-1 2.40046E-2
  852.50     7.50       0.5       3.20288E-1 1.36274E-2 3.47341E-1
 1.65583E-2 2.63503E-1 2.39899E-2
  852.50     7.50       0.7       2.93106E-1 1.59766E-2 2.81588E-1
 1.87374E-2 3.23783E-1 3.05790E-2
  852.50     7.50       0.9       2.95346E-1 2.42460E-2 3.01129E-1
 2.99209E-2 2.84287E-1 4.13776E-2
  867.50     7.50      -0.9       5.30576E-1 2.31743E-2 5.34951E-1
 2.69219E-2 5.18061E-1 4.55342E-2
  867.50     7.50      -0.7       4.59783E-1 1.72588E-2 4.57972E-1
 1.98010E-2 4.65507E-1 3.52085E-2
  867.50     7.50      -0.5       4.80312E-1 1.60329E-2 4.86969E-1
 1.84429E-2 4.59718E-1 3.24397E-2
  867.50     7.50      -0.3       4.47347E-1 1.42897E-2 4.63635E-1
 1.64627E-2 3.97576E-1 2.87777E-2
  867.50     7.50      -0.1       4.02088E-1 1.26848E-2 3.95115E-1
 1.41580E-2 4.30458E-1 2.85585E-2
  867.50     7.50       0.1       3.66059E-1 1.19123E-2 3.63772E-1
 1.34578E-2 3.74335E-1 2.56018E-2
  867.50     7.50       0.3       3.38208E-1 1.18158E-2 3.37986E-1
 1.34750E-2 3.38946E-1 2.45788E-2
  867.50     7.50       0.5       3.26932E-1 1.28385E-2 3.38513E-1
 1.51641E-2 2.97619E-1 2.41246E-2
  867.50     7.50       0.7       3.00457E-1 1.49942E-2 2.94962E-1
 1.76158E-2 3.14911E-1 2.85671E-2
  867.50     7.50       0.9       3.19150E-1 2.38409E-2 3.19431E-1
 2.92506E-2 3.18594E-1 4.11488E-2
  882.50     7.50      -0.9       5.25110E-1 2.21025E-2 5.34083E-1
 2.57080E-2 4.99680E-1 4.32784E-2
  882.50     7.50      -0.7       4.17406E-1 1.57051E-2 4.33207E-1
 1.83708E-2 3.74501E-1 3.02720E-2
  882.50     7.50      -0.5       4.11817E-1 1.41993E-2 4.15601E-1
 1.62586E-2 3.99652E-1 2.91506E-2
  882.50     7.50      -0.3       3.91085E-1 1.27253E-2 4.01508E-1
 1.45463E-2 3.57099E-1 2.62667E-2
  882.50     7.50      -0.1       4.25443E-1 1.25745E-2 4.32927E-1
 1.42846E-2 3.99681E-1 2.65037E-2
  882.50     7.50       0.1       3.95008E-1 1.18987E-2 4.02723E-1
 1.35745E-2 3.69423E-1 2.47212E-2
  882.50     7.50       0.3       3.21197E-1 1.09608E-2 3.31477E-1
 1.26492E-2 2.90213E-1 2.19596E-2
  882.50     7.50       0.5       3.24941E-1 1.21424E-2 3.22827E-1
 1.39510E-2 3.31545E-1 2.46594E-2
  882.50     7.50       0.7       2.84263E-1 1.38693E-2 2.91233E-1
 1.64530E-2 2.67151E-1 2.57804E-2
  882.50     7.50       0.9       3.27193E-1 2.33689E-2 3.27718E-1
 2.85330E-2 3.26124E-1 4.07282E-2
  897.50     7.50      -0.9       5.32673E-1 2.41785E-2 5.63317E-1
 2.85471E-2 4.54898E-1 4.54793E-2
  897.50     7.50      -0.7       4.49535E-1 1.77210E-2 4.54203E-1
 2.03882E-2 4.35114E-1 3.58362E-2
  897.50     7.50      -0.5       4.05342E-1 1.54139E-2 4.14646E-1
 1.77179E-2 3.76381E-1 3.12584E-2
  897.50     7.50      -0.3       4.25684E-1 1.44509E-2 4.24415E-1
 1.62156E-2 4.30582E-1 3.18533E-2
  897.50     7.50      -0.1       3.86660E-1 1.30435E-2 3.86842E-1
 1.46130E-2 3.85944E-1 2.89306E-2
  897.50     7.50       0.1       3.70826E-1 1.25087E-2 3.72752E-1
 1.41156E-2 3.63782E-1 2.69945E-2
  897.50     7.50       0.3       3.33897E-1 1.21307E-2 3.27938E-1
 1.35666E-2 3.57658E-1 2.70920E-2
  897.50     7.50       0.5       2.88216E-1 1.23522E-2 2.88761E-1
 1.41836E-2 2.86508E-1 2.51320E-2
  897.50     7.50       0.7       2.74798E-1 1.47589E-2 2.82407E-1
 1.74930E-2 2.56002E-1 2.74939E-2
  897.50     7.50       0.9       2.85694E-1 2.37448E-2 3.02076E-1
 2.94314E-2 2.55148E-1 4.01878E-2
  912.50     7.50      -0.9       5.15845E-1 2.41430E-2 5.45549E-1
 2.84417E-2 4.39247E-1 4.56719E-2
  912.50     7.50      -0.7       4.30272E-1 1.74984E-2 4.37298E-1
 2.01258E-2 4.08509E-1 3.54204E-2
  912.50     7.50      -0.5       4.06344E-1 1.54416E-2 3.98711E-1
 1.73297E-2 4.35761E-1 3.40196E-2
  912.50     7.50      -0.3       3.82750E-1 1.36657E-2 3.77269E-1
 1.52025E-2 4.05823E-1 3.11906E-2
  912.50     7.50      -0.1       3.85887E-1 1.31548E-2 3.98997E-1
 1.49342E-2 3.40498E-1 2.77882E-2
  912.50     7.50       0.1       3.29909E-1 1.17958E-2 3.32045E-1
 1.32338E-2 3.21651E-1 2.60197E-2
  912.50     7.50       0.3       3.11145E-1 1.17558E-2 3.08389E-1
 1.31754E-2 3.21904E-1 2.60350E-2
  912.50     7.50       0.5       2.76183E-1 1.21636E-2 2.80904E-1
 1.39905E-2 2.61564E-1 2.46186E-2
  912.50     7.50       0.7       2.52069E-1 1.41574E-2 2.56456E-1
 1.66929E-2 2.40826E-1 2.67211E-2
  912.50     7.50       0.9       2.66668E-1 2.30411E-2 2.73498E-1
 2.81828E-2 2.52900E-1 4.00126E-2
  927.50     7.50      -0.9       5.36492E-1 2.37177E-2 5.58157E-1
 2.76884E-2 4.76786E-1 4.59653E-2
  927.50     7.50      -0.7       3.76857E-1 1.57567E-2 3.85825E-1
 1.81765E-2 3.49741E-1 3.16059E-2
  927.50     7.50      -0.5       3.98407E-1 1.45390E-2 4.04176E-1
 1.65552E-2 3.78957E-1 3.03997E-2
  927.50     7.50      -0.3       3.77053E-1 1.29578E-2 3.79802E-1
 1.45622E-2 3.66601E-1 2.83969E-2
  927.50     7.50      -0.1       3.76161E-1 1.24198E-2 3.83573E-1
 1.39545E-2 3.47919E-1 2.72410E-2
  927.50     7.50       0.1       3.44172E-1 1.15072E-2 3.39676E-1
 1.27406E-2 3.64083E-1 2.68094E-2
  927.50     7.50       0.3       3.29495E-1 1.15499E-2 3.24454E-1
 1.28423E-2 3.50828E-1 2.64183E-2
  927.50     7.50       0.5       2.56063E-1 1.11662E-2 2.49402E-1
 1.25227E-2 2.81907E-1 2.46670E-2
  927.50     7.50       0.7       2.54579E-1 1.36523E-2 2.46729E-1
 1.56081E-2 2.80146E-1 2.81685E-2
  927.50     7.50       0.9       2.30731E-1 2.06108E-2 2.29843E-1
 2.48508E-2 2.32688E-1 3.68915E-2
  942.50     7.50      -0.9       5.32076E-1 2.37621E-2 5.73065E-1
 2.82002E-2 4.31718E-1 4.41261E-2
  942.50     7.50      -0.7       3.89336E-1 1.61128E-2 3.98409E-1
 1.85817E-2 3.61835E-1 3.23501E-2
  942.50     7.50      -0.5       3.79675E-1 1.42348E-2 4.09269E-1
 1.67096E-2 3.01372E-1 2.71805E-2
  942.50     7.50      -0.3       3.68834E-1 1.28678E-2 3.66829E-1
 1.43391E-2 3.77126E-1 2.91631E-2
  942.50     7.50      -0.1       3.54839E-1 1.20831E-2 3.60662E-1
 1.35004E-2 3.31395E-1 2.70905E-2
  942.50     7.50       0.1       3.35234E-1 1.13958E-2 3.22766E-1
 1.24151E-2 4.01950E-1 2.87191E-2
  942.50     7.50       0.3       3.42875E-1 1.18927E-2 3.44389E-1
 1.32847E-2 3.36766E-1 2.66876E-2
  942.50     7.50       0.5       2.56572E-1 1.12555E-2 2.56546E-1
 1.27087E-2 2.56668E-1 2.42391E-2
  942.50     7.50       0.7       2.14559E-1 1.25784E-2 2.29546E-1
 1.50732E-2 1.80186E-1 2.28274E-2
  942.50     7.50       0.9       1.90947E-1 1.88514E-2 1.90659E-1
 2.27692E-2 1.91574E-1 3.36138E-2
  957.50     7.50      -0.9       4.60195E-1 2.39413E-2 4.60211E-1
 2.73021E-2 4.60142E-1 4.98086E-2
  957.50     7.50      -0.7       4.02594E-1 1.76898E-2 3.98233E-1
 2.00094E-2 4.18200E-1 3.78517E-2
  957.50     7.50      -0.5       3.71892E-1 1.51993E-2 3.69285E-1
 1.70835E-2 3.81792E-1 3.32934E-2
  957.50     7.50      -0.3       3.46647E-1 1.34942E-2 3.40290E-1
 1.49580E-2 3.74441E-1 3.12768E-2
  957.50     7.50      -0.1       3.49485E-1 1.29597E-2 3.50271E-1
 1.43453E-2 3.45993E-1 3.02246E-2
  957.50     7.50       0.1       3.18049E-1 1.19632E-2 3.17130E-1
 1.32221E-2 3.22198E-1 2.80918E-2
  957.50     7.50       0.3       3.05574E-1 1.22446E-2 3.04739E-1
 1.35670E-2 3.09245E-1 2.84349E-2
  957.50     7.50       0.5       2.60903E-1 1.23053E-2 2.64094E-1
 1.38527E-2 2.48963E-1 2.67929E-2
  957.50     7.50       0.7       2.23608E-1 1.39084E-2 2.15414E-1
 1.56878E-2 2.53708E-1 3.00670E-2
  957.50     7.50       0.9       2.35305E-1 2.28899E-2 2.41758E-1
 2.79102E-2 2.22048E-1 4.00048E-2
  972.50     7.50      -0.9       4.97036E-1 2.28920E-2 5.33770E-1
 2.71109E-2 4.05784E-1 4.27300E-2
  972.50     7.50      -0.7       3.49240E-1 1.50855E-2 3.41344E-1
 1.69130E-2 3.79969E-1 3.33652E-2
  972.50     7.50      -0.5       3.87647E-1 1.42036E-2 3.85297E-1
 1.59596E-2 3.96598E-1 3.11466E-2
  972.50     7.50      -0.3       3.63887E-1 1.26773E-2 3.52011E-1
 1.39431E-2 4.20531E-1 3.04504E-2
  972.50     7.50      -0.1       3.35581E-1 1.15076E-2 3.40903E-1
 1.28196E-2 3.13498E-1 2.61130E-2
  972.50     7.50       0.1       3.24745E-1 1.11240E-2 3.17885E-1
 1.21176E-2 3.61503E-1 2.80500E-2
  972.50     7.50       0.3       2.73939E-1 1.06077E-2 2.72250E-1
 1.16863E-2 2.81841E-1 2.52799E-2
  972.50     7.50       0.5       2.86434E-1 1.17499E-2 3.00663E-1
 1.34721E-2 2.41206E-1 2.40187E-2
  972.50     7.50       0.7       2.31620E-1 1.29626E-2 2.25081E-1
 1.46125E-2 2.55772E-1 2.80821E-2
  972.50     7.50       0.9       2.28595E-1 2.07932E-2 2.43340E-1
 2.53415E-2 1.98213E-1 3.63760E-2
  987.50     7.50      -0.9       4.77203E-1 2.27544E-2 4.83982E-1
 2.61338E-2 4.55956E-1 4.62645E-2
  987.50     7.50      -0.7       3.56231E-1 1.55827E-2 3.56104E-1
 1.76546E-2 3.56678E-1 3.31515E-2
  987.50     7.50      -0.5       3.65690E-1 1.40593E-2 3.64057E-1
 1.57707E-2 3.72014E-1 3.10327E-2
  987.50     7.50      -0.3       3.79272E-1 1.31112E-2 3.82072E-1
 1.46961E-2 3.68350E-1 2.90241E-2
  987.50     7.50      -0.1       3.56105E-1 1.20353E-2 3.52317E-1
 1.32077E-2 3.74643E-1 2.92197E-2
  987.50     7.50       0.1       3.15490E-1 1.12372E-2 3.07254E-1
 1.22223E-2 3.60490E-1 2.85698E-2
  987.50     7.50       0.3       2.71070E-1 1.07902E-2 2.83277E-1
 1.21869E-2 2.26783E-1 2.32127E-2
  987.50     7.50       0.5       2.49988E-1 1.11205E-2 2.49618E-1
 1.23716E-2 2.51545E-1 2.53769E-2
  987.50     7.50       0.7       1.97379E-1 1.21146E-2 2.03707E-1
 1.40627E-2 1.79170E-1 2.38566E-2
  987.50     7.50       0.9       1.49111E-1 1.71292E-2 1.60990E-1
 2.07965E-2 1.24051E-1 3.02059E-2
 1002.50     7.50      -0.9       4.21607E-1 2.20875E-2 4.11064E-1
 2.48989E-2 4.60543E-1 4.78489E-2
 1002.50     7.50      -0.7       3.74263E-1 1.65943E-2 3.75462E-1
 1.88456E-2 3.70125E-1 3.50116E-2
 1002.50     7.50      -0.5       3.32751E-1 1.38773E-2 3.30683E-1
 1.55428E-2 3.40879E-1 3.08132E-2
 1002.50     7.50      -0.3       3.48566E-1 1.29814E-2 3.49341E-1
 1.44341E-2 3.45286E-1 2.96909E-2
 1002.50     7.50      -0.1       3.28184E-1 1.18668E-2 3.25562E-1
 1.30675E-2 3.40516E-1 2.83400E-2
 1002.50     7.50       0.1       3.15205E-1 1.15319E-2 3.03507E-1
 1.24474E-2 3.86071E-1 3.06364E-2
 1002.50     7.50       0.3       2.99404E-1 1.16294E-2 3.08241E-1
 1.29850E-2 2.63585E-1 2.61422E-2
 1002.50     7.50       0.5       2.57181E-1 1.16782E-2 2.52785E-1
 1.28733E-2 2.77609E-1 2.77541E-2
 1002.50     7.50       0.7       2.01206E-1 1.25130E-2 2.11110E-1
 1.45463E-2 1.73021E-1 2.45389E-2
 1002.50     7.50       0.9       1.56478E-1 1.82806E-2 1.71646E-1
 2.25689E-2 1.27541E-1 3.11720E-2
 1017.50     7.50      -0.9       3.92307E-1 2.13673E-2 3.91913E-1
 2.45000E-2 3.93562E-1 4.36720E-2
 1017.50     7.50      -0.7       3.62092E-1 1.65431E-2 3.65645E-1
 1.88788E-2 3.50339E-1 3.43357E-2
 1017.50     7.50      -0.5       3.50051E-1 1.44067E-2 3.46214E-1
 1.61137E-2 3.65337E-1 3.21628E-2
 1017.50     7.50      -0.3       3.18571E-1 1.25824E-2 3.06770E-1
 1.36880E-2 3.82896E-1 3.19581E-2
 1017.50     7.50      -0.1       3.23078E-1 1.19316E-2 3.17103E-1
 1.30509E-2 3.53493E-1 2.94466E-2
 1017.50     7.50       0.1       3.25636E-1 1.18169E-2 3.14469E-1
 1.27305E-2 3.95166E-1 3.17657E-2
 1017.50     7.50       0.3       3.03741E-1 1.17340E-2 3.11965E-1
 1.30560E-2 2.69187E-1 2.67610E-2
 1017.50     7.50       0.5       2.39051E-1 1.13075E-2 2.35833E-1
 1.24242E-2 2.54578E-1 2.72895E-2
 1017.50     7.50       0.7       1.57478E-1 1.11083E-2 1.64949E-1
 1.28858E-2 1.35865E-1 2.19176E-2
 1017.50     7.50       0.9       1.93383E-1 2.01173E-2 1.97875E-1
 2.40798E-2 1.83005E-1 3.66053E-2
 1032.50     7.50      -0.9       3.64455E-1 2.08251E-2 3.50085E-1
 2.32789E-2 4.22037E-1 4.65996E-2
 1032.50     7.50      -0.7       3.48625E-1 1.64356E-2 3.47197E-1
 1.86598E-2 3.53567E-1 3.47114E-2
 1032.50     7.50      -0.5       3.38607E-1 1.42924E-2 3.31880E-1
 1.59042E-2 3.66837E-1 3.25821E-2
 1032.50     7.50      -0.3       3.30196E-1 1.30457E-2 3.15736E-1
 1.41634E-2 4.11115E-1 3.35046E-2
 1032.50     7.50      -0.1       3.23870E-1 1.21442E-2 3.25048E-1
 1.33907E-2 3.18413E-1 2.88248E-2
 1032.50     7.50       0.1       3.19520E-1 1.19331E-2 3.06349E-1
 1.27870E-2 4.08373E-1 3.32118E-2
 1032.50     7.50       0.3       2.53472E-1 1.08711E-2 2.45855E-1
 1.17429E-2 2.99130E-1 2.87510E-2
 1032.50     7.50       0.5       2.48663E-1 1.16134E-2 2.50831E-1
 1.28725E-2 2.39178E-1 2.69229E-2
 1032.50     7.50       0.7       1.71579E-1 1.17483E-2 1.65205E-1
 1.29983E-2 2.00020E-1 2.74561E-2
 1032.50     7.50       0.9       1.67306E-1 1.88065E-2 1.76791E-1
 2.32012E-2 1.49134E-1 3.21133E-2
 1047.50     7.50      -0.9       3.66616E-1 2.23129E-2 3.66943E-1
 2.53512E-2 3.65493E-1 4.70045E-2
 1047.50     7.50      -0.7       3.40128E-1 1.69996E-2 3.30956E-1
 1.90531E-2 3.75932E-1 3.76438E-2
 1047.50     7.50      -0.5       3.32482E-1 1.49142E-2 3.25651E-1
 1.66569E-2 3.60097E-1 3.34917E-2
 1047.50     7.50      -0.3       3.16468E-1 1.32958E-2 3.08683E-1
 1.45866E-2 3.54699E-1 3.23269E-2
 1047.50     7.50      -0.1       3.31921E-1 1.28297E-2 3.36844E-1
 1.42253E-2 3.10462E-1 2.97010E-2
 1047.50     7.50       0.1       2.84691E-1 1.16841E-2 2.82868E-1
 1.27363E-2 2.94373E-1 2.93568E-2
 1047.50     7.50       0.3       2.74948E-1 1.18434E-2 2.66136E-1
 1.27582E-2 3.29874E-1 3.18515E-2
 1047.50     7.50       0.5       2.24444E-1 1.14567E-2 2.13329E-1
 1.23034E-2 2.96967E-1 3.14277E-2
 1047.50     7.50       0.7       1.78502E-1 1.24659E-2 1.78481E-1
 1.39816E-2 1.78582E-1 2.75288E-2
 1047.50     7.50       0.9       1.51390E-1 1.90227E-2 1.42552E-1
 2.20298E-2 1.77296E-1 3.77170E-2
 1062.50     7.50      -0.9       3.41644E-1 2.13661E-2 3.33109E-1
 2.40375E-2 3.73768E-1 4.66339E-2
 1062.50     7.50      -0.7       2.95719E-1 1.56590E-2 2.85585E-1
 1.74941E-2 3.36561E-1 3.51207E-2
 1062.50     7.50      -0.5       2.78420E-1 1.35792E-2 2.77014E-1
 1.52821E-2 2.83697E-1 2.96013E-2
 1062.50     7.50      -0.3       3.10710E-1 1.29390E-2 3.16094E-1
 1.45162E-2 2.89895E-1 2.85431E-2
 1062.50     7.50      -0.1       2.95384E-1 1.18660E-2 2.91883E-1
 1.29764E-2 3.13256E-1 2.93165E-2
 1062.50     7.50       0.1       2.85300E-1 1.15086E-2 2.77375E-1
 1.24041E-2 3.34314E-1 3.08484E-2
 1062.50     7.50       0.3       2.78453E-1 1.16778E-2 2.77758E-1
 1.27430E-2 2.82098E-1 2.91775E-2
 1062.50     7.50       0.5       2.12963E-1 1.10165E-2 2.22849E-1
 1.24213E-2 1.76522E-1 2.38480E-2
 1062.50     7.50       0.7       1.75296E-1 1.20596E-2 1.77428E-1
 1.35757E-2 1.67317E-1 2.62607E-2
 1062.50     7.50       0.9       1.58839E-1 1.88385E-2 1.72047E-1
 2.29427E-2 1.31504E-1 3.30053E-2
 1077.50     7.50      -0.9       3.48397E-1 2.14363E-2 3.50466E-1
 2.45973E-2 3.41864E-1 4.37103E-2
 1077.50     7.50      -0.7       2.89655E-1 1.53870E-2 2.95112E-1
 1.76622E-2 2.72473E-1 3.13413E-2
 1077.50     7.50      -0.5       2.84527E-1 1.36675E-2 2.85011E-1
 1.53933E-2 2.82725E-1 2.97080E-2
 1077.50     7.50      -0.3       2.94455E-1 1.25050E-2 2.93941E-1
 1.39151E-2 2.96615E-1 2.85095E-2
 1077.50     7.50      -0.1       2.84518E-1 1.15851E-2 2.83208E-1
 1.26998E-2 2.91011E-1 2.82779E-2
 1077.50     7.50       0.1       2.80658E-1 1.13083E-2 2.85094E-1
 1.24735E-2 2.60188E-1 2.67956E-2
 1077.50     7.50       0.3       2.62620E-1 1.12982E-2 2.56867E-1
 1.21746E-2 2.98318E-1 3.03274E-2
 1077.50     7.50       0.5       2.15318E-1 1.10041E-2 2.31727E-1
 1.25220E-2 1.59675E-1 2.30587E-2
 1077.50     7.50       0.7       1.81955E-1 1.20541E-2 1.97610E-1
 1.40236E-2 1.37663E-1 2.35875E-2
 1077.50     7.50       0.9       1.30683E-1 1.68602E-2 1.30281E-1
 1.94498E-2 1.31899E-1 3.38174E-2
 1092.50     7.50      -0.9       3.38874E-1 2.28292E-2 3.20773E-1
 2.55097E-2 4.11678E-1 5.11606E-2
 1092.50     7.50      -0.7       2.81207E-1 1.62744E-2 2.72931E-1
 1.81652E-2 3.14867E-1 3.66347E-2
 1092.50     7.50      -0.5       2.90470E-1 1.45946E-2 2.85045E-1
 1.62586E-2 3.12981E-1 3.31164E-2
 1092.50     7.50      -0.3       2.81057E-1 1.29134E-2 2.71461E-1
 1.41395E-2 3.29294E-1 3.17029E-2
 1092.50     7.50      -0.1       2.95403E-1 1.25205E-2 2.88492E-1
 1.35915E-2 3.34143E-1 3.21788E-2
 1092.50     7.50       0.1       2.53895E-1 1.13688E-2 2.59848E-1
 1.25718E-2 2.27183E-1 2.66324E-2
 1092.50     7.50       0.3       2.54742E-1 1.18037E-2 2.46988E-1
 1.26207E-2 3.08885E-1 3.33492E-2
 1092.50     7.50       0.5       2.22917E-1 1.17448E-2 2.23255E-1
 1.28488E-2 2.21200E-1 2.89611E-2
 1092.50     7.50       0.7       1.74158E-1 1.24283E-2 1.78137E-1
 1.40070E-2 1.59432E-1 2.69469E-2
 1092.50     7.50       0.9       1.43087E-1 1.84563E-2 1.69336E-1
 2.31524E-2 9.73284E-2 3.05687E-2
 1110.00    10.00      -0.9       2.81647E-1 2.02217E-2 2.88070E-1
 2.34309E-2 2.62898E-1 4.00313E-2
 1110.00    10.00      -0.7       2.45056E-1 1.45093E-2 2.49840E-1
 1.65140E-2 2.28864E-1 3.03825E-2
 1110.00    10.00      -0.5       2.63939E-1 1.32555E-2 2.70071E-1
 1.50136E-2 2.42259E-1 2.82297E-2
 1110.00    10.00      -0.3       2.55781E-1 1.16439E-2 2.49517E-1
 1.27946E-2 2.85983E-1 2.80942E-2
 1110.00    10.00      -0.1       2.63777E-1 1.11238E-2 2.60218E-1
 1.21260E-2 2.82678E-1 2.79434E-2
 1110.00    10.00       0.1       2.45847E-1 1.04403E-2 2.38849E-1
 1.11982E-2 2.92360E-1 2.88695E-2
 1110.00    10.00       0.3       2.51405E-1 1.08863E-2 2.51364E-1
 1.18064E-2 2.51638E-1 2.81277E-2
 1110.00    10.00       0.5       2.19827E-1 1.09513E-2 2.18736E-1
 1.19077E-2 2.25816E-1 2.78911E-2
 1110.00    10.00       0.7       1.91956E-1 1.22193E-2 1.94940E-1
 1.36544E-2 1.79955E-1 2.73808E-2
 1110.00    10.00       0.9       1.06050E-1 1.51942E-2 1.50737E-1
 2.05952E-2 5.26781E-2 2.25077E-2
 1130.00    10.00      -0.9       2.84775E-1 1.81018E-2 2.67970E-1
 2.01471E-2 3.55165E-1 4.12329E-2
 1130.00    10.00      -0.7       2.46461E-1 1.29460E-2 2.65756E-1
 1.52082E-2 1.95686E-1 2.46706E-2
 1130.00    10.00      -0.5       2.28239E-1 1.09754E-2 2.28143E-1
 1.23256E-2 2.28605E-1 2.41179E-2
 1130.00    10.00      -0.3       2.64412E-1 1.06310E-2 2.57018E-1
 1.16235E-2 3.02250E-1 2.62926E-2
 1130.00    10.00      -0.1       2.58653E-1 9.85841E-3 2.51528E-1
 1.06586E-2 3.00828E-1 2.59324E-2
 1130.00    10.00       0.1       2.70930E-1 9.86351E-3 2.68548E-1
 1.06789E-2 2.84763E-1 2.57372E-2
 1130.00    10.00       0.3       2.51362E-1 9.75088E-3 2.44604E-1
 1.04210E-2 2.98897E-1 2.76383E-2
 1130.00    10.00       0.5       2.24657E-1 9.97166E-3 2.20764E-1
 1.07457E-2 2.48798E-1 2.67584E-2
 1130.00    10.00       0.7       1.72919E-1 1.04352E-2 1.88403E-1
 1.19952E-2 1.24738E-1 2.11599E-2
 1130.00    10.00       0.9       1.15602E-1 1.39173E-2 1.18298E-1
 1.61122E-2 1.07679E-1 2.76202E-2
 1150.00    10.00      -0.9       2.81266E-1 1.92567E-2 2.95082E-1
 2.24746E-2 2.43116E-1 3.73469E-2
 1150.00    10.00      -0.7       2.36690E-1 1.34434E-2 2.31860E-1
 1.51297E-2 2.54805E-1 2.93021E-2
 1150.00    10.00      -0.5       2.15865E-1 1.11476E-2 2.07678E-1
 1.23104E-2 2.53160E-1 2.62752E-2
 1150.00    10.00      -0.3       2.32451E-1 1.04813E-2 2.25439E-1
 1.14373E-2 2.69211E-1 2.61868E-2
 1150.00    10.00      -0.1       2.45551E-1 1.00927E-2 2.44747E-1
 1.10494E-2 2.49597E-1 2.47960E-2
 1150.00    10.00       0.1       2.37975E-1 9.72752E-3 2.35356E-1
 1.05039E-2 2.53752E-1 2.57816E-2
 1150.00    10.00       0.3       2.49778E-1 1.01927E-2 2.43011E-1
 1.08730E-2 2.98830E-1 2.92752E-2
 1150.00    10.00       0.5       2.15604E-1 1.02066E-2 2.21967E-1
 1.12060E-2 1.84629E-1 2.47241E-2
 1150.00    10.00       0.7       1.65380E-1 1.08201E-2 1.62056E-1
 1.17324E-2 1.84295E-1 2.79876E-2
 1150.00    10.00       0.9       1.13610E-1 1.42126E-2 1.07685E-1
 1.57138E-2 1.40247E-1 3.33205E-2
 1170.00    10.00      -0.9       2.56151E-1 1.83264E-2 2.64271E-1
 2.11982E-2 2.32124E-1 3.64642E-2
 1170.00    10.00      -0.7       2.29445E-1 1.28870E-2 2.22809E-1
 1.45348E-2 2.53833E-1 2.78648E-2
 1170.00    10.00      -0.5       2.32786E-1 1.12476E-2 2.35928E-1
 1.27333E-2 2.21631E-1 2.39936E-2
 1170.00    10.00      -0.3       2.14374E-1 9.82854E-3 2.10155E-1
 1.07969E-2 2.34780E-1 2.37451E-2
 1170.00    10.00      -0.1       2.42350E-1 9.77612E-3 2.42293E-1
 1.07290E-2 2.42631E-1 2.37284E-2
 1170.00    10.00       0.1       2.45684E-1 9.64983E-3 2.41518E-1
 1.03546E-2 2.73203E-1 2.66118E-2
 1170.00    10.00       0.3       2.61655E-1 1.01104E-2 2.56530E-1
 1.07925E-2 2.98392E-1 2.88967E-2
 1170.00    10.00       0.5       2.15833E-1 9.89227E-3 2.13266E-1
 1.06089E-2 2.32932E-1 2.73794E-2
 1170.00    10.00       0.7       1.54762E-1 1.01586E-2 1.56614E-1
 1.11873E-2 1.46057E-1 2.42525E-2
 1170.00    10.00       0.9       1.08428E-1 1.34753E-2 1.12466E-1
 1.56341E-2 9.67595E-2 2.65760E-2
 1190.00    10.00      -0.9       2.29061E-1 1.81496E-2 2.17601E-1
 2.02736E-2 2.75316E-1 4.07307E-2
 1190.00    10.00      -0.7       2.29462E-1 1.32542E-2 2.21099E-1
 1.48877E-2 2.61419E-1 2.91033E-2
 1190.00    10.00      -0.5       2.26364E-1 1.13367E-2 2.19897E-1
 1.25422E-2 2.55236E-1 2.65011E-2
 1190.00    10.00      -0.3       1.99175E-1 9.65093E-3 1.93009E-1
 1.05440E-2 2.31014E-1 2.39613E-2
 1190.00    10.00      -0.1       2.32280E-1 9.81193E-3 2.31172E-1
 1.07218E-2 2.37989E-1 2.43392E-2
 1190.00    10.00       0.1       2.34347E-1 9.61771E-3 2.27047E-1
 1.02279E-2 2.90107E-1 2.82690E-2
 1190.00    10.00       0.3       2.41412E-1 9.94840E-3 2.34633E-1
 1.05347E-2 2.97281E-1 3.02434E-2
 1190.00    10.00       0.5       2.33162E-1 1.05296E-2 2.31894E-1
 1.12908E-2 2.41626E-1 2.91722E-2
 1190.00    10.00       0.7       1.72065E-1 1.08792E-2 1.74592E-1
 1.19843E-2 1.60228E-1 2.59383E-2
 1190.00    10.00       0.9       1.29772E-1 1.51603E-2 1.40179E-1
 1.80070E-2 1.04438E-1 2.80948E-2
 1210.00    10.00      -0.9       2.39900E-1 1.96384E-2 2.53627E-1
 2.30141E-2 2.03130E-1 3.76656E-2
 1210.00    10.00      -0.7       2.07307E-1 1.34929E-2 1.99343E-1
 1.50824E-2 2.39227E-1 3.01958E-2
 1210.00    10.00      -0.5       2.10974E-1 1.16286E-2 1.98891E-1
 1.26373E-2 2.77729E-1 2.97040E-2
 1210.00    10.00      -0.3       2.01484E-1 1.02015E-2 1.92062E-1
 1.10398E-2 2.56554E-1 2.66890E-2
 1210.00    10.00      -0.1       2.33321E-1 1.03780E-2 2.24310E-1
 1.11025E-2 2.95691E-1 2.92089E-2
 1210.00    10.00       0.1       2.35659E-1 1.01574E-2 2.29684E-1
 1.08208E-2 2.79954E-1 2.94625E-2
 1210.00    10.00       0.3       2.21247E-1 1.01229E-2 2.17259E-1
 1.07475E-2 2.52598E-1 3.01346E-2
 1210.00    10.00       0.5       2.30993E-1 1.11421E-2 2.23014E-1
 1.17345E-2 3.04090E-1 3.55162E-2
 1210.00    10.00       0.7       1.60173E-1 1.10865E-2 1.56596E-1
 1.18930E-2 1.83897E-1 3.06279E-2
 1210.00    10.00       0.9       1.17466E-1 1.51791E-2 1.53489E-1
 1.95859E-2 6.32889E-2 2.40190E-2
 1230.00    10.00      -0.9       2.71684E-1 2.15054E-2 2.61909E-1
 2.41487E-2 3.09146E-1 4.72741E-2
 1230.00    10.00      -0.7       2.12832E-1 1.41533E-2 2.15044E-1
 1.61279E-2 2.05418E-1 2.95197E-2
 1230.00    10.00      -0.5       1.64660E-1 1.06587E-2 1.63825E-1
 1.18743E-2 1.68124E-1 2.41826E-2
 1230.00    10.00      -0.3       2.02296E-1 1.05668E-2 1.93686E-1
 1.14242E-2 2.53285E-1 2.78005E-2
 1230.00    10.00      -0.1       2.12571E-1 1.02515E-2 2.04875E-1
 1.09608E-2 2.66327E-1 2.89688E-2
 1230.00    10.00       0.1       2.26600E-1 1.03681E-2 2.27295E-1
 1.12023E-2 2.22446E-1 2.73805E-2
 1230.00    10.00       0.3       2.26014E-1 1.05947E-2 2.35714E-1
 1.15662E-2 1.75440E-1 2.64105E-2
 1230.00    10.00       0.5       2.13171E-1 1.11174E-2 2.08237E-1
 1.17687E-2 2.54078E-1 3.38878E-2
 1230.00    10.00       0.7       1.63387E-1 1.16485E-2 1.61777E-1
 1.24853E-2 1.74198E-1 3.23618E-2
 1230.00    10.00       0.9       1.68393E-1 1.89276E-2 1.76358E-1
 2.16729E-2 1.42791E-1 3.88553E-2
 1250.00    10.00      -0.9       2.12821E-1 2.04705E-2 2.09052E-1
 2.32834E-2 2.25654E-1 4.29631E-2
 1250.00    10.00      -0.7       1.82710E-1 1.36820E-2 1.81248E-1
 1.54886E-2 1.87900E-1 2.91915E-2
 1250.00    10.00      -0.5       1.91003E-1 1.18309E-2 1.88778E-1
 1.31950E-2 2.00130E-1 2.67184E-2
 1250.00    10.00      -0.3       1.93037E-1 1.07627E-2 1.88924E-1
 1.17720E-2 2.13984E-1 2.65665E-2
 1250.00    10.00      -0.1       2.01727E-1 1.03397E-2 2.00635E-1
 1.12294E-2 2.07810E-1 2.65043E-2
 1250.00    10.00       0.1       2.14666E-1 1.04868E-2 2.06049E-1
 1.10933E-2 2.87066E-1 3.21553E-2
 1250.00    10.00       0.3       2.11925E-1 1.06626E-2 2.14630E-1
 1.14742E-2 1.94810E-1 2.88633E-2
 1250.00    10.00       0.5       2.14047E-1 1.16356E-2 2.20330E-1
 1.26348E-2 1.78969E-1 2.98539E-2
 1250.00    10.00       0.7       1.62112E-1 1.20288E-2 1.60860E-1
 1.29197E-2 1.70266E-1 3.29639E-2
 1250.00    10.00       0.9       1.19713E-1 1.66266E-2 1.25268E-1
 1.90019E-2 1.01568E-1 3.43438E-2
 1270.00    10.00      -0.9       1.65136E-1 1.73462E-2 1.66136E-1
 1.99910E-2 1.62090E-1 3.48953E-2
 1270.00    10.00      -0.7       1.91735E-1 1.30689E-2 1.90054E-1
 1.48107E-2 1.97649E-1 2.77764E-2
 1270.00    10.00      -0.5       1.51459E-1 9.96401E-3 1.43795E-1
 1.09381E-2 1.88833E-1 2.41540E-2
 1270.00    10.00      -0.3       1.64986E-1 9.35662E-3 1.64048E-1
 1.03562E-2 1.69154E-1 2.18289E-2
 1270.00    10.00      -0.1       1.83614E-1 9.17508E-3 1.74968E-1
 9.78545E-3 2.46506E-1 2.63919E-2
 1270.00    10.00       0.1       1.99232E-1 9.45435E-3 1.92465E-1
 1.00351E-2 2.52668E-1 2.82000E-2
 1270.00    10.00       0.3       2.09123E-1 9.93224E-3 2.05131E-1
 1.05374E-2 2.40910E-1 2.97362E-2
 1270.00    10.00       0.5       2.15785E-1 1.09307E-2 2.14574E-1
 1.16408E-2 2.24810E-1 3.17849E-2
 1270.00    10.00       0.7       1.72479E-1 1.15175E-2 1.75317E-1
 1.25325E-2 1.57059E-1 2.92159E-2
 1270.00    10.00       0.9       1.27178E-1 1.60846E-2 1.36076E-1
 1.85318E-2 1.00001E-1 3.23858E-2
 1290.00    10.00      -0.9       2.02577E-1 2.11912E-2 1.87350E-1
 2.35958E-2 2.66068E-1 4.81826E-2
 1290.00    10.00      -0.7       1.40087E-1 1.28044E-2 1.54944E-1
 1.51970E-2 1.03728E-1 2.37731E-2
 1290.00    10.00      -0.5       1.63064E-1 1.16253E-2 1.54110E-1
 1.27414E-2 2.07562E-1 2.84043E-2
 1290.00    10.00      -0.3       1.54873E-1 1.02471E-2 1.52885E-1
 1.13267E-2 1.63835E-1 2.40489E-2
 1290.00    10.00      -0.1       1.77974E-1 1.02103E-2 1.71643E-1
 1.09600E-2 2.19557E-1 2.80891E-2
 1290.00    10.00       0.1       1.91511E-1 1.04631E-2 1.85501E-1
 1.11093E-2 2.38712E-1 3.11344E-2
 1290.00    10.00       0.3       1.96481E-1 1.08752E-2 1.89806E-1
 1.14698E-2 2.55888E-1 3.42196E-2
 1290.00    10.00       0.5       2.15821E-1 1.22866E-2 2.18176E-1
 1.31594E-2 1.99815E-1 3.43071E-2
 1290.00    10.00       0.7       1.74819E-1 1.31386E-2 1.69777E-1
 1.39832E-2 2.12812E-1 3.83865E-2
 1290.00    10.00       0.9       1.17226E-1 1.72429E-2 1.25395E-1
 1.97308E-2 9.08233E-2 3.54727E-2
 1310.00    10.00      -0.9       1.88695E-1 1.86188E-2 1.86853E-1
 2.13476E-2 1.94550E-1 3.80595E-2
 1310.00    10.00      -0.7       1.31335E-1 1.15181E-2 1.30818E-1
 1.29693E-2 1.33266E-1 2.50597E-2
 1310.00    10.00      -0.5       1.29734E-1 9.64546E-3 1.21155E-1
 1.05291E-2 1.74505E-1 2.40539E-2
 1310.00    10.00      -0.3       1.57390E-1 9.63247E-3 1.49962E-1
 1.04541E-2 1.99152E-1 2.47879E-2
 1310.00    10.00      -0.1       1.55499E-1 8.93315E-3 1.46657E-1
 9.48167E-3 2.25358E-1 2.66508E-2
 1310.00    10.00       0.1       1.85982E-1 9.55391E-3 1.79679E-1
 1.01250E-2 2.37168E-1 2.88542E-2
 1310.00    10.00       0.3       1.94535E-1 1.00381E-2 1.86004E-1
 1.05092E-2 2.83344E-1 3.39067E-2
 1310.00    10.00       0.5       1.76237E-1 1.02970E-2 1.82993E-1
 1.12020E-2 1.39416E-1 2.61509E-2
 1310.00    10.00       0.7       1.44782E-1 1.11416E-2 1.37807E-1
 1.17139E-2 2.10983E-1 3.60885E-2
 1310.00    10.00       0.9       1.19851E-1 1.60872E-2 1.19039E-1
 1.78069E-2 1.23456E-1 3.75211E-2
 1330.00    10.00      -0.9       1.64279E-1 1.85959E-2 1.52597E-1
 2.07734E-2 2.11403E-1 4.17212E-2
 1330.00    10.00      -0.7       1.46981E-1 1.24648E-2 1.35751E-1
 1.36178E-2 2.05003E-1 3.09533E-2
 1330.00    10.00      -0.5       1.27646E-1 1.00974E-2 1.27844E-1
 1.13512E-2 1.26894E-1 2.21020E-2
 1330.00    10.00      -0.3       1.50163E-1 9.73699E-3 1.44036E-1
 1.05910E-2 1.83627E-1 2.47508E-2
 1330.00    10.00      -0.1       1.62597E-1 9.45187E-3 1.61550E-1
 1.02694E-2 1.68395E-1 2.41731E-2
 1330.00    10.00       0.1       1.70970E-1 9.44801E-3 1.66257E-1
 1.00387E-2 2.07517E-1 2.79548E-2
 1330.00    10.00       0.3       1.74328E-1 9.83856E-3 1.72009E-1
 1.04261E-2 1.93186E-1 2.97284E-2
 1330.00    10.00       0.5       1.71072E-1 1.05993E-2 1.71098E-1
 1.13090E-2 1.70880E-1 3.03984E-2
 1330.00    10.00       0.7       1.33540E-1 1.12090E-2 1.27222E-1
 1.17523E-2 1.97171E-1 3.72967E-2
 1330.00    10.00       0.9       9.76340E-2 1.52357E-2 1.11046E-1
 1.81259E-2 6.53467E-2 2.81237E-2
 1350.00    10.00      -0.9       1.66286E-1 1.90998E-2 1.71538E-1
 2.23690E-2 1.52151E-1 3.66938E-2
 1350.00    10.00      -0.7       1.33911E-1 1.19007E-2 1.34419E-1
 1.35346E-2 1.32177E-1 2.49856E-2
 1350.00    10.00      -0.5       1.39294E-1 1.05038E-2 1.41411E-1
 1.18478E-2 1.31517E-1 2.27053E-2
 1350.00    10.00      -0.3       1.55713E-1 9.86016E-3 1.51489E-1
 1.07602E-2 1.77840E-1 2.46275E-2
 1350.00    10.00      -0.1       1.60033E-1 9.44277E-3 1.60605E-1
 1.03172E-2 1.57083E-1 2.34378E-2
 1350.00    10.00       0.1       1.70779E-1 9.41488E-3 1.66404E-1
 9.99337E-3 2.05321E-1 2.80794E-2
 1350.00    10.00       0.3       1.64634E-1 9.51974E-3 1.68599E-1
 1.02792E-2 1.40733E-1 2.52357E-2
 1350.00    10.00       0.5       1.86277E-1 1.11243E-2 1.81052E-1
 1.16543E-2 2.39832E-1 3.73149E-2
 1350.00    10.00       0.7       1.56128E-1 1.21962E-2 1.49042E-1
 1.27671E-2 2.30089E-1 4.12475E-2
 1350.00    10.00       0.9       1.11060E-1 1.63015E-2 1.07774E-1
 1.77110E-2 1.29271E-1 4.16989E-2
 1370.00    10.00      -0.9       1.73637E-1 1.93592E-2 1.58442E-1
 2.15041E-2 2.38605E-1 4.44667E-2
 1370.00    10.00      -0.7       1.14851E-1 1.09552E-2 1.10397E-1
 1.22239E-2 1.33030E-1 2.46945E-2
 1370.00    10.00      -0.5       1.23533E-1 9.64364E-3 1.16213E-1
 1.04575E-2 1.65142E-1 2.49335E-2
 1370.00    10.00      -0.3       1.50538E-1 9.47496E-3 1.50243E-1
 1.04936E-2 1.51839E-1 2.20458E-2
 1370.00    10.00      -0.1       1.49965E-1 8.99439E-3 1.50645E-1
 9.83158E-3 1.46471E-1 2.22743E-2
 1370.00    10.00       0.1       1.72402E-1 9.25817E-3 1.67200E-1
 9.79942E-3 2.15633E-1 2.82484E-2
 1370.00    10.00       0.3       1.72898E-1 9.53470E-3 1.67815E-1
 1.00155E-2 2.22053E-1 3.11460E-2
 1370.00    10.00       0.5       1.66112E-1 1.03393E-2 1.60881E-1
 1.07947E-2 2.24220E-1 3.59757E-2
 1370.00    10.00       0.7       1.45872E-1 1.15791E-2 1.46316E-1
 1.24063E-2 1.42870E-1 3.22511E-2
 1370.00    10.00       0.9       1.31900E-1 1.75530E-2 1.38460E-1
 1.98808E-2 1.08706E-1 3.73835E-2
ENDDATA            844
ENDSUBENT          858
SUBENT        G0040003   20140325   20141007   20140911       G030
BIB                  3          9
REACTION  1(2-HE-3(G,ETA+X)1-H-1,,DA,ETA)
            weighted average of average 2gammas and 6gammas
             events from 3He(g,eta+p)X
          2(2-HE-3(G,ETA+X)1-H-1,,DA,ETA)
            data derived from 2gammas events from 3He(g,eta+p)X
          3(2-HE-3(G,ETA+X)1-H-1,,DA,ETA)
            data derived from 6gammas events from 3He(g,eta+p)X
PART-DET   (G,P)
STATUS     (TABLE) Plotted in Fig.13 of Euro.Phys.J.A49(2013)154
ENDBIB               9
NOCOMMON             0          0
DATA                 9        420
EN         EN-RSL     COS-CM     DATA-CM   1ERR-S     1DATA-CM   2
ERR-S     2DATA-CM   3ERR-S     3
MEV        MEV        NO-DIM     MU-B/SR    MU-B/SR    MU-B/SR
MU-B/SR    MU-B/SR    MU-B/SR
  655.00    25.00      -0.9       2.47698E-1 6.91664E-3 3.65780E-1
 1.14095E-2 1.79088E-1 8.69691E-3
  655.00    25.00      -0.7       1.56329E-1 5.24186E-3 2.27709E-1
 8.41905E-3 1.11141E-1 6.69865E-3
  655.00    25.00      -0.5       1.01737E-1 4.44581E-3 1.42237E-1
 6.81664E-3 7.17576E-2 5.86482E-3
  655.00    25.00      -0.3       6.51045E-2 4.17100E-3 7.48002E-2
 5.72257E-3 5.41160E-2 6.09214E-3
  655.00    25.00      -0.1       3.69408E-2 3.96465E-3 4.01689E-2
 5.18705E-3 3.24052E-2 6.14848E-3
  655.00    25.00       0.1       2.54936E-2 4.40350E-3 3.62056E-2
 6.38461E-3 1.57748E-2 6.08143E-3
  655.00    25.00       0.3       1.49878E-2 4.55158E-3 9.54227E-3
 5.58226E-3 2.57889E-2 7.86182E-3
  655.00    25.00       0.5       2.30335E-3 4.49932E-3 2.01292E-2
 7.05057E-3-9.94313E-3 5.84393E-3
  655.00    25.00       0.7      -7.95365E-4 4.17657E-3-5.04771E-3
 5.28214E-3 6.29794E-3 6.82214E-3
  655.00    25.00       0.9       2.90268E-3 5.43493E-3 7.70339E-3
 8.18963E-3-8.75627E-4 7.26540E-3
  690.00    10.00      -0.9       7.09108E-1 1.47220E-2 8.59283E-1
 2.01363E-2 5.36650E-1 2.15785E-2
  690.00    10.00      -0.7       5.73089E-1 1.16104E-2 6.48570E-1
 1.52610E-2 4.69365E-1 1.78897E-2
  690.00    10.00      -0.5       4.62255E-1 1.01679E-2 5.14682E-1
 1.30586E-2 3.81526E-1 1.62045E-2
  690.00    10.00      -0.3       3.46530E-1 9.13260E-3 3.64370E-1
 1.14538E-2 3.15394E-1 1.51320E-2
  690.00    10.00      -0.1       2.35230E-1 8.04715E-3 2.41621E-1
 9.86390E-3 2.22513E-1 1.39150E-2
  690.00    10.00       0.1       1.53085E-1 7.51027E-3 1.75138E-1
 9.67283E-3 1.19610E-1 1.19172E-2
  690.00    10.00       0.3       1.13960E-1 7.72726E-3 1.23560E-1
 9.79680E-3 9.81546E-2 1.25706E-2
  690.00    10.00       0.5       8.30528E-2 7.96026E-3 1.09148E-1
 1.07426E-2 5.12771E-2 1.18544E-2
  690.00    10.00       0.7       6.63521E-2 8.35614E-3 8.45403E-2
 1.13288E-2 4.46488E-2 1.23752E-2
  690.00    10.00       0.9       5.05530E-2 9.27332E-3 6.51773E-2
 1.26197E-2 3.33874E-2 1.36723E-2
  710.00    10.00      -0.9       1.07383E+0 2.20398E-2 1.09429E+0
 2.68531E-2 1.03161E+0 3.85798E-2
  710.00    10.00      -0.7       9.34952E-1 1.74948E-2 9.89459E-1
 2.16779E-2 8.33142E-1 2.96270E-2
  710.00    10.00      -0.5       8.17352E-1 1.58256E-2 8.34684E-1
 1.90817E-2 7.79161E-1 2.83251E-2
  710.00    10.00      -0.3       6.83796E-1 1.45126E-2 7.14489E-1
 1.78003E-2 6.22946E-1 2.50632E-2
  710.00    10.00      -0.1       5.44764E-1 1.32238E-2 5.62466E-1
 1.59974E-2 5.06571E-1 2.34983E-2
  710.00    10.00       0.1       4.14240E-1 1.23109E-2 4.32125E-1
 1.50923E-2 3.78678E-1 2.12819E-2
  710.00    10.00       0.3       3.29782E-1 1.22536E-2 3.42225E-1
 1.50842E-2 3.05637E-1 2.10119E-2
  710.00    10.00       0.5       2.61933E-1 1.23527E-2 2.74931E-1
 1.54030E-2 2.38505E-1 2.06784E-2
  710.00    10.00       0.7       2.39466E-1 1.35129E-2 2.66105E-1
 1.73711E-2 1.98645E-1 2.15038E-2
  710.00    10.00       0.9       1.97760E-1 1.45906E-2 1.96492E-1
 1.79710E-2 2.00213E-1 2.49924E-2
  730.00    10.00      -0.9       1.31022E+0 1.89289E-2 1.35379E+0
 2.30444E-2 1.21985E+0 3.31886E-2
  730.00    10.00      -0.7       1.18732E+0 1.51663E-2 1.19889E+0
 1.81075E-2 1.16012E+0 2.77605E-2
  730.00    10.00      -0.5       1.08067E+0 1.40932E-2 1.08756E+0
 1.67540E-2 1.06400E+0 2.60620E-2
  730.00    10.00      -0.3       9.67442E-1 1.32485E-2 1.00127E+0
 1.60133E-2 8.94056E-1 2.35865E-2
  730.00    10.00      -0.1       8.51163E-1 1.25535E-2 8.51612E-1
 1.48562E-2 8.50043E-1 2.34747E-2
  730.00    10.00       0.1       6.80025E-1 1.16303E-2 6.98840E-1
 1.39967E-2 6.38059E-1 2.09038E-2
  730.00    10.00       0.3       5.68027E-1 1.14962E-2 5.65607E-1
 1.36547E-2 5.73918E-1 2.13049E-2
  730.00    10.00       0.5       4.86765E-1 1.17879E-2 4.94615E-1
 1.42759E-2 4.69944E-1 2.08976E-2
  730.00    10.00       0.7       4.05210E-1 1.21430E-2 4.37977E-1
 1.52637E-2 3.48719E-1 2.00415E-2
  730.00    10.00       0.9       3.66935E-1 1.39992E-2 4.13934E-1
 1.80337E-2 2.95664E-1 2.22074E-2
  747.50     7.50      -0.9       1.40600E+0 2.09001E-2 1.41820E+0
 2.49891E-2 1.37760E+0 3.81270E-2
  747.50     7.50      -0.7       1.36605E+0 1.72818E-2 1.38633E+0
 2.05917E-2 1.31775E+0 3.17836E-2
  747.50     7.50      -0.5       1.28906E+0 1.65079E-2 1.29344E+0
 1.95484E-2 1.27819E+0 3.08203E-2
  747.50     7.50      -0.3       1.25561E+0 1.63177E-2 1.26334E+0
 1.93117E-2 1.23630E+0 3.05106E-2
  747.50     7.50      -0.1       1.09648E+0 1.54060E-2 1.08541E+0
 1.80319E-2 1.12641E+0 2.96463E-2
  747.50     7.50       0.1       1.00525E+0 1.51194E-2 1.00778E+0
 1.78301E-2 9.98794E-1 2.85244E-2
  747.50     7.50       0.3       8.08288E-1 1.44320E-2 8.13008E-1
 1.71038E-2 7.96620E-1 2.68912E-2
  747.50     7.50       0.5       6.59058E-1 1.43496E-2 6.67181E-1
 1.71837E-2 6.40342E-1 2.60836E-2
  747.50     7.50       0.7       5.69810E-1 1.50121E-2 5.74741E-1
 1.81058E-2 5.58963E-1 2.68527E-2
  747.50     7.50       0.9       5.43179E-1 1.81889E-2 5.70864E-1
 2.24452E-2 4.90220E-1 3.10436E-2
  762.50     7.50      -0.9       1.45474E+0 2.27727E-2 1.45663E+0
 2.70972E-2 1.45020E+0 4.20195E-2
  762.50     7.50      -0.7       1.43795E+0 1.88957E-2 1.45652E+0
 2.24901E-2 1.39337E+0 3.48432E-2
  762.50     7.50      -0.5       1.41521E+0 1.85685E-2 1.42140E+0
 2.19611E-2 1.39969E+0 3.47759E-2
  762.50     7.50      -0.3       1.38856E+0 1.85892E-2 1.37730E+0
 2.17600E-2 1.41898E+0 3.57618E-2
  762.50     7.50      -0.1       1.28806E+0 1.81404E-2 1.31174E+0
 2.14783E-2 1.22911E+0 3.38812E-2
  762.50     7.50       0.1       1.15993E+0 1.75372E-2 1.14764E+0
 2.04556E-2 1.19404E+0 3.40682E-2
  762.50     7.50       0.3       9.91250E-1 1.71187E-2 1.00380E+0
 2.02862E-2 9.60217E-1 3.19044E-2
  762.50     7.50       0.5       8.65704E-1 1.75875E-2 8.64203E-1
 2.07460E-2 8.69539E-1 3.31594E-2
  762.50     7.50       0.7       6.67433E-1 1.76960E-2 7.03743E-1
 2.16315E-2 5.93968E-1 3.07688E-2
  762.50     7.50       0.9       6.63158E-1 2.22426E-2 6.63273E-1
 2.67177E-2 6.62898E-1 4.01478E-2
  777.50     7.50      -0.9       1.47396E+0 2.18028E-2 1.48540E+0
 2.60657E-2 1.44732E+0 3.97839E-2
  777.50     7.50      -0.7       1.43491E+0 1.78659E-2 1.42268E+0
 2.10358E-2 1.46655E+0 3.38435E-2
  777.50     7.50      -0.5       1.52167E+0 1.82176E-2 1.52520E+0
 2.14961E-2 1.51266E+0 3.43193E-2
  777.50     7.50      -0.3       1.48261E+0 1.83124E-2 1.48611E+0
 2.15176E-2 1.47340E+0 3.48742E-2
  777.50     7.50      -0.1       1.47413E+0 1.85250E-2 1.48864E+0
 2.18142E-2 1.43660E+0 3.50820E-2
  777.50     7.50       0.1       1.33603E+0 1.78985E-2 1.34037E+0
 2.09806E-2 1.32443E+0 3.43049E-2
  777.50     7.50       0.3       1.17702E+0 1.75458E-2 1.18534E+0
 2.06656E-2 1.15554E+0 3.32097E-2
  777.50     7.50       0.5       1.00425E+0 1.78421E-2 1.01250E+0
 2.10528E-2 9.83209E-1 3.36131E-2
  777.50     7.50       0.7       8.54467E-1 1.93735E-2 8.68505E-1
 2.31041E-2 8.21217E-1 3.55575E-2
  777.50     7.50       0.9       7.74858E-1 2.37739E-2 8.04508E-1
 2.90428E-2 7.14639E-1 4.13898E-2
  792.50     7.50      -0.9       1.50529E+0 2.06536E-2 1.51083E+0
 2.47177E-2 1.49248E+0 3.75954E-2
  792.50     7.50      -0.7       1.40272E+0 1.63313E-2 1.39268E+0
 1.92640E-2 1.42836E+0 3.07920E-2
  792.50     7.50      -0.5       1.51243E+0 1.68007E-2 1.51374E+0
 1.98133E-2 1.50909E+0 3.16954E-2
  792.50     7.50      -0.3       1.58103E+0 1.75602E-2 1.56710E+0
 2.05097E-2 1.61930E+0 3.39883E-2
  792.50     7.50      -0.1       1.53067E+0 1.75585E-2 1.53556E+0
 2.05939E-2 1.51766E+0 3.36017E-2
  792.50     7.50       0.1       1.45915E+0 1.73545E-2 1.44946E+0
 2.02243E-2 1.48621E+0 3.37976E-2
  792.50     7.50       0.3       1.27194E+0 1.68162E-2 1.25413E+0
 1.95253E-2 1.32308E+0 3.30911E-2
  792.50     7.50       0.5       1.12262E+0 1.73824E-2 1.11961E+0
 2.03681E-2 1.13068E+0 3.33486E-2
  792.50     7.50       0.7       9.50315E-1 1.91392E-2 9.65997E-1
 2.27828E-2 9.12707E-1 3.52811E-2
  792.50     7.50       0.9       8.49776E-1 2.41784E-2 8.81923E-1
 2.94313E-2 7.83041E-1 4.24049E-2
  807.50     7.50      -0.9       1.48328E+0 2.04784E-2 1.51225E+0
 2.47187E-2 1.41989E+0 3.65651E-2
  807.50     7.50      -0.7       1.41684E+0 1.61515E-2 1.41729E+0
 1.91390E-2 1.41572E+0 3.01060E-2
  807.50     7.50      -0.5       1.48679E+0 1.63892E-2 1.49940E+0
 1.94228E-2 1.45560E+0 3.05407E-2
  807.50     7.50      -0.3       1.62233E+0 1.74682E-2 1.61482E+0
 2.04511E-2 1.64257E+0 3.35908E-2
  807.50     7.50      -0.1       1.58739E+0 1.75104E-2 1.61015E+0
 2.06510E-2 1.52916E+0 3.30307E-2
  807.50     7.50       0.1       1.52068E+0 1.73592E-2 1.53395E+0
 2.03652E-2 1.48541E+0 3.31980E-2
  807.50     7.50       0.3       1.36652E+0 1.69705E-2 1.35728E+0
 1.97594E-2 1.39251E+0 3.31313E-2
  807.50     7.50       0.5       1.22076E+0 1.75665E-2 1.21562E+0
 2.05351E-2 1.23476E+0 3.39186E-2
  807.50     7.50       0.7       1.01543E+0 1.93409E-2 1.03301E+0
 2.29836E-2 9.72792E-1 3.58002E-2
  807.50     7.50       0.9       8.96439E-1 2.54848E-2 9.00170E-1
 3.02892E-2 8.87396E-1 4.71553E-2
  822.50     7.50      -0.9       1.41657E+0 2.07852E-2 1.45690E+0
 2.52147E-2 1.33108E+0 3.67158E-2
  822.50     7.50      -0.7       1.37047E+0 1.64550E-2 1.37934E+0
 1.95576E-2 1.34899E+0 3.04453E-2
  822.50     7.50      -0.5       1.48151E+0 1.68623E-2 1.47426E+0
 1.98431E-2 1.50035E+0 3.19886E-2
  822.50     7.50      -0.3       1.58303E+0 1.76962E-2 1.56607E+0
 2.06536E-2 1.62985E+0 3.43192E-2
  822.50     7.50      -0.1       1.62081E+0 1.81222E-2 1.63329E+0
 2.12705E-2 1.58775E+0 3.46129E-2
  822.50     7.50       0.1       1.55315E+0 1.80027E-2 1.54523E+0
 2.09208E-2 1.57574E+0 3.53392E-2
  822.50     7.50       0.3       1.43559E+0 1.77591E-2 1.43541E+0
 2.07390E-2 1.43609E+0 3.43868E-2
  822.50     7.50       0.5       1.20231E+0 1.75941E-2 1.18863E+0
 2.04220E-2 1.24172E+0 3.46538E-2
  822.50     7.50       0.7       1.00571E+0 1.95132E-2 1.00784E+0
 2.29080E-2 1.00007E+0 3.72496E-2
  822.50     7.50       0.9       9.32649E-1 2.77156E-2 1.00578E+0
 3.40447E-2 7.88928E-1 4.77252E-2
  837.50     7.50      -0.9       1.34213E+0 2.10854E-2 1.34767E+0
 2.53018E-2 1.32954E+0 3.81474E-2
  837.50     7.50      -0.7       1.33103E+0 1.70220E-2 1.32119E+0
 2.00942E-2 1.35604E+0 3.20314E-2
  837.50     7.50      -0.5       1.41354E+0 1.71706E-2 1.39909E+0
 2.01306E-2 1.45213E+0 3.28952E-2
  837.50     7.50      -0.3       1.56177E+0 1.82152E-2 1.54744E+0
 2.12766E-2 1.60111E+0 3.52467E-2
  837.50     7.50      -0.1       1.57197E+0 1.84568E-2 1.56312E+0
 2.15007E-2 1.59675E+0 3.59826E-2
  837.50     7.50       0.1       1.51332E+0 1.82969E-2 1.50530E+0
 2.12459E-2 1.53633E+0 3.59979E-2
  837.50     7.50       0.3       1.40447E+0 1.80590E-2 1.38668E+0
 2.08920E-2 1.45704E+0 3.59159E-2
  837.50     7.50       0.5       1.21881E+0 1.80950E-2 1.21688E+0
 2.10361E-2 1.22433E+0 3.54821E-2
  837.50     7.50       0.7       1.01797E+0 2.00107E-2 1.03537E+0
 2.36103E-2 9.73608E-1 3.77040E-2
  837.50     7.50       0.9       9.30815E-1 2.92871E-2 9.10770E-1
 3.41129E-2 9.87010E-1 5.71174E-2
  852.50     7.50      -0.9       1.35677E+0 2.10806E-2 1.34691E+0
 2.50513E-2 1.38070E+0 3.90191E-2
  852.50     7.50      -0.7       1.30837E+0 1.68338E-2 1.28661E+0
 1.97638E-2 1.36589E+0 3.21287E-2
  852.50     7.50      -0.5       1.40901E+0 1.71290E-2 1.40277E+0
 2.01157E-2 1.42546E+0 3.26695E-2
  852.50     7.50      -0.3       1.46288E+0 1.75012E-2 1.45631E+0
 2.04613E-2 1.48077E+0 3.37810E-2
  852.50     7.50      -0.1       1.52842E+0 1.79636E-2 1.53056E+0
 2.09898E-2 1.52259E+0 3.47280E-2
  852.50     7.50       0.1       1.50386E+0 1.79235E-2 1.49891E+0
 2.08374E-2 1.51793E+0 3.51422E-2
  852.50     7.50       0.3       1.38716E+0 1.76624E-2 1.37871E+0
 2.04235E-2 1.41223E+0 3.51768E-2
  852.50     7.50       0.5       1.19180E+0 1.75016E-2 1.18927E+0
 2.03110E-2 1.19909E+0 3.44891E-2
  852.50     7.50       0.7       1.02850E+0 1.95575E-2 1.04909E+0
 2.30738E-2 9.75958E-1 3.68576E-2
  852.50     7.50       0.9       9.29579E-1 2.92526E-2 9.21710E-1
 3.42413E-2 9.50840E-1 5.62799E-2
  867.50     7.50      -0.9       1.22208E+0 1.89021E-2 1.23932E+0
 2.27085E-2 1.18318E+0 3.41070E-2
  867.50     7.50      -0.7       1.22018E+0 1.53601E-2 1.19461E+0
 1.79596E-2 1.28985E+0 2.96407E-2
  867.50     7.50      -0.5       1.31040E+0 1.56214E-2 1.29303E+0
 1.82360E-2 1.35828E+0 3.02776E-2
  867.50     7.50      -0.3       1.42469E+0 1.63114E-2 1.40701E+0
 1.89802E-2 1.47464E+0 3.19005E-2
  867.50     7.50      -0.1       1.48897E+0 1.66135E-2 1.48551E+0
 1.93686E-2 1.49863E+0 3.23182E-2
  867.50     7.50       0.1       1.42762E+0 1.63251E-2 1.42964E+0
 1.89976E-2 1.42190E+0 3.19207E-2
  867.50     7.50       0.3       1.30983E+0 1.60045E-2 1.31466E+0
 1.85618E-2 1.29580E+0 3.15974E-2
  867.50     7.50       0.5       1.16244E+0 1.60712E-2 1.15850E+0
 1.86102E-2 1.17402E+0 3.18727E-2
  867.50     7.50       0.7       9.66508E-1 1.74986E-2 9.53076E-1
 2.02369E-2 1.00631E+0 3.48362E-2
  867.50     7.50       0.9       9.23542E-1 2.75910E-2 9.35296E-1
 3.25673E-2 8.93652E-1 5.19338E-2
  882.50     7.50      -0.9       1.18735E+0 1.79761E-2 1.16413E+0
 2.12560E-2 1.24568E+0 3.36845E-2
  882.50     7.50      -0.7       1.16430E+0 1.45057E-2 1.14055E+0
 1.69588E-2 1.22904E+0 2.80002E-2
  882.50     7.50      -0.5       1.28001E+0 1.49287E-2 1.26460E+0
 1.74208E-2 1.32259E+0 2.89651E-2
  882.50     7.50      -0.3       1.32328E+0 1.51207E-2 1.28869E+0
 1.74423E-2 1.42790E+0 3.03334E-2
  882.50     7.50      -0.1       1.35837E+0 1.51860E-2 1.34843E+0
 1.76129E-2 1.38715E+0 2.99792E-2
  882.50     7.50       0.1       1.29699E+0 1.48566E-2 1.28783E+0
 1.71659E-2 1.32431E+0 2.96566E-2
  882.50     7.50       0.3       1.25715E+0 1.49545E-2 1.26739E+0
 1.73760E-2 1.22792E+0 2.93681E-2
  882.50     7.50       0.5       1.11474E+0 1.49606E-2 1.12913E+0
 1.74341E-2 1.07455E+0 2.91377E-2
  882.50     7.50       0.7       9.40016E-1 1.62997E-2 9.29193E-1
 1.88260E-2 9.72422E-1 3.25751E-2
  882.50     7.50       0.9       8.68926E-1 2.55452E-2 8.94134E-1
 3.02634E-2 8.06455E-1 4.76415E-2
  897.50     7.50      -0.9       1.10397E+0 1.89423E-2 1.10110E+0
 2.26089E-2 1.11072E+0 3.46969E-2
  897.50     7.50      -0.7       1.09265E+0 1.54337E-2 1.06988E+0
 1.80534E-2 1.15446E+0 2.97482E-2
  897.50     7.50      -0.5       1.17688E+0 1.56998E-2 1.14716E+0
 1.81749E-2 1.26426E+0 3.11624E-2
  897.50     7.50      -0.3       1.26079E+0 1.61852E-2 1.25941E+0
 1.89059E-2 1.26457E+0 3.13166E-2
  897.50     7.50      -0.1       1.26937E+0 1.60293E-2 1.25681E+0
 1.85032E-2 1.30715E+0 3.20887E-2
  897.50     7.50       0.1       1.24545E+0 1.58803E-2 1.24459E+0
 1.83902E-2 1.24799E+0 3.14892E-2
  897.50     7.50       0.3       1.18794E+0 1.58058E-2 1.21994E+0
 1.85109E-2 1.10182E+0 3.03668E-2
  897.50     7.50       0.5       1.03987E+0 1.56708E-2 1.04048E+0
 1.81044E-2 1.03804E+0 3.12934E-2
  897.50     7.50       0.7       8.62315E-1 1.67360E-2 8.56889E-1
 1.93451E-2 8.78459E-1 3.33685E-2
  897.50     7.50       0.9       8.15001E-1 2.66710E-2 8.20705E-1
 3.11304E-2 7.99260E-1 5.17150E-2
  912.50     7.50      -0.9       9.59026E-1 1.78125E-2 9.40488E-1
 2.10987E-2 1.00502E+0 3.32348E-2
  912.50     7.50      -0.7       1.01807E+0 1.50203E-2 1.00130E+0
 1.76047E-2 1.06295E+0 2.87972E-2
  912.50     7.50      -0.5       1.12313E+0 1.55486E-2 1.10416E+0
 1.80774E-2 1.17705E+0 3.04812E-2
  912.50     7.50      -0.3       1.20153E+0 1.59434E-2 1.20767E+0
 1.86682E-2 1.18499E+0 3.06482E-2
  912.50     7.50      -0.1       1.19970E+0 1.56789E-2 1.17664E+0
 1.80003E-2 1.27223E+0 3.19180E-2
  912.50     7.50       0.1       1.15057E+0 1.53342E-2 1.14319E+0
 1.76907E-2 1.17289E+0 3.07505E-2
  912.50     7.50       0.3       1.09033E+0 1.51941E-2 1.06782E+0
 1.73440E-2 1.16462E+0 3.15082E-2
  912.50     7.50       0.5       9.69640E-1 1.52033E-2 9.61118E-1
 1.74470E-2 9.96529E-1 3.09904E-2
  912.50     7.50       0.7       8.10432E-1 1.61490E-2 8.07057E-1
 1.86653E-2 8.20479E-1 3.22054E-2
  912.50     7.50       0.9       7.31970E-1 2.51770E-2 7.33713E-1
 2.93118E-2 7.27065E-1 4.91658E-2
  927.50     7.50      -0.9       9.19925E-1 1.68583E-2 9.30764E-1
 2.02568E-2 8.95504E-1 3.04065E-2
  927.50     7.50      -0.7       9.33052E-1 1.38317E-2 9.20594E-1
 1.62029E-2 9.66520E-1 2.65564E-2
  927.50     7.50      -0.5       1.01389E+0 1.42545E-2 9.82618E-1
 1.64568E-2 1.10783E+0 2.85238E-2
  927.50     7.50      -0.3       1.08869E+0 1.45817E-2 1.06973E+0
 1.68504E-2 1.14523E+0 2.90967E-2
  927.50     7.50      -0.1       1.08514E+0 1.43061E-2 1.06804E+0
 1.64553E-2 1.13808E+0 2.89531E-2
  927.50     7.50       0.1       1.03854E+0 1.39680E-2 1.02934E+0
 1.60947E-2 1.06659E+0 2.81156E-2
  927.50     7.50       0.3       9.81774E-1 1.38421E-2 9.81150E-1
 1.59425E-2 9.83687E-1 2.79008E-2
  927.50     7.50       0.5       9.00321E-1 1.40236E-2 9.04026E-1
 1.61848E-2 8.89161E-1 2.80902E-2
  927.50     7.50       0.7       7.67469E-1 1.49872E-2 7.82465E-1
 1.75310E-2 7.26747E-1 2.88887E-2
  927.50     7.50       0.9       6.30516E-1 2.22244E-2 6.31959E-1
 2.58889E-2 6.26474E-1 4.33313E-2
  942.50     7.50      -0.9       7.83838E-1 1.58407E-2 7.90700E-1
 1.90123E-2 7.68260E-1 2.86448E-2
  942.50     7.50      -0.7       8.49463E-1 1.34219E-2 8.21065E-1
 1.55715E-2 9.31550E-1 2.64740E-2
  942.50     7.50      -0.5       9.11280E-1 1.37001E-2 9.01666E-1
 1.59874E-2 9.37853E-1 2.65796E-2
  942.50     7.50      -0.3       1.01057E+0 1.42321E-2 1.00314E+0
 1.65504E-2 1.03164E+0 2.78830E-2
  942.50     7.50      -0.1       9.92858E-1 1.38584E-2 9.83929E-1
 1.59939E-2 1.01976E+0 2.77602E-2
  942.50     7.50       0.1       9.67770E-1 1.35905E-2 9.49914E-1
 1.55789E-2 1.02463E+0 2.78010E-2
  942.50     7.50       0.3       9.04471E-1 1.34267E-2 9.12992E-1
 1.55323E-2 8.79277E-1 2.67070E-2
  942.50     7.50       0.5       8.21178E-1 1.34608E-2 8.09468E-1
 1.53465E-2 8.60236E-1 2.80286E-2
  942.50     7.50       0.7       6.74308E-1 1.40727E-2 6.62285E-1
 1.61012E-2 7.13213E-1 2.89626E-2
  942.50     7.50       0.9       5.90491E-1 2.15201E-2 5.92148E-1
 2.49462E-2 5.85670E-1 4.25479E-2
  957.50     7.50      -0.9       7.55079E-1 1.70916E-2 7.50920E-1
 2.03666E-2 7.64982E-1 3.14284E-2
  957.50     7.50      -0.7       7.76577E-1 1.40290E-2 7.53125E-1
 1.63579E-2 8.41802E-1 2.72797E-2
  957.50     7.50      -0.5       8.50345E-1 1.44649E-2 8.40966E-1
 1.68688E-2 8.76397E-1 2.81144E-2
  957.50     7.50      -0.3       8.99973E-1 1.46279E-2 8.73538E-1
 1.68219E-2 9.81948E-1 2.96228E-2
  957.50     7.50      -0.1       9.15336E-1 1.45016E-2 9.00068E-1
 1.66877E-2 9.62427E-1 2.93074E-2
  957.50     7.50       0.1       8.75641E-1 1.40619E-2 8.73025E-1
 1.62431E-2 8.83467E-1 2.80934E-2
  957.50     7.50       0.3       8.28340E-1 1.39993E-2 8.26899E-1
 1.60940E-2 8.32818E-1 2.83776E-2
  957.50     7.50       0.5       7.63782E-1 1.41200E-2 7.62694E-1
 1.61805E-2 7.67256E-1 2.89150E-2
  957.50     7.50       0.7       6.28995E-1 1.47425E-2 6.29893E-1
 1.70087E-2 6.26283E-1 2.95602E-2
  957.50     7.50       0.9       5.32992E-1 2.19919E-2 5.28909E-1
 2.53210E-2 5.45532E-1 4.43700E-2
  972.50     7.50      -0.9       6.43182E-1 1.46057E-2 6.35749E-1
 1.73648E-2 6.61159E-1 2.70043E-2
  972.50     7.50      -0.7       7.05118E-1 1.23114E-2 6.87077E-1
 1.43682E-2 7.54948E-1 2.38792E-2
  972.50     7.50      -0.5       7.89924E-1 1.28418E-2 7.74652E-1
 1.49057E-2 8.33902E-1 2.52943E-2
  972.50     7.50      -0.3       8.40634E-1 1.30005E-2 8.20755E-1
 1.49776E-2 9.01373E-1 2.61806E-2
  972.50     7.50      -0.1       8.44117E-1 1.27239E-2 8.34198E-1
 1.46809E-2 8.74060E-1 2.55069E-2
  972.50     7.50       0.1       8.05756E-1 1.23914E-2 7.84347E-1
 1.41025E-2 8.78266E-1 2.59540E-2
  972.50     7.50       0.3       7.47039E-1 1.21854E-2 7.48840E-1
 1.40483E-2 7.41567E-1 2.44872E-2
  972.50     7.50       0.5       6.94967E-1 1.23351E-2 6.89972E-1
 1.40997E-2 7.11260E-1 2.54645E-2
  972.50     7.50       0.7       5.60839E-1 1.27690E-2 5.71213E-1
 1.48416E-2 5.31283E-1 2.50518E-2
  972.50     7.50       0.9       4.90587E-1 1.92370E-2 4.94101E-1
 2.24338E-2 4.80824E-1 3.73907E-2
  987.50     7.50      -0.9       5.62492E-1 1.40054E-2 5.54406E-1
 1.66292E-2 5.82225E-1 2.59772E-2
  987.50     7.50      -0.7       6.38464E-1 1.20489E-2 6.27053E-1
 1.41158E-2 6.69097E-1 2.31278E-2
  987.50     7.50      -0.5       7.00743E-1 1.23500E-2 6.90449E-1
 1.43832E-2 7.29630E-1 2.40939E-2
  987.50     7.50      -0.3       7.42045E-1 1.24501E-2 7.17131E-1
 1.42532E-2 8.22250E-1 2.55735E-2
  987.50     7.50      -0.1       7.52752E-1 1.22188E-2 7.42497E-1
 1.40561E-2 7.84467E-1 2.47190E-2
  987.50     7.50       0.1       7.39543E-1 1.20534E-2 7.35092E-1
 1.38509E-2 7.53429E-1 2.44663E-2
  987.50     7.50       0.3       6.95699E-1 1.19538E-2 6.96833E-1
 1.37739E-2 6.92238E-1 2.40606E-2
  987.50     7.50       0.5       6.35256E-1 1.20111E-2 6.41818E-1
 1.38674E-2 6.15548E-1 2.40321E-2
  987.50     7.50       0.7       4.82875E-1 1.20638E-2 4.73739E-1
 1.37293E-2 5.13828E-1 2.52705E-2
  987.50     7.50       0.9       3.87803E-1 1.74125E-2 3.91730E-1
 2.02714E-2 3.76749E-1 3.40072E-2
 1002.50     7.50      -0.9       5.48844E-1 1.43134E-2 5.45613E-1
 1.70634E-2 5.56516E-1 2.62929E-2
 1002.50     7.50      -0.7       5.74505E-1 1.18354E-2 5.66402E-1
 1.39060E-2 5.95799E-1 2.25433E-2
 1002.50     7.50      -0.5       6.40818E-1 1.22006E-2 6.23588E-1
 1.41430E-2 6.90941E-1 2.41222E-2
 1002.50     7.50      -0.3       7.08100E-1 1.25239E-2 6.86004E-1
 1.43831E-2 7.77382E-1 2.54681E-2
 1002.50     7.50      -0.1       6.94352E-1 1.20460E-2 6.62149E-1
 1.35953E-2 8.11980E-1 2.59831E-2
 1002.50     7.50       0.1       6.81619E-1 1.18766E-2 6.71211E-1
 1.35441E-2 7.16253E-1 2.47071E-2
 1002.50     7.50       0.3       6.77306E-1 1.20870E-2 6.75833E-1
 1.38578E-2 6.81988E-1 2.47116E-2
 1002.50     7.50       0.5       5.82570E-1 1.17957E-2 5.65311E-1
 1.33072E-2 6.45860E-1 2.54824E-2
 1002.50     7.50       0.7       4.84110E-1 1.23722E-2 4.84696E-1
 1.42224E-2 4.82287E-1 2.50845E-2
 1002.50     7.50       0.9       3.86768E-1 1.79315E-2 3.99047E-1
 2.10878E-2 3.54711E-1 3.40733E-2
 1017.50     7.50      -0.9       4.88542E-1 1.37645E-2 4.84914E-1
 1.64109E-2 4.97149E-1 2.52781E-2
 1017.50     7.50      -0.7       5.13399E-1 1.14204E-2 4.92630E-1
 1.32292E-2 5.74151E-1 2.26261E-2
 1017.50     7.50      -0.5       6.01293E-1 1.19706E-2 5.77234E-1
 1.38040E-2 6.74247E-1 2.40376E-2
 1017.50     7.50      -0.3       6.26977E-1 1.18844E-2 6.19029E-1
 1.37805E-2 6.50046E-1 2.34772E-2
 1017.50     7.50      -0.1       6.37416E-1 1.16210E-2 6.24527E-1
 1.32925E-2 6.79215E-1 2.39377E-2
 1017.50     7.50       0.1       6.31332E-1 1.14655E-2 6.25658E-1
 1.31127E-2 6.49755E-1 2.36286E-2
 1017.50     7.50       0.3       6.06638E-1 1.14783E-2 6.07241E-1
 1.31522E-2 6.04710E-1 2.35107E-2
 1017.50     7.50       0.5       5.32293E-1 1.13074E-2 5.17751E-1
 1.27366E-2 5.86402E-1 2.45675E-2
 1017.50     7.50       0.7       4.24670E-1 1.15932E-2 4.24864E-1
 1.32971E-2 4.24055E-1 2.36710E-2
 1017.50     7.50       0.9       3.12678E-1 1.61136E-2 3.21678E-1
 1.89118E-2 2.88835E-1 3.07815E-2
 1032.50     7.50      -0.9       4.46677E-1 1.34659E-2 4.42295E-1
 1.60141E-2 4.57255E-1 2.48804E-2
 1032.50     7.50      -0.7       4.79633E-1 1.13410E-2 4.68898E-1
 1.32765E-2 5.08610E-1 2.18126E-2
 1032.50     7.50      -0.5       5.22345E-1 1.14058E-2 5.07900E-1
 1.32131E-2 5.64581E-1 2.25933E-2
 1032.50     7.50      -0.3       5.67966E-1 1.15062E-2 5.68889E-1
 1.34307E-2 5.65420E-1 2.23077E-2
 1032.50     7.50      -0.1       5.80520E-1 1.12686E-2 5.85591E-1
 1.30836E-2 5.65954E-1 2.21761E-2
 1032.50     7.50       0.1       6.05435E-1 1.13630E-2 5.97455E-1
 1.29547E-2 6.32054E-1 2.36607E-2
 1032.50     7.50       0.3       5.74252E-1 1.13397E-2 5.72666E-1
 1.29396E-2 5.79501E-1 2.35423E-2
 1032.50     7.50       0.5       5.17340E-1 1.13584E-2 5.12388E-1
 1.28860E-2 5.34590E-1 2.40512E-2
 1032.50     7.50       0.7       4.16251E-1 1.16665E-2 4.14385E-1
 1.33276E-2 4.22366E-1 2.41314E-2
 1032.50     7.50       0.9       2.95217E-1 1.58115E-2 2.85906E-1
 1.79008E-2 3.28266E-1 3.37252E-2
 1047.50     7.50      -0.9       4.12677E-1 1.37115E-2 3.97497E-1
 1.60843E-2 4.53045E-1 2.62288E-2
 1047.50     7.50      -0.7       4.39762E-1 1.14498E-2 4.23825E-1
 1.32859E-2 4.85763E-1 2.25720E-2
 1047.50     7.50      -0.5       4.92461E-1 1.17259E-2 4.70632E-1
 1.34642E-2 5.61002E-1 2.38586E-2
 1047.50     7.50      -0.3       5.35938E-1 1.16878E-2 5.23537E-1
 1.34447E-2 5.74304E-1 2.36477E-2
 1047.50     7.50      -0.1       5.60387E-1 1.15530E-2 5.47303E-1
 1.32166E-2 6.02764E-1 2.37860E-2
 1047.50     7.50       0.1       5.65803E-1 1.14672E-2 5.61663E-1
 1.31016E-2 5.79361E-1 2.37091E-2
 1047.50     7.50       0.3       5.46857E-1 1.15206E-2 5.63518E-1
 1.33585E-2 4.98494E-1 2.27591E-2
 1047.50     7.50       0.5       4.76110E-1 1.13590E-2 4.68654E-1
 1.28389E-2 5.02974E-1 2.43701E-2
 1047.50     7.50       0.7       3.83963E-1 1.16259E-2 3.85490E-1
 1.33040E-2 3.79030E-1 2.39133E-2
 1047.50     7.50       0.9       3.22059E-1 1.73453E-2 3.12011E-1
 1.96604E-2 3.57343E-1 3.68426E-2
 1062.50     7.50      -0.9       3.59916E-1 1.28772E-2 3.38718E-1
 1.49721E-2 4.20166E-1 2.52414E-2
 1062.50     7.50      -0.7       3.99563E-1 1.08893E-2 3.86568E-1
 1.26446E-2 4.36865E-1 2.14232E-2
 1062.50     7.50      -0.5       4.46731E-1 1.10761E-2 4.34900E-1
 1.28071E-2 4.81838E-1 2.20617E-2
 1062.50     7.50      -0.3       5.15731E-1 1.12911E-2 5.13400E-1
 1.30882E-2 5.22516E-1 2.23262E-2
 1062.50     7.50      -0.1       5.22819E-1 1.09617E-2 5.09110E-1
 1.24978E-2 5.68529E-1 2.28212E-2
 1062.50     7.50       0.1       5.15007E-1 1.07600E-2 5.11383E-1
 1.22754E-2 5.27027E-1 2.23554E-2
 1062.50     7.50       0.3       5.04846E-1 1.08381E-2 5.01183E-1
 1.23209E-2 5.17375E-1 2.27873E-2
 1062.50     7.50       0.5       4.70926E-1 1.10576E-2 4.55893E-1
 1.23732E-2 5.30554E-1 2.46429E-2
 1062.50     7.50       0.7       3.77146E-1 1.13334E-2 3.80629E-1
 1.29983E-2 3.66104E-1 2.31453E-2
 1062.50     7.50       0.9       2.72085E-1 1.57531E-2 2.70656E-1
 1.80521E-2 2.76648E-1 3.22572E-2
 1077.50     7.50      -0.9       3.55139E-1 1.29692E-2 3.55111E-1
 1.54653E-2 3.55204E-1 2.38079E-2
 1077.50     7.50      -0.7       3.63074E-1 1.04870E-2 3.50848E-1
 1.21727E-2 3.98272E-1 2.06542E-2
 1077.50     7.50      -0.5       4.08824E-1 1.06167E-2 3.89512E-1
 1.21156E-2 4.72710E-1 2.20361E-2
 1077.50     7.50      -0.3       4.59812E-1 1.06571E-2 4.55236E-1
 1.22994E-2 4.73596E-1 2.13469E-2
 1077.50     7.50      -0.1       4.98551E-1 1.06584E-2 4.77074E-1
 1.20110E-2 5.78116E-1 2.31186E-2
 1077.50     7.50       0.1       5.02093E-1 1.05325E-2 4.93889E-1
 1.19426E-2 5.30808E-1 2.23441E-2
 1077.50     7.50       0.3       5.09739E-1 1.07751E-2 5.02204E-1
 1.21729E-2 5.37012E-1 2.31589E-2
 1077.50     7.50       0.5       4.58991E-1 1.07939E-2 4.51189E-1
 1.21443E-2 4.88336E-1 2.35530E-2
 1077.50     7.50       0.7       3.68311E-1 1.11335E-2 3.74975E-1
 1.28185E-2 3.47845E-1 2.24649E-2
 1077.50     7.50       0.9       2.31374E-1 1.46269E-2 2.37486E-1
 1.69349E-2 2.13424E-1 2.90225E-2
 1092.50     7.50      -0.9       3.26817E-1 1.36569E-2 3.17005E-1
 1.60269E-2 3.52828E-1 2.60954E-2
 1092.50     7.50      -0.7       3.44722E-1 1.10862E-2 3.27298E-1
 1.27334E-2 3.99302E-1 2.25367E-2
 1092.50     7.50      -0.5       4.02029E-1 1.12930E-2 4.05662E-1
 1.32011E-2 3.92114E-1 2.18065E-2
 1092.50     7.50      -0.3       4.37479E-1 1.10941E-2 4.26008E-1
 1.26793E-2 4.74944E-1 2.29141E-2
 1092.50     7.50      -0.1       4.83703E-1 1.11518E-2 4.66802E-1
 1.26087E-2 5.44426E-1 2.38990E-2
 1092.50     7.50       0.1       4.61529E-1 1.06516E-2 4.50110E-1
 1.20100E-2 5.03613E-1 2.30566E-2
 1092.50     7.50       0.3       4.97953E-1 1.12503E-2 4.83503E-1
 1.26067E-2 5.54467E-1 2.49317E-2
 1092.50     7.50       0.5       4.29990E-1 1.10314E-2 4.28169E-1
 1.24732E-2 4.36533E-1 2.36369E-2
 1092.50     7.50       0.7       3.31465E-1 1.11518E-2 3.23502E-1
 1.25542E-2 3.61251E-1 2.42819E-2
 1092.50     7.50       0.9       2.00070E-1 1.46183E-2 2.16151E-1
 1.73729E-2 1.61073E-1 2.70535E-2
 1110.00    10.00      -0.9       2.98724E-1 1.28921E-2 2.91494E-1
 1.51626E-2 3.17589E-1 2.44929E-2
 1110.00    10.00      -0.7       3.02928E-1 1.01549E-2 2.87277E-1
 1.16449E-2 3.52619E-1 2.07489E-2
 1110.00    10.00      -0.5       3.84382E-1 1.05458E-2 3.68328E-1
 1.20333E-2 4.37541E-1 2.18972E-2
 1110.00    10.00      -0.3       4.15407E-1 1.02336E-2 3.96961E-1
 1.15840E-2 4.80975E-1 2.18401E-2
 1110.00    10.00      -0.1       4.51274E-1 1.01277E-2 4.45853E-1
 1.15797E-2 4.68917E-1 2.08899E-2
 1110.00    10.00       0.1       4.78325E-1 1.01782E-2 4.62959E-1
 1.14101E-2 5.38181E-1 2.25195E-2
 1110.00    10.00       0.3       4.69215E-1 1.02362E-2 4.56414E-1
 1.14622E-2 5.19638E-1 2.27489E-2
 1110.00    10.00       0.5       4.39392E-1 1.04499E-2 4.35354E-1
 1.17649E-2 4.54487E-1 2.27473E-2
 1110.00    10.00       0.7       3.40938E-1 1.05646E-2 3.31717E-1
 1.18446E-2 3.76821E-1 2.33646E-2
 1110.00    10.00       0.9       2.05734E-1 1.38982E-2 2.30806E-1
 1.67678E-2 1.50702E-1 2.48425E-2
 1130.00    10.00      -0.9       2.81296E-1 1.07255E-2 2.65492E-1
 1.24071E-2 3.28034E-1 2.13363E-2
 1130.00    10.00      -0.7       2.96429E-1 8.75646E-3 2.79388E-1
 1.00318E-2 3.50962E-1 1.79456E-2
 1130.00    10.00      -0.5       3.37086E-1 8.83657E-3 3.16671E-1
 9.98263E-3 4.10998E-1 1.89943E-2
 1130.00    10.00      -0.3       4.07334E-1 9.02746E-3 3.94125E-1
 1.02802E-2 4.51837E-1 1.88698E-2
 1130.00    10.00      -0.1       4.31246E-1 8.83873E-3 4.13031E-1
 9.92913E-3 5.00781E-1 1.93999E-2
 1130.00    10.00       0.1       4.60499E-1 8.95604E-3 4.47978E-1
 1.00485E-2 5.08875E-1 1.97511E-2
 1130.00    10.00       0.3       4.55381E-1 9.04930E-3 4.49120E-1
 1.01656E-2 4.79287E-1 1.98629E-2
 1130.00    10.00       0.5       4.45270E-1 9.45619E-3 4.30677E-1
 1.04928E-2 5.08371E-1 2.18194E-2
 1130.00    10.00       0.7       3.59623E-1 9.71280E-3 3.56314E-1
 1.09571E-2 3.71761E-1 2.09848E-2
 1130.00    10.00       0.9       2.59611E-1 1.39690E-2 2.57032E-1
 1.57624E-2 2.69048E-1 3.01538E-2
 1150.00    10.00      -0.9       2.38101E-1 1.04867E-2 2.28526E-1
 1.21998E-2 2.65195E-1 2.05220E-2
 1150.00    10.00      -0.7       2.67976E-1 8.87584E-3 2.45534E-1
 1.00537E-2 3.47273E-1 1.88983E-2
 1150.00    10.00      -0.5       3.33287E-1 9.33303E-3 3.24590E-1
 1.07118E-2 3.60696E-1 1.90166E-2
 1150.00    10.00      -0.3       3.70845E-1 9.06764E-3 3.59070E-1
 1.03011E-2 4.11367E-1 1.91102E-2
 1150.00    10.00      -0.1       4.18637E-1 9.11518E-3 4.05016E-1
 1.02681E-2 4.69281E-1 1.97991E-2
 1150.00    10.00       0.1       4.55912E-1 9.30907E-3 4.39914E-1
 1.03916E-2 5.20917E-1 2.09473E-2
 1150.00    10.00       0.3       4.72672E-1 9.65105E-3 4.57855E-1
 1.07060E-2 5.36933E-1 2.22958E-2
 1150.00    10.00       0.5       4.44399E-1 9.88354E-3 4.32747E-1
 1.09676E-2 4.94754E-1 2.28003E-2
 1150.00    10.00       0.7       3.60442E-1 1.01887E-2 3.57622E-1
 1.14774E-2 3.70929E-1 2.21308E-2
 1150.00    10.00       0.9       2.50278E-1 1.43512E-2 2.49909E-1
 1.62818E-2 2.51563E-1 3.03846E-2
 1170.00    10.00      -0.9       1.95478E-1 9.27371E-3 1.86590E-1
 1.07975E-2 2.20469E-1 1.81059E-2
 1170.00    10.00      -0.7       2.44232E-1 8.28717E-3 2.31747E-1
 9.52130E-3 2.83244E-1 1.68310E-2
 1170.00    10.00      -0.5       2.95263E-1 8.59822E-3 2.82170E-1
 9.80006E-3 3.39038E-1 1.79195E-2
 1170.00    10.00      -0.3       3.75330E-1 8.91533E-3 3.71609E-1
 1.02353E-2 3.87029E-1 1.81496E-2
 1170.00    10.00      -0.1       4.04795E-1 8.69965E-3 3.97394E-1
 9.85383E-3 4.30950E-1 1.85250E-2
 1170.00    10.00       0.1       4.58730E-1 9.09091E-3 4.53496E-1
 1.02603E-2 4.77846E-1 1.96080E-2
 1170.00    10.00       0.3       4.49775E-1 9.13728E-3 4.33219E-1
 1.00891E-2 5.25307E-1 2.15496E-2
 1170.00    10.00       0.5       4.34514E-1 9.50301E-3 4.29468E-1
 1.05928E-2 4.55321E-1 2.15106E-2
 1170.00    10.00       0.7       3.73671E-1 1.00920E-2 3.70486E-1
 1.13244E-2 3.85963E-1 2.22460E-2
 1170.00    10.00       0.9       2.24592E-1 1.31708E-2 2.13255E-1
 1.45467E-2 2.76157E-1 3.10249E-2
 1190.00    10.00      -0.9       2.02092E-1 9.48292E-3 1.77410E-1
 1.06886E-2 2.93354E-1 2.05531E-2
 1190.00    10.00      -0.7       2.35840E-1 8.26816E-3 2.23001E-1
 9.47873E-3 2.76693E-1 1.69084E-2
 1190.00    10.00      -0.5       2.94560E-1 8.82803E-3 2.79050E-1
 1.00365E-2 3.47578E-1 1.85566E-2
 1190.00    10.00      -0.3       3.45728E-1 8.77407E-3 3.39396E-1
 1.00255E-2 3.66447E-1 1.81355E-2
 1190.00    10.00      -0.1       3.90480E-1 8.74554E-3 3.90586E-1
 9.97736E-3 3.90131E-1 1.81694E-2
 1190.00    10.00       0.1       4.28731E-1 9.02009E-3 4.31126E-1
 1.02378E-2 4.20419E-1 1.90693E-2
 1190.00    10.00       0.3       4.42016E-1 9.27044E-3 4.31444E-1
 1.02831E-2 4.87899E-1 2.14229E-2
 1190.00    10.00       0.5       4.33548E-1 9.73703E-3 4.33851E-1
 1.09063E-2 4.32358E-1 2.16152E-2
 1190.00    10.00       0.7       3.88094E-1 1.05307E-2 3.78548E-1
 1.16925E-2 4.29093E-1 2.42316E-2
 1190.00    10.00       0.9       2.64328E-1 1.46028E-2 2.82338E-1
 1.71026E-2 2.15873E-1 2.80529E-2
 1210.00    10.00      -0.9       1.87403E-1 9.69250E-3 1.81855E-1
 1.14298E-2 2.01608E-1 1.82879E-2
 1210.00    10.00      -0.7       2.21425E-1 8.41842E-3 2.12869E-1
 9.71994E-3 2.47110E-1 1.68410E-2
 1210.00    10.00      -0.5       2.78595E-1 9.12410E-3 2.64017E-1
 1.03774E-2 3.28247E-1 1.91521E-2
 1210.00    10.00      -0.3       3.41173E-1 9.22118E-3 3.31976E-1
 1.04729E-2 3.72897E-1 1.94505E-2
 1210.00    10.00      -0.1       3.77872E-1 9.12612E-3 3.67696E-1
 1.02565E-2 4.16557E-1 1.99972E-2
 1210.00    10.00       0.1       4.24116E-1 9.47375E-3 4.16251E-1
 1.06021E-2 4.55279E-1 2.11034E-2
 1210.00    10.00       0.3       4.24066E-1 9.59277E-3 4.15077E-1
 1.06318E-2 4.63432E-1 2.22484E-2
 1210.00    10.00       0.5       4.09951E-1 1.00111E-2 4.00461E-1
 1.10543E-2 4.53238E-1 2.36080E-2
 1210.00    10.00       0.7       3.42264E-1 1.04412E-2 3.44302E-1
 1.17795E-2 3.34790E-1 2.25537E-2
 1210.00    10.00       0.9       2.38265E-1 1.45306E-2 2.50890E-1
 1.68614E-2 2.01832E-1 2.86428E-2
 1230.00    10.00      -0.9       1.61293E-1 9.35233E-3 1.46033E-1
 1.07296E-2 2.09549E-1 1.90803E-2
 1230.00    10.00      -0.7       1.89786E-1 8.10021E-3 1.86929E-1
 9.44829E-3 1.97709E-1 1.57352E-2
 1230.00    10.00      -0.5       2.79926E-1 9.52120E-3 2.66800E-1
 1.08596E-2 3.23545E-1 1.97970E-2
 1230.00    10.00      -0.3       3.32618E-1 9.47561E-3 3.27332E-1
 1.08265E-2 3.49922E-1 1.95891E-2
 1230.00    10.00      -0.1       3.92701E-1 9.62612E-3 3.85021E-1
 1.08761E-2 4.20466E-1 2.06810E-2
 1230.00    10.00       0.1       4.20511E-1 9.73173E-3 4.13874E-1
 1.08850E-2 4.46950E-1 2.17238E-2
 1230.00    10.00       0.3       4.29592E-1 9.98472E-3 4.17105E-1
 1.09955E-2 4.88291E-1 2.38403E-2
 1230.00    10.00       0.5       4.21556E-1 1.05343E-2 4.19080E-1
 1.17127E-2 4.32037E-1 2.40980E-2
 1230.00    10.00       0.7       3.60245E-1 1.11320E-2 3.56885E-1
 1.24365E-2 3.73787E-1 2.49682E-2
 1230.00    10.00       0.9       2.97809E-1 1.68289E-2 3.13253E-1
 1.94676E-2 2.52138E-1 3.34767E-2
 1250.00    10.00      -0.9       1.51453E-1 9.28021E-3 1.48039E-1
 1.09763E-2 1.60011E-1 1.73782E-2
 1250.00    10.00      -0.7       2.00495E-1 8.57225E-3 1.90409E-1
 9.85266E-3 2.31910E-1 1.73889E-2
 1250.00    10.00      -0.5       2.65205E-1 9.63068E-3 2.53121E-1
 1.09797E-2 3.05516E-1 2.00535E-2
 1250.00    10.00      -0.3       3.30603E-1 9.79111E-3 3.16585E-1
 1.10387E-2 3.82317E-1 2.12021E-2
 1250.00    10.00      -0.1       3.62721E-1 9.56615E-3 3.57191E-1
 1.08211E-2 3.82500E-1 2.04654E-2
 1250.00    10.00       0.1       3.93749E-1 9.74606E-3 3.85425E-1
 1.08408E-2 4.28829E-1 2.22558E-2
 1250.00    10.00       0.3       4.14616E-1 1.01359E-2 4.07049E-1
 1.12056E-2 4.48670E-1 2.37712E-2
 1250.00    10.00       0.5       4.17957E-1 1.08642E-2 4.10426E-1
 1.19781E-2 4.52892E-1 2.57982E-2
 1250.00    10.00       0.7       3.57841E-1 1.14959E-2 3.59346E-1
 1.29025E-2 3.52047E-1 2.53189E-2
 1250.00    10.00       0.9       2.58815E-1 1.61202E-2 2.50057E-1
 1.78485E-2 2.97581E-1 3.75509E-2
 1270.00    10.00      -0.9       1.47738E-1 8.37278E-3 1.39594E-1
 9.75904E-3 1.70452E-1 1.62980E-2
 1270.00    10.00      -0.7       1.79229E-1 7.55928E-3 1.71726E-1
 8.74438E-3 2.01418E-1 1.50380E-2
 1270.00    10.00      -0.5       2.50164E-1 8.73862E-3 2.42799E-1
 1.00330E-2 2.73311E-1 1.77868E-2
 1270.00    10.00      -0.3       3.16819E-1 8.95726E-3 3.06535E-1
 1.01254E-2 3.53832E-1 1.92096E-2
 1270.00    10.00      -0.1       3.48175E-1 8.74250E-3 3.38821E-1
 9.79448E-3 3.84837E-1 1.93907E-2
 1270.00    10.00       0.1       3.81476E-1 8.91764E-3 3.70880E-1
 9.86172E-3 4.29001E-1 2.08860E-2
 1270.00    10.00       0.3       4.05699E-1 9.33660E-3 4.05689E-1
 1.04072E-2 4.05741E-1 2.11343E-2
 1270.00    10.00       0.5       3.85154E-1 9.69542E-3 3.76594E-1
 1.06456E-2 4.26787E-1 2.34768E-2
 1270.00    10.00       0.7       3.74922E-1 1.09414E-2 3.66355E-1
 1.20884E-2 4.13748E-1 2.57344E-2
 1270.00    10.00       0.9       2.70526E-1 1.53168E-2 2.73025E-1
 1.73275E-2 2.61595E-1 3.27588E-2
 1290.00    10.00      -0.9       1.39981E-1 9.00697E-3 1.36170E-1
 1.06929E-2 1.49290E-1 1.67118E-2
 1290.00    10.00      -0.7       1.76244E-1 8.40515E-3 1.71707E-1
 9.79825E-3 1.88884E-1 1.63541E-2
 1290.00    10.00      -0.5       2.34091E-1 9.53688E-3 2.31594E-1
 1.10577E-2 2.41343E-1 1.88435E-2
 1290.00    10.00      -0.3       3.05300E-1 9.95513E-3 2.93928E-1
 1.11946E-2 3.48289E-1 2.17662E-2
 1290.00    10.00      -0.1       3.43253E-1 9.77880E-3 3.33088E-1
 1.09172E-2 3.84512E-1 2.19945E-2
 1290.00    10.00       0.1       3.85856E-1 1.00691E-2 3.78842E-1
 1.11723E-2 4.16203E-1 2.32388E-2
 1290.00    10.00       0.3       4.08055E-1 1.05565E-2 4.03464E-1
 1.16898E-2 4.28345E-1 2.45777E-2
 1290.00    10.00       0.5       3.95624E-1 1.10242E-2 3.83178E-1
 1.20301E-2 4.60847E-1 2.75404E-2
 1290.00    10.00       0.7       3.42842E-1 1.17964E-2 3.40649E-1
 1.31226E-2 3.52076E-1 2.69280E-2
 1290.00    10.00       0.9       2.69741E-1 1.71304E-2 2.71589E-1
 1.93470E-2 2.63034E-1 3.68578E-2
 1310.00    10.00      -0.9       1.25069E-1 7.80760E-3 1.18069E-1
 9.11245E-3 1.44396E-1 1.51416E-2
 1310.00    10.00      -0.7       1.78612E-1 7.79412E-3 1.73945E-1
 9.07683E-3 1.91713E-1 1.52079E-2
 1310.00    10.00      -0.5       2.18093E-1 8.52193E-3 2.07671E-1
 9.71221E-3 2.52964E-1 1.77660E-2
 1310.00    10.00      -0.3       2.82295E-1 8.90892E-3 2.75008E-1
 1.00970E-2 3.07907E-1 1.89303E-2
 1310.00    10.00      -0.1       3.34008E-1 8.93125E-3 3.23612E-1
 9.95241E-3 3.77013E-1 2.02418E-2
 1310.00    10.00       0.1       3.62367E-1 9.03611E-3 3.52509E-1
 9.98398E-3 4.07011E-1 2.12474E-2
 1310.00    10.00       0.3       3.79508E-1 9.41541E-3 3.72941E-1
 1.03704E-2 4.10319E-1 2.24630E-2
 1310.00    10.00       0.5       3.72866E-1 9.88950E-3 3.76214E-1
 1.10157E-2 3.58959E-1 2.24521E-2
 1310.00    10.00       0.7       3.54271E-1 1.11561E-2 3.46708E-1
 1.22890E-2 3.89710E-1 2.66012E-2
 1310.00    10.00       0.9       2.64322E-1 1.56698E-2 2.72333E-1
 1.79065E-2 2.38131E-1 3.23784E-2
 1330.00    10.00      -0.9       1.26415E-1 8.08786E-3 1.21045E-1
 9.49452E-3 1.40619E-1 1.54409E-2
 1330.00    10.00      -0.7       1.57622E-1 7.65668E-3 1.48242E-1
 8.78789E-3 1.87180E-1 1.56006E-2
 1330.00    10.00      -0.5       2.10322E-1 8.76438E-3 2.02750E-1
 1.00336E-2 2.34700E-1 1.80032E-2
 1330.00    10.00      -0.3       2.70706E-1 9.06124E-3 2.56443E-1
 1.01455E-2 3.26937E-1 2.01452E-2
 1330.00    10.00      -0.1       3.15916E-1 9.01898E-3 3.11126E-1
 1.01210E-2 3.34392E-1 1.98755E-2
 1330.00    10.00       0.1       3.37697E-1 9.08083E-3 3.26730E-1
 9.98854E-3 3.89942E-1 2.18015E-2
 1330.00    10.00       0.3       3.67057E-1 9.57004E-3 3.61953E-1
 1.05328E-2 3.91212E-1 2.29121E-2
 1330.00    10.00       0.5       3.71636E-1 1.02456E-2 3.70664E-1
 1.13156E-2 3.76060E-1 2.41367E-2
 1330.00    10.00       0.7       3.38386E-1 1.13308E-2 3.28322E-1
 1.24100E-2 3.88817E-1 2.77798E-2
 1330.00    10.00       0.9       2.58349E-1 1.60256E-2 2.54715E-1
 1.79398E-2 2.72702E-1 3.56546E-2
 1350.00    10.00      -0.9       1.15910E-1 7.73544E-3 1.10201E-1
 9.05727E-3 1.31297E-1 1.48708E-2
 1350.00    10.00      -0.7       1.63372E-1 7.76094E-3 1.57566E-1
 9.03566E-3 1.79703E-1 1.51550E-2
 1350.00    10.00      -0.5       2.05404E-1 8.74346E-3 2.01274E-1
 1.00955E-2 2.17800E-1 1.74901E-2
 1350.00    10.00      -0.3       2.62481E-1 8.95351E-3 2.54698E-1
 1.01237E-2 2.90432E-1 1.91843E-2
 1350.00    10.00      -0.1       2.93771E-1 8.80207E-3 2.88667E-1
 9.86898E-3 3.13620E-1 1.94630E-2
 1350.00    10.00       0.1       3.42659E-1 9.16853E-3 3.23436E-1
 9.94274E-3 4.51873E-1 2.36990E-2
 1350.00    10.00       0.3       3.63169E-1 9.54475E-3 3.50758E-1
 1.03678E-2 4.32159E-1 2.44440E-2
 1350.00    10.00       0.5       3.69522E-1 1.02770E-2 3.55884E-1
 1.11322E-2 4.48194E-1 2.67369E-2
 1350.00    10.00       0.7       3.52995E-1 1.16667E-2 3.47773E-1
 1.28759E-2 3.76949E-1 2.75758E-2
 1350.00    10.00       0.9       2.70595E-1 1.62374E-2 2.77706E-1
 1.85517E-2 2.47307E-1 3.35713E-2
 1370.00    10.00      -0.9       1.07054E-1 7.27867E-3 1.03429E-1
 8.59218E-3 1.16266E-1 1.36974E-2
 1370.00    10.00      -0.7       1.58436E-1 7.49754E-3 1.42394E-1
 8.50701E-3 2.14255E-1 1.58682E-2
 1370.00    10.00      -0.5       2.02898E-1 8.65036E-3 1.98927E-1
 1.00155E-2 2.14559E-1 1.71631E-2
 1370.00    10.00      -0.3       2.56243E-1 8.70821E-3 2.49948E-1
 9.86320E-3 2.78498E-1 1.85454E-2
 1370.00    10.00      -0.1       3.00201E-1 8.77471E-3 2.91379E-1
 9.76971E-3 3.37013E-1 1.99570E-2
 1370.00    10.00       0.1       3.27822E-1 8.80103E-3 3.17962E-1
 9.66416E-3 3.75739E-1 2.13050E-2
 1370.00    10.00       0.3       3.43426E-1 9.09760E-3 3.40059E-1
 9.99595E-3 3.59673E-1 2.19576E-2
 1370.00    10.00       0.5       3.67424E-1 1.00803E-2 3.65410E-1
 1.10881E-2 3.77018E-1 2.41997E-2
 1370.00    10.00       0.7       3.29329E-1 1.10896E-2 3.18540E-1
 1.21096E-2 3.85398E-1 2.76061E-2
 1370.00    10.00       0.9       2.74015E-1 1.60811E-2 2.92718E-1
 1.87154E-2 2.21252E-1 3.14348E-2
ENDDATA            844
ENDSUBENT          858
SUBENT        G0040004   20140325   20141007   20140911       G030
BIB                  3          9
REACTION  1(2-HE-3(G,X)0-ET-0,,DA)
            weighted average of average 2gammas and 6gammas
             events from 3He(g,eta)X
          2(2-HE-3(G,X)0-ET-0,,DA,ETA)
            data derived from 2gammas events from 3He(g,eta)X
          3(2-HE-3(G,X)0-ET-0,,DA,ETA)
            data derived from 6gammas events from 3He(g,eta)X
PART-DET   (G)
STATUS     (TABLE) Plotted in Fig.13 of Euro.Phys.J.A49(2013)154
ENDBIB               9
NOCOMMON             0          0
DATA                 9        420
EN         EN-RSL     COS-CM     DATA-CM   1ERR-S     1DATA-CM   2
ERR-S     2DATA-CM   3ERR-S     3
MEV        MEV        NO-DIM     MU-B/SR    MU-B/SR    MU-B/SR
MU-B/SR    MU-B/SR    MU-B/SR
  655.00    25.00      -0.9       6.38753E-1 4.32509E-3 6.51429E-1
 5.40004E-3 6.16072E-1 7.22353E-3
  655.00    25.00      -0.7       3.64729E-1 3.52555E-3 3.69719E-1
 4.46841E-3 3.56499E-1 5.73820E-3
  655.00    25.00      -0.5       2.62568E-1 3.17341E-3 2.62293E-1
 4.04083E-3 2.63010E-1 5.12611E-3
  655.00    25.00      -0.3       1.92660E-1 2.88875E-3 1.93304E-1
 3.67796E-3 1.91622E-1 4.66710E-3
  655.00    25.00      -0.1       1.48389E-1 2.73148E-3 1.49741E-1
 3.52737E-3 1.46365E-1 4.31693E-3
  655.00    25.00       0.1       1.03752E-1 2.45377E-3 1.08909E-1
 3.24262E-3 9.68434E-2 3.75348E-3
  655.00    25.00       0.3       5.73446E-2 2.21469E-3 5.22716E-2
 2.97786E-3 6.36236E-2 3.31295E-3
  655.00    25.00       0.5       3.97828E-2 1.96409E-3 3.13491E-2
 2.64583E-3 5.01347E-2 2.93134E-3
  655.00    25.00       0.7       2.39948E-2 1.68899E-3 1.41860E-2
 2.30351E-3 3.53997E-2 2.48387E-3
  655.00    25.00       0.9       1.44589E-2 1.53678E-3 3.20166E-3
 2.14313E-3 2.63740E-2 2.20486E-3
  690.00    10.00      -0.9       1.20739E+0 9.04888E-3 1.24603E+0
 1.14642E-2 1.14353E+0 1.47380E-2
  690.00    10.00      -0.7       8.41648E-1 7.87077E-3 8.72682E-1
 9.93867E-3 7.89445E-1 1.28901E-2
  690.00    10.00      -0.5       7.07336E-1 7.37434E-3 7.06802E-1
 9.24969E-3 7.08267E-1 1.22163E-2
  690.00    10.00      -0.3       5.87040E-1 7.08251E-3 5.97482E-1
 8.84716E-3 5.68407E-1 1.18184E-2
  690.00    10.00      -0.1       4.87302E-1 6.64597E-3 4.90020E-1
 8.32505E-3 4.82527E-1 1.10353E-2
  690.00    10.00       0.1       3.93822E-1 6.32125E-3 4.03208E-1
 7.99135E-3 3.78132E-1 1.03322E-2
  690.00    10.00       0.3       3.11554E-1 5.93744E-3 3.11330E-1
 7.51079E-3 3.11928E-1 9.69481E-3
  690.00    10.00       0.5       2.23601E-1 5.29754E-3 2.18943E-1
 6.90785E-3 2.30253E-1 8.25442E-3
  690.00    10.00       0.7       1.67607E-1 4.84900E-3 1.62782E-1
 6.34659E-3 1.74372E-1 7.51578E-3
  690.00    10.00       0.9       1.20446E-1 4.33737E-3 1.09440E-1
 5.67278E-3 1.35935E-1 6.72967E-3
  710.00    10.00      -0.9       1.63093E+0 1.36907E-2 1.65767E+0
 1.71754E-2 1.58434E+0 2.26732E-2
  710.00    10.00      -0.7       1.22687E+0 1.23406E-2 1.25339E+0
 1.54534E-2 1.18019E+0 2.05024E-2
  710.00    10.00      -0.5       1.09306E+0 1.18697E-2 1.08513E+0
 1.45775E-2 1.10868E+0 2.04467E-2
  710.00    10.00      -0.3       9.76817E-1 1.16197E-2 9.87122E-1
 1.43336E-2 9.57063E-1 1.98449E-2
  710.00    10.00      -0.1       8.80231E-1 1.10114E-2 8.86237E-1
 1.37455E-2 8.69472E-1 1.83968E-2
  710.00    10.00       0.1       7.38621E-1 1.05031E-2 7.58797E-1
 1.32688E-2 7.04769E-1 1.71874E-2
  710.00    10.00       0.3       6.39763E-1 1.01022E-2 6.53838E-1
 1.26425E-2 6.14905E-1 1.68019E-2
  710.00    10.00       0.5       5.41378E-1 9.32819E-3 5.33662E-1
 1.17080E-2 5.54791E-1 1.54355E-2
  710.00    10.00       0.7       4.48782E-1 8.84695E-3 4.42287E-1
 1.13738E-2 4.58731E-1 1.40770E-2
  710.00    10.00       0.9       3.55005E-1 7.92143E-3 3.32138E-1
 9.98536E-3 3.93829E-1 1.30110E-2
  730.00    10.00      -0.9       1.87407E+0 1.22733E-2 1.91494E+0
 1.53005E-2 1.80031E+0 2.05543E-2
  730.00    10.00      -0.7       1.50057E+0 1.11143E-2 1.50856E+0
 1.37805E-2 1.48570E+0 1.87995E-2
  730.00    10.00      -0.5       1.37886E+0 1.07904E-2 1.39331E+0
 1.33564E-2 1.35170E+0 1.83093E-2
  730.00    10.00      -0.3       1.25226E+0 1.06533E-2 1.27232E+0
 1.31607E-2 1.21415E+0 1.81442E-2
  730.00    10.00      -0.1       1.14549E+0 1.02229E-2 1.14720E+0
 1.26447E-2 1.14227E+0 1.73701E-2
  730.00    10.00       0.1       1.05008E+0 9.88867E-3 1.05980E+0
 1.24087E-2 1.03315E+0 1.63695E-2
  730.00    10.00       0.3       9.32381E-1 9.47117E-3 9.49983E-1
 1.18541E-2 9.01310E-1 1.57496E-2
  730.00    10.00       0.5       8.38857E-1 9.12357E-3 8.33916E-1
 1.14918E-2 8.47282E-1 1.50054E-2
  730.00    10.00       0.7       6.72747E-1 8.34241E-3 6.64410E-1
 1.05737E-2 6.86495E-1 1.35776E-2
  730.00    10.00       0.9       5.89808E-1 7.83383E-3 5.79587E-1
 9.88875E-3 6.07031E-1 1.28367E-2
  747.50     7.50      -0.9       2.01265E+0 1.43478E-2 2.05396E+0
 1.78615E-2 1.93749E+0 2.40898E-2
  747.50     7.50      -0.7       1.68637E+0 1.34501E-2 1.71900E+0
 1.65910E-2 1.62381E+0 2.29729E-2
  747.50     7.50      -0.5       1.61808E+0 1.32303E-2 1.62719E+0
 1.63348E-2 1.60070E+0 2.25576E-2
  747.50     7.50      -0.3       1.51949E+0 1.30814E-2 1.52672E+0
 1.60528E-2 1.50520E+0 2.25696E-2
  747.50     7.50      -0.1       1.39108E+0 1.26717E-2 1.40515E+0
 1.55928E-2 1.36372E+0 2.17452E-2
  747.50     7.50       0.1       1.31856E+0 1.23998E-2 1.34656E+0
 1.52770E-2 1.26449E+0 2.12280E-2
  747.50     7.50       0.3       1.21246E+0 1.18684E-2 1.24215E+0
 1.47879E-2 1.15870E+0 1.98951E-2
  747.50     7.50       0.5       1.09845E+0 1.13992E-2 1.10569E+0
 1.42019E-2 1.08534E+0 1.91120E-2
  747.50     7.50       0.7       9.56289E-1 1.07671E-2 9.41681E-1
 1.33367E-2 9.83629E-1 1.82460E-2
  747.50     7.50       0.9       8.27977E-1 9.96513E-3 8.18906E-1
 1.24145E-2 8.44409E-1 1.67093E-2
  762.50     7.50      -0.9       2.03992E+0 1.67820E-2 2.07862E+0
 2.07986E-2 1.96773E+0 2.84096E-2
  762.50     7.50      -0.7       1.81303E+0 1.59159E-2 1.83431E+0
 1.97900E-2 1.77408E+0 2.67803E-2
  762.50     7.50      -0.5       1.75124E+0 1.58592E-2 1.78639E+0
 1.96621E-2 1.68579E+0 2.68292E-2
  762.50     7.50      -0.3       1.71340E+0 1.57311E-2 1.72500E+0
 1.95237E-2 1.69193E+0 2.65611E-2
  762.50     7.50      -0.1       1.58311E+0 1.53151E-2 1.60551E+0
 1.90312E-2 1.54195E+0 2.57991E-2
  762.50     7.50       0.1       1.50433E+0 1.49277E-2 1.49869E+0
 1.84951E-2 1.51487E+0 2.52845E-2
  762.50     7.50       0.3       1.45730E+0 1.45771E-2 1.50685E+0
 1.81576E-2 1.36745E+0 2.44486E-2
  762.50     7.50       0.5       1.32122E+0 1.40936E-2 1.33190E+0
 1.73336E-2 1.30039E+0 2.42094E-2
  762.50     7.50       0.7       1.14641E+0 1.32247E-2 1.14642E+0
 1.63090E-2 1.14638E+0 2.25982E-2
  762.50     7.50       0.9       1.04466E+0 1.29365E-2 1.01488E+0
 1.55713E-2 1.11103E+0 2.32427E-2
  777.50     7.50      -0.9       1.94237E+0 1.68902E-2 1.97828E+0
 2.07953E-2 1.87275E+0 2.89531E-2
  777.50     7.50      -0.7       1.79112E+0 1.64081E-2 1.81664E+0
 2.04578E-2 1.74508E+0 2.74725E-2
  777.50     7.50      -0.5       1.81571E+0 1.66795E-2 1.84651E+0
 2.04405E-2 1.75433E+0 2.88547E-2
  777.50     7.50      -0.3       1.76466E+0 1.65400E-2 1.79926E+0
 2.04228E-2 1.69872E+0 2.81967E-2
  777.50     7.50      -0.1       1.72874E+0 1.64083E-2 1.75559E+0
 2.00212E-2 1.67382E+0 2.86352E-2
  777.50     7.50       0.1       1.65390E+0 1.60295E-2 1.66641E+0
 1.97580E-2 1.62982E+0 2.74177E-2
  777.50     7.50       0.3       1.60046E+0 1.55254E-2 1.60108E+0
 1.91500E-2 1.59927E+0 2.65200E-2
  777.50     7.50       0.5       1.47827E+0 1.53031E-2 1.49454E+0
 1.89180E-2 1.44748E+0 2.60293E-2
  777.50     7.50       0.7       1.34817E+0 1.44627E-2 1.35112E+0
 1.77654E-2 1.34239E+0 2.49042E-2
  777.50     7.50       0.9       1.22662E+0 1.37441E-2 1.20786E+0
 1.67576E-2 1.26519E+0 2.40232E-2
  792.50     7.50      -0.9       1.80447E+0 1.66704E-2 1.84184E+0
 2.05997E-2 1.73356E+0 2.83771E-2
  792.50     7.50      -0.7       1.77808E+0 1.64630E-2 1.79045E+0
 2.03300E-2 1.75451E+0 2.80593E-2
  792.50     7.50      -0.5       1.82887E+0 1.65005E-2 1.86897E+0
 2.02089E-2 1.74868E+0 2.85795E-2
  792.50     7.50      -0.3       1.85043E+0 1.64580E-2 1.87315E+0
 2.00591E-2 1.80362E+0 2.87890E-2
  792.50     7.50      -0.1       1.78925E+0 1.64134E-2 1.80279E+0
 2.01289E-2 1.76239E+0 2.83538E-2
  792.50     7.50       0.1       1.78343E+0 1.62724E-2 1.79057E+0
 2.00079E-2 1.76946E+0 2.79666E-2
  792.50     7.50       0.3       1.69810E+0 1.58187E-2 1.70083E+0
 1.92921E-2 1.69249E+0 2.76345E-2
  792.50     7.50       0.5       1.60655E+0 1.52614E-2 1.60716E+0
 1.87535E-2 1.60534E+0 2.62605E-2
  792.50     7.50       0.7       1.49165E+0 1.45726E-2 1.48903E+0
 1.76756E-2 1.49722E+0 2.57496E-2
  792.50     7.50       0.9       1.35611E+0 1.40921E-2 1.34323E+0
 1.72464E-2 1.38200E+0 2.44445E-2
  807.50     7.50      -0.9       1.73398E+0 1.69286E-2 1.77211E+0
 2.11972E-2 1.66683E+0 2.81285E-2
  807.50     7.50      -0.7       1.78051E+0 1.72887E-2 1.82664E+0
 2.10391E-2 1.68459E+0 3.03385E-2
  807.50     7.50      -0.5       1.83042E+0 1.71357E-2 1.85919E+0
 2.09814E-2 1.77281E+0 2.96951E-2
  807.50     7.50      -0.3       1.89706E+0 1.73237E-2 1.91208E+0
 2.10886E-2 1.86588E+0 3.03794E-2
  807.50     7.50      -0.1       1.85005E+0 1.66968E-2 1.87732E+0
 2.06171E-2 1.79807E+0 2.84621E-2
  807.50     7.50       0.1       1.86296E+0 1.68447E-2 1.88260E+0
 2.04578E-2 1.82162E+0 2.96833E-2
  807.50     7.50       0.3       1.78245E+0 1.65877E-2 1.79501E+0
 2.02931E-2 1.75715E+0 2.87954E-2
  807.50     7.50       0.5       1.72165E+0 1.62834E-2 1.71064E+0
 1.94670E-2 1.74731E+0 2.97128E-2
  807.50     7.50       0.7       1.58489E+0 1.53376E-2 1.57117E+0
 1.87529E-2 1.61263E+0 2.66560E-2
  807.50     7.50       0.9       1.41257E+0 1.48780E-2 1.36889E+0
 1.81645E-2 1.50159E+0 2.59338E-2
  822.50     7.50      -0.9       1.66943E+0 1.77222E-2 1.71203E+0
 2.22351E-2 1.59523E+0 2.93449E-2
  822.50     7.50      -0.7       1.72249E+0 1.79855E-2 1.76045E+0
 2.21879E-2 1.64978E+0 3.07128E-2
  822.50     7.50      -0.5       1.82999E+0 1.81495E-2 1.86075E+0
 2.23957E-2 1.77114E+0 3.09786E-2
  822.50     7.50      -0.3       1.89067E+0 1.81322E-2 1.89405E+0
 2.22308E-2 1.88396E+0 3.13398E-2
  822.50     7.50      -0.1       1.92385E+0 1.82737E-2 1.94806E+0
 2.22483E-2 1.87368E+0 3.20356E-2
  822.50     7.50       0.1       1.89723E+0 1.78746E-2 1.91693E+0
 2.19120E-2 1.85806E+0 3.09028E-2
  822.50     7.50       0.3       1.82928E+0 1.74435E-2 1.84086E+0
 2.12593E-2 1.80540E+0 3.05154E-2
  822.50     7.50       0.5       1.68493E+0 1.57081E-2 1.68759E+0
 1.87859E-2 1.67876E+0 2.86391E-2
  822.50     7.50       0.7       1.60250E+0 1.63862E-2 1.59044E+0
 2.01885E-2 1.62578E+0 2.80521E-2
  822.50     7.50       0.9       1.42846E+0 1.60263E-2 1.39865E+0
 1.92061E-2 1.49679E+0 2.90807E-2
  837.50     7.50      -0.9       1.59727E+0 1.86841E-2 1.61361E+0
 2.30702E-2 1.56612E+0 3.18517E-2
  837.50     7.50      -0.7       1.70368E+0 1.86820E-2 1.73654E+0
 2.27870E-2 1.63630E+0 3.26284E-2
  837.50     7.50      -0.5       1.76928E+0 1.90413E-2 1.78465E+0
 2.33202E-2 1.73854E+0 3.29819E-2
  837.50     7.50      -0.3       1.88870E+0 1.94511E-2 1.93463E+0
 2.38840E-2 1.79823E+0 3.35189E-2
  837.50     7.50      -0.1       1.87765E+0 1.90579E-2 1.90622E+0
 2.32102E-2 1.81853E+0 3.33888E-2
  837.50     7.50       0.1       1.87124E+0 1.88815E-2 1.91084E+0
 2.30664E-2 1.79081E+0 3.28714E-2
  837.50     7.50       0.3       1.80909E+0 1.86451E-2 1.79985E+0
 2.25145E-2 1.82927E+0 3.32638E-2
  837.50     7.50       0.5       1.72611E+0 1.81288E-2 1.73221E+0
 2.17571E-2 1.71227E+0 3.27877E-2
  837.50     7.50       0.7       1.56810E+0 1.74209E-2 1.56056E+0
 2.11762E-2 1.58390E+0 3.06421E-2
  837.50     7.50       0.9       1.41416E+0 1.69068E-2 1.39345E+0
 2.03566E-2 1.46021E+0 3.03550E-2
  852.50     7.50      -0.9       1.58618E+0 1.86497E-2 1.59540E+0
 2.29860E-2 1.56841E+0 3.19038E-2
  852.50     7.50      -0.7       1.67693E+0 1.88423E-2 1.69627E+0
 2.30366E-2 1.63785E+0 3.27508E-2
  852.50     7.50      -0.5       1.78373E+0 1.91275E-2 1.83805E+0
 2.34133E-2 1.67474E+0 3.31667E-2
  852.50     7.50      -0.3       1.85611E+0 1.93889E-2 1.87664E+0
 2.35767E-2 1.81320E+0 3.40788E-2
  852.50     7.50      -0.1       1.87677E+0 1.89611E-2 1.90830E+0
 2.30399E-2 1.81061E+0 3.33774E-2
  852.50     7.50       0.1       1.88373E+0 1.88729E-2 1.90602E+0
 2.35491E-2 1.84372E+0 3.15552E-2
  852.50     7.50       0.3       1.78584E+0 1.84793E-2 1.79855E+0
 2.22615E-2 1.75769E+0 3.31401E-2
  852.50     7.50       0.5       1.68729E+0 1.79571E-2 1.71514E+0
 2.17888E-2 1.62831E+0 3.17047E-2
  852.50     7.50       0.7       1.56551E+0 1.74583E-2 1.57651E+0
 2.12176E-2 1.54245E+0 3.07203E-2
  852.50     7.50       0.9       1.39091E+0 1.64356E-2 1.33859E+0
 1.98861E-2 1.50370E+0 2.91953E-2
  867.50     7.50      -0.9       1.47554E+0 1.74248E-2 1.51860E+0
 2.18419E-2 1.40016E+0 2.88986E-2
  867.50     7.50      -0.7       1.58668E+0 1.76503E-2 1.60499E+0
 2.18497E-2 1.55229E+0 2.99438E-2
  867.50     7.50      -0.5       1.72676E+0 1.78261E-2 1.75439E+0
 2.17350E-2 1.66998E+0 3.11569E-2
  867.50     7.50      -0.3       1.79851E+0 1.75866E-2 1.83187E+0
 2.11639E-2 1.72408E+0 3.16126E-2
  867.50     7.50      -0.1       1.84289E+0 1.79991E-2 1.87252E+0
 2.20389E-2 1.78355E+0 3.11909E-2
  867.50     7.50       0.1       1.81771E+0 1.76819E-2 1.86079E+0
 2.16005E-2 1.73022E+0 3.07842E-2
  867.50     7.50       0.3       1.75049E+0 1.72834E-2 1.76482E+0
 2.09927E-2 1.72034E+0 3.04500E-2
  867.50     7.50       0.5       1.62959E+0 1.66714E-2 1.64847E+0
 2.04018E-2 1.59163E+0 2.89222E-2
  867.50     7.50       0.7       1.45822E+0 1.62819E-2 1.44844E+0
 1.99754E-2 1.47759E+0 2.81050E-2
  867.50     7.50       0.9       1.30366E+0 1.55114E-2 1.27663E+0
 1.87039E-2 1.36320E+0 2.77595E-2
  882.50     7.50      -0.9       1.44825E+0 1.64021E-2 1.48408E+0
 2.01745E-2 1.37838E+0 2.81706E-2
  882.50     7.50      -0.7       1.53607E+0 1.66306E-2 1.53971E+0
 2.01235E-2 1.52823E+0 2.95367E-2
  882.50     7.50      -0.5       1.64380E+0 1.71078E-2 1.67972E+0
 2.08949E-2 1.57077E+0 2.97970E-2
  882.50     7.50      -0.3       1.70110E+0 1.72833E-2 1.70749E+0
 2.08361E-2 1.68701E+0 3.09443E-2
  882.50     7.50      -0.1       1.78108E+0 1.75815E-2 1.81662E+0
 2.15596E-2 1.71052E+0 3.03769E-2
  882.50     7.50       0.1       1.73279E+0 1.71306E-2 1.78143E+0
 2.07902E-2 1.62993E+0 3.02325E-2
  882.50     7.50       0.3       1.68509E+0 1.60715E-2 1.70830E+0
 1.96974E-2 1.63886E+0 2.77975E-2
  882.50     7.50       0.5       1.59348E+0 1.66312E-2 1.61255E+0
 1.99474E-2 1.55000E+0 3.01214E-2
  882.50     7.50       0.7       1.42893E+0 1.57132E-2 1.40245E+0
 1.90127E-2 1.48599E+0 2.79100E-2
  882.50     7.50       0.9       1.27088E+0 1.52866E-2 1.23794E+0
 1.81731E-2 1.35056E+0 2.82676E-2
  897.50     7.50      -0.9       1.35570E+0 1.76089E-2 1.38044E+0
 2.18681E-2 1.31008E+0 2.96966E-2
  897.50     7.50      -0.7       1.47059E+0 1.81053E-2 1.50310E+0
 2.22544E-2 1.40696E+0 3.11366E-2
  897.50     7.50      -0.5       1.58015E+0 1.86584E-2 1.59178E+0
 2.28271E-2 1.55675E+0 3.23872E-2
  897.50     7.50      -0.3       1.68066E+0 1.83946E-2 1.70552E+0
 2.21166E-2 1.62486E+0 3.31312E-2
  897.50     7.50      -0.1       1.68754E+0 1.82502E-2 1.71510E+0
 2.19543E-2 1.62589E+0 3.28331E-2
  897.50     7.50       0.1       1.69368E+0 1.84832E-2 1.71282E+0
 2.23255E-2 1.65198E+0 3.29541E-2
  897.50     7.50       0.3       1.61367E+0 1.75525E-2 1.67059E+0
 2.13209E-2 1.49397E+0 3.09202E-2
  897.50     7.50       0.5       1.46044E+0 1.72265E-2 1.48466E+0
 2.08597E-2 1.40850E+0 3.05474E-2
  897.50     7.50       0.7       1.33983E+0 1.67806E-2 1.32824E+0
 2.02723E-2 1.36505E+0 2.99075E-2
  897.50     7.50       0.9       1.15375E+0 1.60351E-2 1.12130E+0
 1.91512E-2 1.22983E+0 2.93279E-2
  912.50     7.50      -0.9       1.27630E+0 1.73212E-2 1.29694E+0
 2.14117E-2 1.23721E+0 2.94649E-2
  912.50     7.50      -0.7       1.40313E+0 1.78279E-2 1.41983E+0
 2.21405E-2 1.37235E+0 3.00650E-2
  912.50     7.50      -0.5       1.53245E+0 1.83532E-2 1.53856E+0
 2.22177E-2 1.51933E+0 3.25656E-2
  912.50     7.50      -0.3       1.61546E+0 1.87117E-2 1.64977E+0
 2.28230E-2 1.54511E+0 3.26808E-2
  912.50     7.50      -0.1       1.63508E+0 1.79196E-2 1.65352E+0
 2.16979E-2 1.59552E+0 3.17801E-2
  912.50     7.50       0.1       1.57698E+0 1.79700E-2 1.58569E+0
 2.16465E-2 1.55766E+0 3.22311E-2
  912.50     7.50       0.3       1.54919E+0 1.78778E-2 1.54523E+0
 2.12359E-2 1.55882E+0 3.31261E-2
  912.50     7.50       0.5       1.40713E+0 1.64594E-2 1.40724E+0
 1.99260E-2 1.40689E+0 2.92022E-2
  912.50     7.50       0.7       1.25688E+0 1.66892E-2 1.26079E+0
 1.98463E-2 1.24744E+0 3.08400E-2
  912.50     7.50       0.9       1.08041E+0 1.57543E-2 1.03343E+0
 1.92496E-2 1.17572E+0 2.74171E-2
  927.50     7.50      -0.9       1.27978E+0 1.66361E-2 1.31825E+0
 2.09684E-2 1.21441E+0 2.73300E-2
  927.50     7.50      -0.7       1.32177E+0 1.70142E-2 1.34536E+0
 2.08741E-2 1.27507E+0 2.93682E-2
  927.50     7.50      -0.5       1.41377E+0 1.72348E-2 1.42305E+0
 2.07888E-2 1.39339E+0 3.08216E-2
  927.50     7.50      -0.3       1.50668E+0 1.68025E-2 1.49880E+0
 2.01514E-2 1.52467E+0 3.04369E-2
  927.50     7.50      -0.1       1.54792E+0 1.72200E-2 1.56761E+0
 2.08739E-2 1.50598E+0 3.04667E-2
  927.50     7.50       0.1       1.48248E+0 1.69373E-2 1.49050E+0
 2.07860E-2 1.46663E+0 2.92181E-2
  927.50     7.50       0.3       1.41451E+0 1.68154E-2 1.40976E+0
 1.97486E-2 1.42705E+0 3.20658E-2
  927.50     7.50       0.5       1.30740E+0 1.56039E-2 1.31862E+0
 1.88703E-2 1.28313E+0 2.77482E-2
  927.50     7.50       0.7       1.11333E+0 1.52822E-2 1.09654E+0
 1.84814E-2 1.14963E+0 2.71755E-2
  927.50     7.50       0.9       9.41593E-1 1.42899E-2 9.22028E-1
 1.73065E-2 9.83509E-1 2.53315E-2
  942.50     7.50      -0.9       1.14925E+0 1.64507E-2 1.16600E+0
 2.03772E-2 1.11789E+0 2.78764E-2
  942.50     7.50      -0.7       1.25314E+0 1.66009E-2 1.24126E+0
 2.02534E-2 1.27746E+0 2.89797E-2
  942.50     7.50      -0.5       1.33312E+0 1.68235E-2 1.34600E+0
 2.05274E-2 1.30677E+0 2.93610E-2
  942.50     7.50      -0.3       1.44991E+0 1.73338E-2 1.46553E+0
 2.09613E-2 1.41613E+0 3.08274E-2
  942.50     7.50      -0.1       1.44288E+0 1.70781E-2 1.46090E+0
 2.05850E-2 1.40309E+0 3.05895E-2
  942.50     7.50       0.1       1.41443E+0 1.65616E-2 1.39686E+0
 1.98523E-2 1.45464E+0 3.00359E-2
  942.50     7.50       0.3       1.34076E+0 1.62027E-2 1.35533E+0
 1.90795E-2 1.30306E+0 3.06848E-2
  942.50     7.50       0.5       1.18630E+0 1.60194E-2 1.19053E+0
 1.89284E-2 1.17564E+0 3.00726E-2
  942.50     7.50       0.7       1.03285E+0 1.51994E-2 1.00812E+0
 1.79515E-2 1.09546E+0 2.85657E-2
  942.50     7.50       0.9       8.60504E-1 1.39874E-2 8.12029E-1
 1.67534E-2 9.72041E-1 2.54129E-2
  957.50     7.50      -0.9       1.08270E+0 1.74449E-2 1.09603E+0
 2.13844E-2 1.05618E+0 3.01621E-2
  957.50     7.50      -0.7       1.18578E+0 1.74921E-2 1.20372E+0
 2.13817E-2 1.14947E+0 3.04163E-2
  957.50     7.50      -0.5       1.24939E+0 1.80390E-2 1.24825E+0
 2.17349E-2 1.25191E+0 3.23378E-2
  957.50     7.50      -0.3       1.32165E+0 1.83111E-2 1.31653E+0
 2.18353E-2 1.33379E+0 3.36143E-2
  957.50     7.50      -0.1       1.35932E+0 1.83485E-2 1.35167E+0
 2.18496E-2 1.37760E+0 3.37935E-2
  957.50     7.50       0.1       1.31800E+0 1.74690E-2 1.32873E+0
 2.10544E-2 1.29430E+0 3.12953E-2
  957.50     7.50       0.3       1.26496E+0 1.71587E-2 1.28607E+0
 2.06688E-2 1.21816E+0 3.07778E-2
  957.50     7.50       0.5       1.12426E+0 1.65148E-2 1.12212E+0
 1.93495E-2 1.12999E+0 3.16927E-2
  957.50     7.50       0.7       9.99057E-1 1.58435E-2 9.85229E-1
 1.92297E-2 1.02828E+0 2.79562E-2
  957.50     7.50       0.9       7.89293E-1 1.49960E-2 7.47261E-1
 1.81402E-2 8.80015E-1 2.66507E-2
  972.50     7.50      -0.9       1.02524E+0 1.55133E-2 1.05568E+0
 1.95898E-2 9.74040E-1 2.54049E-2
  972.50     7.50      -0.7       1.08570E+0 1.56688E-2 1.08409E+0
 1.90147E-2 1.08911E+0 2.76569E-2
  972.50     7.50      -0.5       1.17428E+0 1.60579E-2 1.19164E+0
 1.95207E-2 1.13793E+0 2.82405E-2
  972.50     7.50      -0.3       1.26520E+0 1.61151E-2 1.27226E+0
 1.95040E-2 1.25001E+0 2.86079E-2
  972.50     7.50      -0.1       1.27178E+0 1.61149E-2 1.28207E+0
 1.95192E-2 1.24974E+0 2.85588E-2
  972.50     7.50       0.1       1.26368E+0 1.56953E-2 1.25126E+0
 1.84700E-2 1.29596E+0 2.97739E-2
  972.50     7.50       0.3       1.15134E+0 1.48190E-2 1.16421E+0
 1.76426E-2 1.12050E+0 2.73082E-2
  972.50     7.50       0.5       1.05571E+0 1.48030E-2 1.05686E+0
 1.77281E-2 1.05305E+0 2.69029E-2
  972.50     7.50       0.7       8.97396E-1 1.39915E-2 8.80164E-1
 1.69243E-2 9.34602E-1 2.48683E-2
  972.50     7.50       0.9       7.13896E-1 1.33408E-2 6.81961E-1
 1.57957E-2 7.93356E-1 2.49164E-2
  987.50     7.50      -0.9       9.27301E-1 1.52760E-2 9.63799E-1
 1.92667E-2 8.65514E-1 2.50678E-2
  987.50     7.50      -0.7       1.00149E+0 1.54330E-2 9.97593E-1
 1.87977E-2 1.00954E+0 2.70321E-2
  987.50     7.50      -0.5       1.07021E+0 1.55857E-2 1.07369E+0
 1.90761E-2 1.06320E+0 2.70302E-2
  987.50     7.50      -0.3       1.18012E+0 1.60471E-2 1.19269E+0
 1.95332E-2 1.15403E+0 2.81442E-2
  987.50     7.50      -0.1       1.17880E+0 1.59196E-2 1.19212E+0
 1.91033E-2 1.14851E+0 2.88008E-2
  987.50     7.50       0.1       1.15284E+0 1.55194E-2 1.14081E+0
 1.85047E-2 1.18135E+0 2.84954E-2
  987.50     7.50       0.3       1.09581E+0 1.52162E-2 1.10593E+0
 1.81754E-2 1.07210E+0 2.78218E-2
  987.50     7.50       0.5       9.81666E-1 1.43196E-2 1.00751E+0
 1.74752E-2 9.28843E-1 2.49828E-2
  987.50     7.50       0.7       7.96658E-1 1.41024E-2 7.79647E-1
 1.68298E-2 8.36759E-1 2.58400E-2
  987.50     7.50       0.9       6.37052E-1 1.31913E-2 6.19600E-1
 1.57565E-2 6.77948E-1 2.41201E-2
 1002.50     7.50      -0.9       8.81856E-1 1.56130E-2 8.87961E-1
 1.92664E-2 8.70177E-1 2.66475E-2
 1002.50     7.50      -0.7       9.39946E-1 1.55223E-2 9.58870E-1
 1.91135E-2 9.03289E-1 2.66019E-2
 1002.50     7.50      -0.5       1.01098E+0 1.55330E-2 1.00588E+0
 1.88107E-2 1.02192E+0 2.75394E-2
 1002.50     7.50      -0.3       1.09250E+0 1.60315E-2 1.08115E+0
 1.92732E-2 1.11799E+0 2.88823E-2
 1002.50     7.50      -0.1       1.09661E+0 1.58959E-2 1.07660E+0
 1.87788E-2 1.14719E+0 2.98562E-2
 1002.50     7.50       0.1       1.10024E+0 1.55800E-2 1.09109E+0
 1.86194E-2 1.12160E+0 2.84530E-2
 1002.50     7.50       0.3       1.03725E+0 1.50731E-2 1.07063E+0
 1.80983E-2 9.61662E-1 2.72323E-2
 1002.50     7.50       0.5       9.45162E-1 1.45295E-2 9.44087E-1
 1.73897E-2 9.47649E-1 2.64432E-2
 1002.50     7.50       0.7       7.65919E-1 1.45803E-2 7.70065E-1
 1.74331E-2 7.56268E-1 2.65974E-2
 1002.50     7.50       0.9       5.88322E-1 1.29802E-2 5.59475E-1
 1.53922E-2 6.59342E-1 2.41514E-2
 1017.50     7.50      -0.9       8.15630E-1 1.52894E-2 8.20246E-1
 1.90914E-2 8.07374E-1 2.55307E-2
 1017.50     7.50      -0.7       8.87683E-1 1.54212E-2 9.05824E-1
 1.88751E-2 8.51262E-1 2.67442E-2
 1017.50     7.50      -0.5       9.68156E-1 1.51866E-2 9.77236E-1
 1.82392E-2 9.47633E-1 2.74216E-2
 1017.50     7.50      -0.3       9.88786E-1 1.54593E-2 1.00047E+0
 1.85130E-2 9.61870E-1 2.80988E-2
 1017.50     7.50      -0.1       1.01192E+0 1.54676E-2 1.02592E+0
 1.85038E-2 9.79449E-1 2.81816E-2
 1017.50     7.50       0.1       1.04651E+0 1.54398E-2 1.03650E+0
 1.82888E-2 1.07134E+0 2.88062E-2
 1017.50     7.50       0.3       9.67636E-1 1.49760E-2 9.79891E-1
 1.77823E-2 9.37738E-1 2.77747E-2
 1017.50     7.50       0.5       8.69911E-1 1.46809E-2 8.73984E-1
 1.74826E-2 8.60168E-1 2.70376E-2
 1017.50     7.50       0.7       7.52847E-1 1.41462E-2 7.45457E-1
 1.68416E-2 7.70552E-1 2.60683E-2
 1017.50     7.50       0.9       5.36163E-1 1.27532E-2 5.07667E-1
 1.48118E-2 6.17840E-1 2.50763E-2
 1032.50     7.50      -0.9       7.30617E-1 1.50000E-2 7.54964E-1
 1.87761E-2 6.87665E-1 2.49388E-2
 1032.50     7.50      -0.7       8.00393E-1 1.48683E-2 8.22421E-1
 1.84333E-2 7.59373E-1 2.51539E-2
 1032.50     7.50      -0.5       8.58279E-1 1.50930E-2 8.88153E-1
 1.84310E-2 7.97463E-1 2.62970E-2
 1032.50     7.50      -0.3       9.17068E-1 1.52810E-2 9.18295E-1
 1.84250E-2 9.14363E-1 2.73506E-2
 1032.50     7.50      -0.1       9.67088E-1 1.52614E-2 1.00381E+0
 1.85741E-2 8.90791E-1 2.67746E-2
 1032.50     7.50       0.1       9.85203E-1 1.53692E-2 9.66210E-1
 1.81012E-2 1.03427E+0 2.90930E-2
 1032.50     7.50       0.3       9.06729E-1 1.47819E-2 9.13087E-1
 1.74641E-2 8.90667E-1 2.77586E-2
 1032.50     7.50       0.5       8.52210E-1 1.46288E-2 8.56494E-1
 1.77022E-2 8.42985E-1 2.59785E-2
 1032.50     7.50       0.7       7.14870E-1 1.40819E-2 7.26714E-1
 1.74919E-2 6.93057E-1 2.37389E-2
 1032.50     7.50       0.9       5.13254E-1 1.31187E-2 4.93185E-1
 1.58863E-2 5.56284E-1 2.32611E-2
 1047.50     7.50      -0.9       7.16325E-1 1.56259E-2 7.43756E-1
 1.96172E-2 6.68712E-1 2.58456E-2
 1047.50     7.50      -0.7       7.64832E-1 1.53938E-2 7.69170E-1
 1.88345E-2 7.56102E-1 2.67168E-2
 1047.50     7.50      -0.5       8.33049E-1 1.55974E-2 8.36538E-1
 1.88208E-2 8.25399E-1 2.78697E-2
 1047.50     7.50      -0.3       8.81219E-1 1.57095E-2 8.73590E-1
 1.87511E-2 8.99181E-1 2.87726E-2
 1047.50     7.50      -0.1       9.19114E-1 1.56889E-2 9.46234E-1
 1.86959E-2 8.54552E-1 2.88465E-2
 1047.50     7.50       0.1       9.34700E-1 1.54642E-2 9.35049E-1
 1.83077E-2 9.33828E-1 2.88909E-2
 1047.50     7.50       0.3       9.04895E-1 1.56124E-2 9.06268E-1
 1.83745E-2 9.01330E-1 2.96083E-2
 1047.50     7.50       0.5       8.26480E-1 1.47098E-2 8.13847E-1
 1.71747E-2 8.61261E-1 2.84975E-2
 1047.50     7.50       0.7       7.17644E-1 1.47981E-2 7.27766E-1
 1.84152E-2 6.99195E-1 2.48624E-2
 1047.50     7.50       0.9       4.98776E-1 1.31763E-2 4.79931E-1
 1.58237E-2 5.41391E-1 2.37955E-2
 1062.50     7.50      -0.9       6.30784E-1 1.47717E-2 6.55711E-1
 1.89264E-2 5.91935E-1 2.36280E-2
 1062.50     7.50      -0.7       6.98003E-1 1.44585E-2 7.05085E-1
 1.77519E-2 6.84049E-1 2.49201E-2
 1062.50     7.50      -0.5       7.60203E-1 1.48097E-2 7.71969E-1
 1.78525E-2 7.34236E-1 2.65206E-2
 1062.50     7.50      -0.3       8.74354E-1 1.54100E-2 8.75265E-1
 1.85625E-2 8.72335E-1 2.76410E-2
 1062.50     7.50      -0.1       8.87430E-1 1.53045E-2 8.89367E-1
 1.80709E-2 8.82518E-1 2.87823E-2
 1062.50     7.50       0.1       8.93316E-1 1.48727E-2 8.88816E-1
 1.75603E-2 9.04736E-1 2.79733E-2
 1062.50     7.50       0.3       8.44785E-1 1.46247E-2 8.64263E-1
 1.73933E-2 7.97788E-1 2.70172E-2
 1062.50     7.50       0.5       7.89653E-1 1.44190E-2 7.73068E-1
 1.69552E-2 8.32989E-1 2.74068E-2
 1062.50     7.50       0.7       7.15607E-1 1.46232E-2 7.27019E-1
 1.80165E-2 6.93573E-1 2.50341E-2
 1062.50     7.50       0.9       4.83799E-1 1.33850E-2 4.73881E-1
 1.62711E-2 5.04561E-1 2.35411E-2
 1077.50     7.50      -0.9       6.13001E-1 1.46557E-2 6.42594E-1
 1.88790E-2 5.68121E-1 2.32494E-2
 1077.50     7.50      -0.7       6.68365E-1 1.44774E-2 6.98509E-1
 1.78269E-2 6.09975E-1 2.48110E-2
 1077.50     7.50      -0.5       7.15259E-1 1.44386E-2 7.12407E-1
 1.75425E-2 7.21249E-1 2.54226E-2
 1077.50     7.50      -0.3       7.83055E-1 1.45997E-2 8.04256E-1
 1.73377E-2 7.31378E-1 2.70684E-2
 1077.50     7.50      -0.1       8.45927E-1 1.48011E-2 8.54683E-1
 1.74101E-2 8.23103E-1 2.81096E-2
 1077.50     7.50       0.1       8.67355E-1 1.47495E-2 8.70668E-1
 1.72071E-2 8.58179E-1 2.86385E-2
 1077.50     7.50       0.3       8.57047E-1 1.47399E-2 8.46797E-1
 1.71881E-2 8.85539E-1 2.86562E-2
 1077.50     7.50       0.5       7.96069E-1 1.42389E-2 7.97460E-1
 1.62670E-2 7.91510E-1 2.94475E-2
 1077.50     7.50       0.7       6.50192E-1 1.41398E-2 6.64021E-1
 1.70487E-2 6.19715E-1 2.53087E-2
 1077.50     7.50       0.9       4.88914E-1 1.37620E-2 4.73030E-1
 1.73910E-2 5.15525E-1 2.25096E-2
 1092.50     7.50      -0.9       6.07074E-1 1.60738E-2 6.04165E-1
 2.01807E-2 6.12122E-1 2.65838E-2
 1092.50     7.50      -0.7       6.45533E-1 1.53645E-2 6.52447E-1
 1.88615E-2 6.31897E-1 2.64890E-2
 1092.50     7.50      -0.5       7.09790E-1 1.52271E-2 7.25203E-1
 1.84328E-2 6.76671E-1 2.70203E-2
 1092.50     7.50      -0.3       7.60097E-1 1.56003E-2 7.87822E-1
 1.87280E-2 6.97253E-1 2.81962E-2
 1092.50     7.50      -0.1       8.53541E-1 1.58215E-2 8.51451E-1
 1.86388E-2 8.58931E-1 2.99286E-2
 1092.50     7.50       0.1       8.26440E-1 1.51334E-2 8.35792E-1
 1.78257E-2 8.02302E-1 2.86377E-2
 1092.50     7.50       0.3       8.50919E-1 1.53933E-2 8.32800E-1
 1.78266E-2 9.04031E-1 3.05211E-2
 1092.50     7.50       0.5       7.91242E-1 1.51159E-2 7.87629E-1
 1.77162E-2 8.00911E-1 2.89828E-2
 1092.50     7.50       0.7       6.62064E-1 1.53582E-2 6.57863E-1
 1.76428E-2 6.75206E-1 3.12060E-2
 1092.50     7.50       0.9       4.41988E-1 1.37713E-2 4.38243E-1
 1.65281E-2 4.50492E-1 2.49048E-2
 1110.00    10.00      -0.9       5.48565E-1 1.55564E-2 5.58213E-1
 1.97489E-2 5.32791E-1 2.52522E-2
 1110.00    10.00      -0.7       5.93249E-1 1.40243E-2 6.08302E-1
 1.72303E-2 5.63701E-1 2.41398E-2
 1110.00    10.00      -0.5       6.73465E-1 1.45499E-2 6.69265E-1
 1.75045E-2 6.82855E-1 2.61709E-2
 1110.00    10.00      -0.3       7.41753E-1 1.44061E-2 7.21914E-1
 1.70703E-2 7.90850E-1 2.68542E-2
 1110.00    10.00      -0.1       7.74430E-1 1.42944E-2 7.73046E-1
 1.69232E-2 7.77878E-1 2.67032E-2
 1110.00    10.00       0.1       8.34003E-1 1.42844E-2 8.18131E-1
 1.65662E-2 8.80007E-1 2.82041E-2
 1110.00    10.00       0.3       8.18207E-1 1.42667E-2 8.09376E-1
 1.65693E-2 8.43521E-1 2.80540E-2
 1110.00    10.00       0.5       7.78731E-1 1.41066E-2 7.84568E-1
 1.63040E-2 7.61350E-1 2.81353E-2
 1110.00    10.00       0.7       6.63340E-1 1.42061E-2 6.66058E-1
 1.69448E-2 6.56911E-1 2.60617E-2
 1110.00    10.00       0.9       4.60911E-1 1.33326E-2 4.68764E-1
 1.60483E-2 4.43416E-1 2.39534E-2
 1130.00    10.00      -0.9       4.94416E-1 1.27660E-2 5.18106E-1
 1.61451E-2 4.54897E-1 2.08528E-2
 1130.00    10.00      -0.7       5.46494E-1 1.21457E-2 5.69244E-1
 1.49385E-2 5.02126E-1 2.08618E-2
 1130.00    10.00      -0.5       6.02002E-1 1.21192E-2 5.99592E-1
 1.43752E-2 6.07927E-1 2.25342E-2
 1130.00    10.00      -0.3       6.87232E-1 1.26271E-2 6.82789E-1
 1.49937E-2 6.98070E-1 2.34173E-2
 1130.00    10.00      -0.1       7.75485E-1 1.28552E-2 7.70754E-1
 1.50610E-2 7.88182E-1 2.46733E-2
 1130.00    10.00       0.1       8.13184E-1 1.27815E-2 7.94743E-1
 1.48366E-2 8.66262E-1 2.51714E-2
 1130.00    10.00       0.3       8.11285E-1 1.26952E-2 8.15328E-1
 1.45695E-2 7.98534E-1 2.58736E-2
 1130.00    10.00       0.5       7.74123E-1 1.27207E-2 7.76079E-1
 1.46810E-2 7.68229E-1 2.54808E-2
 1130.00    10.00       0.7       7.16019E-1 1.34840E-2 7.25418E-1
 1.53587E-2 6.84410E-1 2.81643E-2
 1130.00    10.00       0.9       4.68755E-1 1.19919E-2 4.66950E-1
 1.43821E-2 4.72873E-1 2.17220E-2
 1150.00    10.00      -0.9       4.72332E-1 1.35817E-2 4.81990E-1
 1.69404E-2 4.54954E-1 2.27242E-2
 1150.00    10.00      -0.7       5.27061E-1 1.28350E-2 5.37018E-1
 1.56558E-2 5.06652E-1 2.24145E-2
 1150.00    10.00      -0.5       5.93615E-1 1.30016E-2 6.09028E-1
 1.54805E-2 5.56713E-1 2.39536E-2
 1150.00    10.00      -0.3       6.49321E-1 1.28256E-2 6.52952E-1
 1.51860E-2 6.40290E-1 2.39527E-2
 1150.00    10.00      -0.1       7.18492E-1 1.31402E-2 7.23874E-1
 1.51447E-2 7.02103E-1 2.64287E-2
 1150.00    10.00       0.1       7.91487E-1 1.33341E-2 7.89225E-1
 1.54276E-2 7.98167E-1 2.65104E-2
 1150.00    10.00       0.3       8.24498E-1 1.35173E-2 8.05672E-1
 1.54991E-2 8.84315E-1 2.76277E-2
 1150.00    10.00       0.5       7.71906E-1 1.34479E-2 7.79908E-1
 1.56065E-2 7.48831E-1 2.65013E-2
 1150.00    10.00       0.7       6.99286E-1 1.34363E-2 6.95436E-1
 1.59103E-2 7.08860E-1 2.50884E-2
 1150.00    10.00       0.9       4.62993E-1 1.22791E-2 4.38171E-1
 1.46692E-2 5.21098E-1 2.24438E-2
 1170.00    10.00      -0.9       4.08017E-1 1.28786E-2 4.39896E-1
 1.64586E-2 3.57672E-1 2.06830E-2
 1170.00    10.00      -0.7       4.57990E-1 1.17350E-2 4.60793E-1
 1.42463E-2 4.52074E-1 2.06968E-2
 1170.00    10.00      -0.5       5.45549E-1 1.22885E-2 5.48134E-1
 1.46754E-2 5.39484E-1 2.24789E-2
 1170.00    10.00      -0.3       6.44966E-1 1.27382E-2 6.41645E-1
 1.50484E-2 6.53360E-1 2.39254E-2
 1170.00    10.00      -0.1       7.16562E-1 1.28416E-2 7.19689E-1
 1.49583E-2 7.07797E-1 2.50410E-2
 1170.00    10.00       0.1       7.62381E-1 1.27011E-2 7.65083E-1
 1.48680E-2 7.55086E-1 2.44322E-2
 1170.00    10.00       0.3       8.04880E-1 1.28881E-2 7.88466E-1
 1.46245E-2 8.61953E-1 2.72702E-2
 1170.00    10.00       0.5       7.61830E-1 1.32963E-2 7.60811E-1
 1.52847E-2 7.65000E-1 2.69585E-2
 1170.00    10.00       0.7       6.77417E-1 1.33866E-2 6.86722E-1
 1.57978E-2 6.53721E-1 2.52099E-2
 1170.00    10.00       0.9       4.39773E-1 1.21546E-2 4.20078E-1
 1.43769E-2 4.89122E-1 2.27576E-2
 1190.00    10.00      -0.9       3.94046E-1 1.32736E-2 3.92553E-1
 1.65037E-2 3.96780E-1 2.23370E-2
 1190.00    10.00      -0.7       4.36277E-1 1.18923E-2 4.53392E-1
 1.45971E-2 4.02494E-1 2.05084E-2
 1190.00    10.00      -0.5       5.29492E-1 1.26534E-2 5.34304E-1
 1.50580E-2 5.17930E-1 2.33415E-2
 1190.00    10.00      -0.3       6.14731E-1 1.28002E-2 6.16278E-1
 1.49992E-2 6.10586E-1 2.45561E-2
 1190.00    10.00      -0.1       6.88874E-1 1.28919E-2 7.05569E-1
 1.51224E-2 6.44470E-1 2.46629E-2
 1190.00    10.00       0.1       7.44093E-1 1.31444E-2 7.59347E-1
 1.51836E-2 6.98470E-1 2.62590E-2
 1190.00    10.00       0.3       7.64250E-1 1.31416E-2 7.47505E-1
 1.48360E-2 8.25255E-1 2.83173E-2
 1190.00    10.00       0.5       7.59976E-1 1.37152E-2 7.65030E-1
 1.55573E-2 7.42348E-1 2.90566E-2
 1190.00    10.00       0.7       6.95110E-1 1.45092E-2 6.90698E-1
 1.66660E-2 7.08924E-1 2.94893E-2
 1190.00    10.00       0.9       4.68169E-1 1.26703E-2 4.70755E-1
 1.51511E-2 4.62154E-1 2.31072E-2
 1210.00    10.00      -0.9       3.49128E-1 1.36313E-2 3.62673E-1
 1.73120E-2 3.27031E-1 2.21122E-2
 1210.00    10.00      -0.7       4.14732E-1 1.24218E-2 4.15851E-1
 1.48993E-2 4.12183E-1 2.24955E-2
 1210.00    10.00      -0.5       5.15254E-1 1.32799E-2 5.16200E-1
 1.58868E-2 5.13061E-1 2.41952E-2
 1210.00    10.00      -0.3       5.89464E-1 1.33383E-2 5.88201E-1
 1.55089E-2 5.93052E-1 2.61422E-2
 1210.00    10.00      -0.1       6.67986E-1 1.33283E-2 6.67699E-1
 1.55850E-2 6.68767E-1 2.57161E-2
 1210.00    10.00       0.1       7.30460E-1 1.35604E-2 7.30465E-1
 1.54511E-2 7.30443E-1 2.82908E-2
 1210.00    10.00       0.3       7.41704E-1 1.36265E-2 7.41400E-1
 1.54569E-2 7.42762E-1 2.88675E-2
 1210.00    10.00       0.5       7.32400E-1 1.44028E-2 7.15872E-1
 1.59579E-2 8.05013E-1 3.34483E-2
 1210.00    10.00       0.7       6.37145E-1 1.45408E-2 6.35973E-1
 1.62316E-2 6.41911E-1 3.27212E-2
 1210.00    10.00       0.9       4.71791E-1 1.33415E-2 4.62489E-1
 1.54883E-2 4.98542E-1 2.62659E-2
 1230.00    10.00      -0.9       3.29349E-1 1.36596E-2 3.30913E-1
 1.72812E-2 3.26744E-1 2.22996E-2
 1230.00    10.00      -0.7       3.53833E-1 1.20246E-2 3.67815E-1
 1.46157E-2 3.24545E-1 2.11532E-2
 1230.00    10.00      -0.5       4.70683E-1 1.31726E-2 4.79406E-1
 1.56820E-2 4.49777E-1 2.42764E-2
 1230.00    10.00      -0.3       5.78016E-1 1.36982E-2 5.91044E-1
 1.60900E-2 5.43705E-1 2.61116E-2
 1230.00    10.00      -0.1       6.61959E-1 1.38728E-2 6.69597E-1
 1.58901E-2 6.37477E-1 2.84486E-2
 1230.00    10.00       0.1       7.13328E-1 1.41204E-2 7.08520E-1
 1.61674E-2 7.28791E-1 2.89933E-2
 1230.00    10.00       0.3       7.51056E-1 1.44265E-2 7.57306E-1
 1.63778E-2 7.29420E-1 3.04750E-2
 1230.00    10.00       0.5       7.14951E-1 1.46251E-2 7.16943E-1
 1.64593E-2 7.07477E-1 3.18797E-2
 1230.00    10.00       0.7       6.59110E-1 1.60358E-2 6.58966E-1
 1.83120E-2 6.59582E-1 3.32101E-2
 1230.00    10.00       0.9       4.73434E-1 1.45841E-2 4.71514E-1
 1.66417E-2 4.79790E-1 3.02793E-2
 1250.00    10.00      -0.9       3.12412E-1 1.36429E-2 3.39268E-1
 1.74229E-2 2.69845E-1 2.19350E-2
 1250.00    10.00      -0.7       3.99463E-1 1.29345E-2 4.07380E-1
 1.55829E-2 3.81926E-1 2.31924E-2
 1250.00    10.00      -0.5       4.61694E-1 1.36286E-2 4.62035E-1
 1.59685E-2 4.60781E-1 2.61511E-2
 1250.00    10.00      -0.3       5.72123E-1 1.43093E-2 5.77723E-1
 1.66102E-2 5.56006E-1 2.81790E-2
 1250.00    10.00      -0.1       6.19553E-1 1.40004E-2 6.21031E-1
 1.59455E-2 6.14581E-1 2.92504E-2
 1250.00    10.00       0.1       6.83450E-1 1.43176E-2 6.73469E-1
 1.60007E-2 7.23547E-1 3.20700E-2
 1250.00    10.00       0.3       7.21952E-1 1.49327E-2 7.30000E-1
 1.67382E-2 6.90566E-1 3.30529E-2
 1250.00    10.00       0.5       7.28638E-1 1.51060E-2 7.25751E-1
 1.70739E-2 7.39044E-1 3.24109E-2
 1250.00    10.00       0.7       6.51527E-1 1.58045E-2 6.39874E-1
 1.78755E-2 6.93257E-1 3.38264E-2
 1250.00    10.00       0.9       4.38051E-1 1.44918E-2 4.21318E-1
 1.67208E-2 4.88564E-1 2.90511E-2
 1270.00    10.00      -0.9       2.78481E-1 1.23033E-2 2.97194E-1
 1.57371E-2 2.49064E-1 1.97319E-2
 1270.00    10.00      -0.7       3.61983E-1 1.13826E-2 3.70692E-1
 1.36962E-2 3.42534E-1 2.04669E-2
 1270.00    10.00      -0.5       4.17622E-1 1.20893E-2 4.39688E-1
 1.44641E-2 3.66479E-1 2.20202E-2
 1270.00    10.00      -0.3       5.21205E-1 1.27371E-2 5.17410E-1
 1.46733E-2 5.32809E-1 2.56548E-2
 1270.00    10.00      -0.1       5.75860E-1 1.26751E-2 5.73937E-1
 1.43783E-2 5.82564E-1 2.68484E-2
 1270.00    10.00       0.1       6.41281E-1 1.30795E-2 6.35709E-1
 1.46080E-2 6.63808E-1 2.93709E-2
 1270.00    10.00       0.3       6.98343E-1 1.34453E-2 7.00128E-1
 1.51206E-2 6.91602E-1 2.93871E-2
 1270.00    10.00       0.5       6.74963E-1 1.41619E-2 6.68199E-1
 1.54980E-2 7.09195E-1 3.48651E-2
 1270.00    10.00       0.7       6.11801E-1 1.44139E-2 6.00672E-1
 1.64638E-2 6.48331E-1 2.98277E-2
 1270.00    10.00       0.9       4.49208E-1 1.36035E-2 4.35985E-1
 1.56666E-2 4.89730E-1 2.74255E-2
 1290.00    10.00      -0.9       2.76351E-1 1.34751E-2 2.87545E-1
 1.72067E-2 2.58598E-1 2.16690E-2
 1290.00    10.00      -0.7       3.17486E-1 1.18831E-2 3.32027E-1
 1.46747E-2 2.89793E-1 2.02522E-2
 1290.00    10.00      -0.5       4.15113E-1 1.34130E-2 4.28984E-1
 1.58056E-2 3.79415E-1 2.53556E-2
 1290.00    10.00      -0.3       4.93343E-1 1.39189E-2 5.01255E-1
 1.60781E-2 4.69679E-1 2.78066E-2
 1290.00    10.00      -0.1       5.61353E-1 1.40077E-2 5.67663E-1
 1.59766E-2 5.40380E-1 2.91264E-2
 1290.00    10.00       0.1       6.66241E-1 1.46917E-2 6.58233E-1
 1.63801E-2 6.99188E-1 3.32250E-2
 1290.00    10.00       0.3       6.87968E-1 1.48525E-2 6.73203E-1
 1.65694E-2 7.48343E-1 3.35052E-2
 1290.00    10.00       0.5       6.71140E-1 1.55552E-2 6.54477E-1
 1.69233E-2 7.61874E-1 3.94910E-2
 1290.00    10.00       0.7       6.18918E-1 1.70075E-2 6.06669E-1
 1.92600E-2 6.62289E-1 3.62410E-2
 1290.00    10.00       0.9       4.13184E-1 1.64121E-2 4.02025E-1
 1.92107E-2 4.43334E-1 3.15769E-2
 1310.00    10.00      -0.9       2.82491E-1 1.24043E-2 2.84641E-1
 1.57862E-2 2.79022E-1 2.00547E-2
 1310.00    10.00      -0.7       3.06139E-1 1.09726E-2 3.15873E-1
 1.31243E-2 2.83535E-1 1.99996E-2
 1310.00    10.00      -0.5       3.99085E-1 1.19441E-2 3.99638E-1
 1.38740E-2 3.97500E-1 2.34759E-2
 1310.00    10.00      -0.3       4.68731E-1 1.24892E-2 4.56924E-1
 1.41269E-2 5.10979E-1 2.67232E-2
 1310.00    10.00      -0.1       5.46899E-1 1.26102E-2 5.37171E-1
 1.41192E-2 5.85248E-1 2.80344E-2
 1310.00    10.00       0.1       6.20752E-1 1.31219E-2 6.00227E-1
 1.46102E-2 7.06377E-1 2.98407E-2
 1310.00    10.00       0.3       6.40110E-1 1.29909E-2 6.33342E-1
 1.45122E-2 6.67407E-1 2.91457E-2
 1310.00    10.00       0.5       6.27950E-1 1.39317E-2 6.37323E-1
 1.58210E-2 5.95585E-1 2.93988E-2
 1310.00    10.00       0.7       6.05108E-1 1.44042E-2 5.84732E-1
 1.63319E-2 6.76461E-1 3.05620E-2
 1310.00    10.00       0.9       4.41945E-1 1.47762E-2 4.45312E-1
 1.66569E-2 4.29509E-1 3.20115E-2
 1330.00    10.00      -0.9       2.48687E-1 1.25731E-2 2.75827E-1
 1.66653E-2 2.12829E-1 1.91559E-2
 1330.00    10.00      -0.7       2.72667E-1 1.09007E-2 2.75283E-1
 1.28838E-2 2.66077E-1 2.04492E-2
 1330.00    10.00      -0.5       3.59747E-1 1.21403E-2 3.54933E-1
 1.40564E-2 3.73884E-1 2.40867E-2
 1330.00    10.00      -0.3       4.67161E-1 1.29409E-2 4.65667E-1
 1.46956E-2 4.72322E-1 2.73087E-2
 1330.00    10.00      -0.1       5.17974E-1 1.30687E-2 5.25865E-1
 1.48638E-2 4.91098E-1 2.74326E-2
 1330.00    10.00       0.1       5.93960E-1 1.36336E-2 5.89535E-1
 1.51989E-2 6.12186E-1 3.08452E-2
 1330.00    10.00       0.3       6.23903E-1 1.39779E-2 6.18551E-1
 1.54574E-2 6.47917E-1 3.27409E-2
 1330.00    10.00       0.5       6.14883E-1 1.44197E-2 6.19632E-1
 1.61252E-2 5.95928E-1 3.22158E-2
 1330.00    10.00       0.7       5.71568E-1 1.49726E-2 5.57321E-1
 1.66461E-2 6.31927E-1 3.42631E-2
 1330.00    10.00       0.9       4.18775E-1 1.44470E-2 4.06971E-1
 1.65760E-2 4.56077E-1 2.94666E-2
 1350.00    10.00      -0.9       2.49364E-1 1.17163E-2 2.69350E-1
 1.53019E-2 2.21044E-1 1.82149E-2
 1350.00    10.00      -0.7       3.01289E-1 1.10475E-2 3.24160E-1
 1.37182E-2 2.59085E-1 1.86347E-2
 1350.00    10.00      -0.5       3.63739E-1 1.17519E-2 3.60150E-1
 1.39594E-2 3.72471E-1 2.17750E-2
 1350.00    10.00      -0.3       4.61661E-1 1.25596E-2 4.59548E-1
 1.45725E-2 4.67765E-1 2.47657E-2
 1350.00    10.00      -0.1       5.05827E-1 1.28452E-2 5.11219E-1
 1.46353E-2 4.87739E-1 2.68033E-2
 1350.00    10.00       0.1       5.91483E-1 1.36368E-2 5.69826E-1
 1.49779E-2 6.96437E-1 3.29720E-2
 1350.00    10.00       0.3       6.05125E-1 1.37262E-2 5.99490E-1
 1.50923E-2 6.32091E-1 3.30161E-2
 1350.00    10.00       0.5       6.20973E-1 1.41709E-2 6.06204E-1
 1.56950E-2 6.86128E-1 3.29654E-2
 1350.00    10.00       0.7       5.97661E-1 1.56291E-2 5.93600E-1
 1.76135E-2 6.12698E-1 3.38928E-2
 1350.00    10.00       0.9       4.20267E-1 1.42160E-2 4.03448E-1
 1.63283E-2 4.72948E-1 2.88987E-2
 1370.00    10.00      -0.9       2.29148E-1 1.18487E-2 2.45943E-1
 1.52143E-2 2.03260E-1 1.88889E-2
 1370.00    10.00      -0.7       2.93843E-1 1.08639E-2 2.98682E-1
 1.29146E-2 2.82133E-1 2.00922E-2
 1370.00    10.00      -0.5       3.30033E-1 1.13720E-2 3.31801E-1
 1.32458E-2 3.25075E-1 2.21785E-2
 1370.00    10.00      -0.3       4.39720E-1 1.25401E-2 4.55066E-1
 1.45995E-2 3.96545E-1 2.44885E-2
 1370.00    10.00      -0.1       4.96716E-1 1.27219E-2 4.97166E-1
 1.42725E-2 4.94976E-1 2.80646E-2
 1370.00    10.00       0.1       5.65137E-1 1.28420E-2 5.47712E-1
 1.43328E-2 6.36070E-1 2.89181E-2
 1370.00    10.00       0.3       5.96584E-1 1.32255E-2 5.87876E-1
 1.47084E-2 6.33354E-1 3.02240E-2
 1370.00    10.00       0.5       5.95597E-1 1.41801E-2 5.95201E-1
 1.55150E-2 5.97608E-1 3.49443E-2
 1370.00    10.00       0.7       5.92720E-1 1.49351E-2 5.83401E-1
 1.67572E-2 6.28718E-1 3.29339E-2
 1370.00    10.00       0.9       4.42467E-1 1.39978E-2 4.25478E-1
 1.56340E-2 5.11119E-1 3.14285E-2
ENDDATA            844
ENDSUBENT          858
SUBENT        G0040005   20140325   20141007   20140911       G030
BIB                  3          9
REACTION  1(2-HE-3(G,ETA+X)0-NN-1,,SIG)
            weighted average of average 2gammas and 6gammas
             events from 3He(g,eta+n)X
          2(2-HE-3(G,ETA+X)0-NN-1,,SIG)
            data derived from 2gammas events from 3He(g,eta+n)X
          3(2-HE-3(G,ETA+X)0-NN-1,,SIG)
            data derived from 6gammas events from 3He(g,eta+n)X
PART-DET   (G,N)
STATUS     (TABLE) Plotted in Fig.14 of Euro.Phys.J.A49(2013)154
ENDBIB               9
NOCOMMON             0          0
DATA                 8         43
EN         EN-RSL     DATA      1ERR-S     1DATA      2ERR-S     2
DATA      3ERR-S     3
MEV        MEV        MICRO-B    MICRO-B    MICRO-B    MICRO-B
MICRO-B    MICRO-B
  655.00    25.00      5.18186E-1 3.08950E-2 6.87510E-1 5.49064E-2
 4.66778E-1 4.79333E-2
  690.00    10.00      1.49850E+0 5.26270E-2 1.53347E+0 7.01375E-2
 1.46727E+0 8.63475E-2
  710.00    10.00      2.52299E+0 7.32468E-2 2.56551E+0 9.11501E-2
 2.45287E+0 1.25141E-1
  730.00    10.00      3.32506E+0 5.92214E-2 3.45068E+0 7.38815E-2
 3.07769E+0 9.99598E-2
  747.50     7.50      3.87199E+0 6.51724E-2 4.03863E+0 8.05818E-2
 3.53926E+0 1.11507E-1
  762.50     7.50      4.26499E+0 7.24014E-2 4.25487E+0 8.71985E-2
 4.29027E+0 1.31293E-1
  777.50     7.50      4.58025E+0 7.03401E-2 4.75461E+0 8.61527E-2
 4.22256E+0 1.23318E-1
  792.50     7.50      4.80253E+0 6.59435E-2 4.99950E+0 8.02907E-2
 4.36639E+0 1.16838E-1
  807.50     7.50      5.09595E+0 6.63237E-2 5.18539E+0 7.98954E-2
 4.96094E+0 1.22978E-1
  822.50     7.50      5.05297E+0 6.79319E-2 5.10815E+0 8.10137E-2
 4.95573E+0 1.28064E-1
  837.50     7.50      5.11703E+0 7.07243E-2 5.16600E+0 8.28454E-2
 4.98086E+0 1.36269E-1
  852.50     7.50      5.10206E+0 6.93332E-2 5.24832E+0 8.19430E-2
 4.70836E+0 1.30885E-1
  867.50     7.50      4.97625E+0 6.46540E-2 5.00112E+0 7.53780E-2
 4.89914E+0 1.27078E-1
  882.50     7.50      4.73468E+0 6.03761E-2 4.82160E+0 7.05705E-2
 4.46809E+0 1.17496E-1
  897.50     7.50      4.67667E+0 6.50011E-2 4.74840E+0 7.57898E-2
 4.49072E+0 1.28476E-1
  912.50     7.50      4.43701E+0 6.36925E-2 4.48767E+0 7.38083E-2
 4.29289E+0 1.27971E-1
  927.50     7.50      4.30717E+0 5.97843E-2 4.32381E+0 6.87011E-2
 4.26616E+0 1.22746E-1
  942.50     7.50      4.17276E+0 5.87003E-2 4.28294E+0 6.82171E-2
 3.87967E+0 1.17358E-1
  957.50     7.50      4.08289E+0 6.34870E-2 4.05374E+0 7.21646E-2
 4.18264E+0 1.35382E-1
  972.50     7.50      4.07011E+0 5.81157E-2 4.08122E+0 6.63473E-2
 4.06667E+0 1.22658E-1
  987.50     7.50      3.87892E+0 5.66892E-2 3.90841E+0 6.45936E-2
 3.79869E+0 1.20305E-1
 1002.50     7.50      3.79545E+0 5.79807E-2 3.80115E+0 6.59177E-2
 3.82295E+0 1.25101E-1
 1017.50     7.50      3.65579E+0 5.73328E-2 3.63919E+0 6.49861E-2
 3.76997E+0 1.24766E-1
 1032.50     7.50      3.57314E+0 5.71854E-2 3.50010E+0 6.41983E-2
 3.92024E+0 1.29507E-1
 1047.50     7.50      3.49957E+0 5.94209E-2 3.43294E+0 6.64051E-2
 3.79409E+0 1.35127E-1
 1062.50     7.50      3.26754E+0 5.65680E-2 3.26238E+0 6.38371E-2
 3.30861E+0 1.24504E-1
 1077.50     7.50      3.21218E+0 5.54609E-2 3.26720E+0 6.29903E-2
 3.02425E+0 1.18380E-1
 1092.50     7.50      3.16384E+0 5.86499E-2 3.13336E+0 6.59329E-2
 3.35747E+0 1.32928E-1
 1110.00    10.00      2.91637E+0 5.28908E-2 2.97184E+0 6.06187E-2
 2.88060E+0 1.16028E-1
 1130.00    10.00      2.89292E+0 4.70079E-2 2.89576E+0 5.27877E-2
 2.94278E+0 1.06312E-1
 1150.00    10.00      2.74085E+0 4.84445E-2 2.71203E+0 5.38751E-2
 2.89986E+0 1.13615E-1
 1170.00    10.00      2.69951E+0 4.66473E-2 2.68818E+0 5.21838E-2
 2.78263E+0 1.07559E-1
 1190.00    10.00      2.66767E+0 4.79565E-2 2.62092E+0 5.32415E-2
 2.93790E+0 1.14580E-1
 1210.00    10.00      2.57157E+0 4.97811E-2 2.53504E+0 5.56624E-2
 2.92948E+0 1.20956E-1
 1230.00    10.00      2.53751E+0 5.23079E-2 2.51472E+0 5.78011E-2
 2.63580E+0 1.26137E-1
 1250.00    10.00      2.38437E+0 5.20267E-2 2.37400E+0 5.76986E-2
 2.43545E+0 1.23702E-1
 1270.00    10.00      2.23794E+0 4.74450E-2 2.21529E+0 5.26623E-2
 2.41709E+0 1.14472E-1
 1290.00    10.00      2.16854E+0 5.26802E-2 2.14818E+0 5.83881E-2
 2.35840E+0 1.29432E-1
 1310.00    10.00      1.96244E+0 4.64687E-2 1.90773E+0 5.08944E-2
 2.31557E+0 1.19105E-1
 1330.00    10.00      1.87486E+0 4.72367E-2 1.83026E+0 5.18507E-2
 2.13909E+0 1.19537E-1
 1350.00    10.00      1.93292E+0 4.83738E-2 1.91766E+0 5.33162E-2
 2.07192E+0 1.23762E-1
 1370.00    10.00      1.85216E+0 4.68960E-2 1.80494E+0 5.11861E-2
 2.15299E+0 1.22032E-1
 1390.00    10.00      1.74581E+0 5.03483E-2 1.70671E+0 5.49152E-2
 1.98143E+0 1.32957E-1
ENDDATA             90
ENDSUBENT          104
SUBENT        G0040006   20140325   20141007   20140911       G030
BIB                  3          9
REACTION  1(2-HE-3(G,ETA+X)1-H-1,,SIG)
            weighted average of average 2gammas and 6gammas
             events from 3He(g,eta+p)X
          2(2-HE-3(G,ETA+X)1-H-1,,SIG)
            data derived from 2gammas events from 3He(g,eta+p)X
          3(2-HE-3(G,ETA+X)1-H-1,,SIG)
            data derived from 6gammas events from 3He(g,eta+p)X
PART-DET   (G,P)
STATUS     (TABLE) Plotted in Fig.14 of Euro.Phys.J.A49(2013)154
ENDBIB               9
NOCOMMON             0          0
DATA                 8         43
EN         EN-RSL     DATA      1ERR-S     1DATA      2ERR-S     2
DATA      3ERR-S     3
MEV        MEV        MICRO-B    MICRO-B    MICRO-B    MICRO-B
MICRO-B    MICRO-B
  655.00    25.00      8.18352E-1 1.91633E-2 1.13967E+0 2.82179E-2
 5.96402E-1 2.66691E-2
  690.00    10.00      3.52115E+0 3.85885E-2 4.01738E+0 5.08681E-2
 2.85798E+0 5.96749E-2
  710.00    10.00      6.91627E+0 6.00606E-2 7.17899E+0 7.39020E-2
 6.39636E+0 1.03211E-1
  730.00    10.00      9.92931E+0 5.43463E-2 1.01755E+1 6.60054E-2
 9.43468E+0 9.63791E-2
  747.50     7.50      1.25382E+1 6.53110E-2 1.26410E+1 7.79983E-2
 1.23089E+1 1.19784E-1
  762.50     7.50      1.41966E+1 7.53071E-2 1.43028E+1 8.95543E-2
 1.39453E+1 1.39373E-1
  777.50     7.50      1.56877E+1 7.60895E-2 1.57821E+1 9.03210E-2
 1.54626E+1 1.41528E-1
  792.50     7.50      1.64644E+1 7.31474E-2 1.64607E+1 8.65552E-2
 1.65011E+1 1.37254E-1
  807.50     7.50      1.69974E+1 7.35851E-2 1.70839E+1 8.69961E-2
 1.67833E+1 1.38113E-1
  822.50     7.50      1.69347E+1 7.57780E-2 1.70062E+1 8.97126E-2
 1.67962E+1 1.42160E-1
  837.50     7.50      1.65816E+1 7.79406E-2 1.64998E+1 9.13406E-2
 1.68066E+1 1.49668E-1
  852.50     7.50      1.63332E+1 7.66401E-2 1.62788E+1 8.97871E-2
 1.64746E+1 1.47204E-1
  867.50     7.50      1.54992E+1 7.01248E-2 1.54066E+1 8.19100E-2
 1.57526E+1 1.35856E-1
  882.50     7.50      1.47167E+1 6.54762E-2 1.46040E+1 7.63713E-2
 1.50281E+1 1.27307E-1
  897.50     7.50      1.37759E+1 6.87776E-2 1.37048E+1 8.00875E-2
 1.39673E+1 1.34379E-1
  912.50     7.50      1.28142E+1 6.64629E-2 1.26734E+1 7.71618E-2
 1.32205E+1 1.31069E-1
  927.50     7.50      1.17158E+1 6.08687E-2 1.16422E+1 7.08597E-2
 1.19440E+1 1.19187E-1
  942.50     7.50      1.06352E+1 5.84830E-2 1.05188E+1 6.77404E-2
 1.09746E+1 1.16195E-1
  957.50     7.50      9.79230E+0 6.10828E-2 9.68048E+0 7.07490E-2
 1.01141E+1 1.21318E-1
  972.50     7.50      8.91067E+0 5.34282E-2 8.81140E+0 6.19839E-2
 9.20364E+0 1.05614E-1
  987.50     7.50      7.93367E+0 5.10727E-2 7.84330E+0 5.91356E-2
 8.19479E+0 1.01548E-1
 1002.50     7.50      7.47653E+0 5.12579E-2 7.34878E+0 5.92954E-2
 7.88698E+0 1.02527E-1
 1017.50     7.50      6.72639E+0 4.87046E-2 6.61639E+0 5.62722E-2
 7.05584E+0 9.75658E-2
 1032.50     7.50      6.27060E+0 4.79471E-2 6.20663E+0 5.52993E-2
 6.46019E+0 9.67285E-2
 1047.50     7.50      5.91291E+0 4.90300E-2 5.80769E+0 5.62895E-2
 6.23174E+0 1.00024E-1
 1062.50     7.50      5.49249E+0 4.65081E-2 5.39044E+0 5.33763E-2
 5.80769E+0 9.50141E-2
 1077.50     7.50      5.20455E+0 4.50566E-2 5.11763E+0 5.17895E-2
 5.49373E+0 9.18831E-2
 1092.50     7.50      4.90027E+0 4.65045E-2 4.80560E+0 5.33759E-2
 5.22925E+0 9.54372E-2
 1110.00    10.00      4.73846E+0 4.34661E-2 4.62969E+0 4.97933E-2
 5.13020E+0 8.98953E-2
 1130.00    10.00      4.67337E+0 3.88116E-2 4.51713E+0 4.38910E-2
 5.22764E+0 8.33634E-2
 1150.00    10.00      4.52438E+0 4.00303E-2 4.38236E+0 4.52533E-2
 5.04106E+0 8.62123E-2
 1170.00    10.00      4.33474E+0 3.79090E-2 4.22383E+0 4.27612E-2
 4.73336E+0 8.25639E-2
 1190.00    10.00      4.30041E+0 3.90654E-2 4.22145E+0 4.43355E-2
 4.58584E+0 8.30533E-2
 1210.00    10.00      4.06404E+0 3.98503E-2 3.98744E+0 4.52748E-2
 4.34880E+0 8.47770E-2
 1230.00    10.00      4.10043E+0 4.18774E-2 4.03314E+0 4.74824E-2
 4.35141E+0 8.96466E-2
 1250.00    10.00      3.95540E+0 4.23507E-2 3.86174E+0 4.76152E-2
 4.30079E+0 9.35203E-2
 1270.00    10.00      3.83550E+0 3.90018E-2 3.74857E+0 4.38650E-2
 4.16141E+0 8.61035E-2
 1290.00    10.00      3.75503E+0 4.32576E-2 3.68381E+0 4.87319E-2
 4.03666E+0 9.53815E-2
 1310.00    10.00      3.60461E+0 3.93927E-2 3.53852E+0 4.43739E-2
 3.85167E+0 8.64907E-2
 1330.00    10.00      3.45435E+0 4.00792E-2 3.36202E+0 4.48058E-2
 3.81364E+0 9.06780E-2
 1350.00    10.00      3.44324E+0 4.02901E-2 3.35387E+0 4.52195E-2
 3.86422E+0 9.10064E-2
 1370.00    10.00      3.34796E+0 3.91418E-2 3.28101E+0 4.40520E-2
 3.60968E+0 8.66868E-2
 1390.00    10.00      3.25278E+0 4.28798E-2 3.18992E+0 4.79204E-2
 3.49393E+0 9.76556E-2
ENDDATA             90
ENDSUBENT          104
SUBENT        G0040007   20140325   20141007   20140911       G030
BIB                  3          9
REACTION  1(2-HE-3(G,X)0-ET-0,,SIG)
            weighted average of average 2gammas and 6gammas
             events from 3He(g,eta)X
          2(2-HE-3(G,X)0-ET-0,,SIG)
            data derived from 2gammas events from 3He(g,eta)X
          3(2-HE-3(G,X)0-ET-0,,SIG)
            data derived from 6gammas events from 3He(g,eta)X
PART-DET   (G)
STATUS     (TABLE) Plotted in Fig.14 of Euro.Phys.J.A49(2013)154
ENDBIB               9
NOCOMMON             0          0
DATA                 8         43
EN         EN-RSL     DATA      1ERR-S     1DATA      2ERR-S     2
DATA      3ERR-S     3
MEV        MEV        MICRO-B    MICRO-B    MICRO-B    MICRO-B
MICRO-B    MICRO-B
  655.00    25.00      2.31384E+0 1.10236E-2 2.30116E+0 1.41959E-2
 2.31317E+0 1.76029E-2
  690.00    10.00      6.33996E+0 2.62998E-2 6.43107E+0 3.33449E-2
 6.18023E+0 4.28502E-2
  710.00    10.00      1.07189E+1 4.31129E-2 1.07915E+1 5.39387E-2
 1.05848E+1 7.17974E-2
  730.00    10.00      1.41124E+1 3.99313E-2 1.42227E+1 4.98079E-2
 1.39071E+1 6.68479E-2
  747.50     7.50      1.71382E+1 4.91941E-2 1.73201E+1 6.08766E-2
 1.67943E+1 8.35344E-2
  762.50     7.50      1.93104E+1 5.95179E-2 1.95036E+1 7.36226E-2
 1.89644E+1 1.01191E-1
  777.50     7.50      2.05361E+1 6.28715E-2 2.07477E+1 7.74102E-2
 2.01312E+1 1.07780E-1
  792.50     7.50      2.13336E+1 6.30557E-2 2.14864E+1 7.72971E-2
 2.10359E+1 1.09038E-1
  807.50     7.50      2.19196E+1 6.57222E-2 2.20698E+1 8.03630E-2
 2.16307E+1 1.14271E-1
  822.50     7.50      2.19361E+1 6.90344E-2 2.20972E+1 8.45187E-2
 2.16418E+1 1.19828E-1
  837.50     7.50      2.16242E+1 7.34904E-2 2.18069E+1 8.94997E-2
 2.12602E+1 1.28838E-1
  852.50     7.50      2.14590E+1 7.32200E-2 2.16510E+1 8.93589E-2
 2.10777E+1 1.27764E-1
  867.50     7.50      2.05722E+1 6.83397E-2 2.08121E+1 8.36122E-2
 2.01011E+1 1.18760E-1
  882.50     7.50      1.98580E+1 6.58842E-2 2.00392E+1 7.99517E-2
 1.95017E+1 1.16390E-1
  897.50     7.50      1.88717E+1 7.03926E-2 1.90954E+1 8.54583E-2
 1.84142E+1 1.24315E-1
  912.50     7.50      1.79866E+1 6.95037E-2 1.80581E+1 8.43719E-2
 1.78424E+1 1.22808E-1
  927.50     7.50      1.67301E+1 6.51480E-2 1.68041E+1 7.90947E-2
 1.65945E+1 1.15139E-1
  942.50     7.50      1.56386E+1 6.45235E-2 1.56093E+1 7.76947E-2
 1.57222E+1 1.16206E-1
  957.50     7.50      1.46733E+1 6.82545E-2 1.46605E+1 8.21907E-2
 1.47017E+1 1.22655E-1
  972.50     7.50      1.36788E+1 6.05030E-2 1.36967E+1 7.30983E-2
 1.36658E+1 1.08170E-1
  987.50     7.50      1.25710E+1 5.98902E-2 1.26330E+1 7.26170E-2
 1.24580E+1 1.06188E-1
 1002.50     7.50      1.18677E+1 6.01721E-2 1.18514E+1 7.24736E-2
 1.19173E+1 1.08194E-1
 1017.50     7.50      1.10968E+1 5.91836E-2 1.11312E+1 7.10160E-2
 1.10451E+1 1.07579E-1
 1032.50     7.50      1.03425E+1 5.86242E-2 1.04622E+1 7.12679E-2
 1.01004E+1 1.03392E-1
 1047.50     7.50      1.00312E+1 6.03324E-2 1.00690E+1 7.26524E-2
 9.95760E+0 1.08786E-1
 1062.50     7.50      9.49775E+0 5.82600E-2 9.55039E+0 7.04437E-2
 9.39925E+0 1.04334E-1
 1077.50     7.50      9.13822E+0 5.74557E-2 9.23901E+0 6.92222E-2
 8.93378E+0 1.04735E-1
 1092.50     7.50      8.96342E+0 6.07364E-2 8.99477E+0 7.25477E-2
 8.90938E+0 1.12109E-1
 1110.00    10.00      8.63695E+0 5.68433E-2 8.62963E+0 6.80009E-2
 8.68716E+0 1.04723E-1
 1130.00    10.00      8.38223E+0 5.01099E-2 8.42326E+0 5.93445E-2
 8.32350E+0 9.48601E-2
 1150.00    10.00      8.16530E+0 5.22238E-2 8.16656E+0 6.18487E-2
 8.17960E+0 9.85083E-2
 1170.00    10.00      7.79465E+0 5.04055E-2 7.80522E+0 5.97066E-2
 7.80973E+0 9.53170E-2
 1190.00    10.00      7.63458E+0 5.18987E-2 7.68652E+0 6.10421E-2
 7.51374E+0 1.00217E-1
 1210.00    10.00      7.33401E+0 5.38167E-2 7.31711E+0 6.26789E-2
 7.42450E+0 1.07646E-1
 1230.00    10.00      7.14371E+0 5.57315E-2 7.20148E+0 6.49153E-2
 6.99934E+0 1.10993E-1
 1250.00    10.00      7.00310E+0 5.69103E-2 7.01433E+0 6.59403E-2
 7.03855E+0 1.15659E-1
 1270.00    10.00      6.56020E+0 5.16934E-2 6.57202E+0 5.97557E-2
 6.60896E+0 1.06461E-1
 1290.00    10.00      6.41556E+0 5.78855E-2 6.40460E+0 6.69156E-2
 6.57520E+0 1.20110E-1
 1310.00    10.00      6.19106E+0 5.16483E-2 6.13908E+0 5.93020E-2
 6.41299E+0 1.07888E-1
 1330.00    10.00      5.87355E+0 5.29965E-2 5.86938E+0 6.08572E-2
 5.95111E+0 1.11784E-1
 1350.00    10.00      5.90883E+0 5.23539E-2 5.88358E+0 6.04343E-2
 6.13723E+0 1.10117E-1
 1370.00    10.00      5.74356E+0 5.12225E-2 5.72133E+0 5.85135E-2
 5.91894E+0 1.09845E-1
 1390.00    10.00      5.37856E+0 5.68900E-2 5.45794E+0 6.51952E-2
 5.20956E+0 1.21883E-1
ENDDATA             90
ENDSUBENT          104
ENDENTRY             7
