ENTRY            14109   20120813   20121203   20121127       1385
SUBENT        14109001   20120813   20121203   20121127       1385
BIB                 11         23
INSTITUTE  (1USALAS,2FR BRC,1USALRL)
REFERENCE  ((S,ISINN-10,196,2003)=(S,JINR-E3-2003-10,196,2003))
AUTHOR     (T.Granier,T.Ethvignot,P.Casoli,R.O.Nelson,R.C.Haight,
            M.Devlin,R.Drosg,N.Fotiades,J.M.O'Donnell,W.Younes,
            P.E.Garrett,J.A.Becker)
TITLE      Experimental studies of prompt neutrons and photons in
            intermediate energy neutron-induced fission
FACILITY   (LINAC,1USALAS) the 800MeV proton accelerator at the
            Los Alamos Neutron Science Center (LANSCE).
INC-SOURCE (SPALL) Neutron production from spallation of proton
            on a tungsten target. The 800 MeV proton beam produced
            by the LANSCE accelerator can be directed to the
            spallation source through the Proton Storage Ring
            (PSR).
DETECTOR   (GE-IN) GEANIE Germanium array
SAMPLE     Uranium 238 foil
PART-DET   (G)
           (FF)
METHOD     (TOF)
HISTORY    (20060814C) DR
           (20091125A) NDS: ref. on ISINN was corrected:
             R,ISINN-11 => S,ISINN-10
           (20120813U) SD: Ref. on JINR-E3-2003-10 was added.
ENDBIB              23
NOCOMMON             0          0
ENDSUBENT           26
SUBENT        14109002   20060815   20070306   20070213       1342
BIB                  3          3
REACTION   (92-U-238(N,F)ELEM,CHG,FY,,REL)
ERR-ANALYS (DATA-ERR) No information
STATUS     (CURVE)
ENDBIB               3
NOCOMMON             0          0
DATA                 5         72
EN         EN-MIN     ELEMENT    DATA       DATA-ERR
MEV        MEV        NO-DIM     ARB-UNITS  ARB-UNITS
 3.5                      3.5E+01  9.683E+00  1.172E+00
 3.5                      3.6E+01  1.219E+01  1.262E+00
 3.5                      3.7E+01  6.728E+00  5.553E-01
 3.5                      3.8E+01  9.165E+00
 3.5                      3.9E+01  5.161E+00
 3.5                      4.0E+01  7.172E+00
 3.5                      4.1E+01  3.844E+00
 3.5                      4.2E+01  2.858E+00  4.261E-01
 3.5                      4.3E+01  1.072E+00  1.296E-01
 3.5                      4.4E+01  8.977E-01  1.242E-01
 3.5                      4.5E+01  7.520E-01  1.168E-01
 3.5                      4.6E+01  1.166E+00  1.613E-01
 3.5                      4.8E+01  1.102E+00  1.618E-01
 3.5                      4.9E+01  8.438E+00  1.920E+00
 3.5                      5.0E+01  1.533E+01  4.497E+00
 3.5                      5.1E+01  9.821E+00  1.242E+00
 3.5                      5.2E+01  1.338E+01
 3.5                      5.3E+01  1.667E+01
 3.5                      5.4E+01  1.527E+01
 3.5                      5.5E+01  1.038E+01
 3.5                      5.6E+01  6.522E+00
 3.5                      5.7E+01  4.707E+00
 3.5                      5.8E+01  2.498E+00
 3.5                      5.9E+01  3.722E-01  6.094E-02
 3.5                      6.0E+01  3.547E-01  4.906E-02
14.                       3.6E+01  9.560E+00  1.478E+00
14.                       3.7E+01  8.753E+00  1.131E+00
14.                       3.8E+01  7.260E+00  1.183E+00
14.                       3.9E+01  6.517E+00  6.138E-01
14.                       4.0E+01  7.490E+00  6.380E-01
14.                       4.2E+01  3.539E+00  5.471E-01
14.                       4.3E+01  2.633E+00  2.481E-01
14.                       4.4E+01  2.184E+00  2.635E-01
14.                       4.5E+01  1.866E+00  3.040E-01
14.                       4.6E+01  1.813E+00  3.685E-01
14.                       4.8E+01  2.696E+00  5.696E-01
14.                       4.9E+01  7.845E+00  7.382E-01
14.                       5.1E+01  6.841E+00  8.248E-01
14.                       5.2E+01  1.451E+01  1.988E+00
14.                       5.3E+01  1.215E+01
14.                       5.4E+01  7.348E+00  9.251E-01
14.                       5.5E+01  1.266E+01
14.                       5.6E+01  4.764E+00
14.                       5.7E+01  4.720E+00
14.                       5.8E+01  2.663E+00  3.213E-01
14.                       5.9E+01  1.742E+00  2.400E-01
14.                       6.0E+01  5.823E-01
14.                       6.1E+01  6.625E-01
           50.            3.6E+01  9.612E+00  8.180E-01
           50.            3.7E+01  8.882E+00  7.558E-01
           50.            3.8E+01  1.399E+01
           50.            3.9E+01  7.217E+00
           50.            4.0E+01  7.508E+00
           50.            4.1E+01  4.958E+00
           50.            4.2E+01  5.923E+00
           50.            4.3E+01  1.000E+01
           50.            4.4E+01  6.735E+00
           50.            4.5E+01  5.865E+00
           50.            4.6E+01  8.046E+00
           50.            4.8E+01  8.537E+00  1.267E+00
           50.            4.9E+01  1.756E+01  3.213E+00
           50.            5.1E+01  1.000E+01
           50.            5.2E+01  1.243E+01
           50.            5.3E+01  8.288E+00
           50.            5.4E+01  4.719E+00  5.689E-01
           50.            5.5E+01  9.424E+00
           50.            5.6E+01  4.191E+00
           50.            5.7E+01  4.317E+00
           50.            5.8E+01  2.851E+00
           50.            5.9E+01  1.545E+00
           50.            6.1E+01  4.233E-01
           50.            6.2E+01  2.686E-01
ENDDATA             74
ENDSUBENT           82
ENDENTRY             2
