ENTRY            14118   20130716   20131120   20131101       1392
SUBENT        14118001   20130716   20131120   20131101       1392
BIB                 10         18
TITLE      Cross-section standards for neutron-induced gamma-ray
           production in the MeV energy range
AUTHOR     (R.O.Nelson,N.Fotiades,M.Devlin,J.A.Becker,P.E.Garrett,
           W.Younes)
REFERENCE  (C,2004SANTA,1,838,2004)
           #doi:10.1063/1.1945136
INSTITUTE  (1USALAS,1USALRL)
FACILITY   (ACCEL,1USALAS) WNR LANSCE accelerator.
INC-SOURCE (SPALL) 800 MeV protons on tungsten target.
DETECTOR   (HPGE) High purity germanium gamma detector GEANIE.
METHOD     (TOF) Flight path of about 20.34 meters.
MONITOR    In all measurements the gamma-ray detector efficiency
           was determined in situ using calibrated gamma-ray
           sources such as 152Eu and mixed radionuclide sources.
HISTORY    (20061117C) DR
           (20080710A) BIB update.
           (20090218A) Corrections in subentries 2,4,6,7.
           (20130624A) BP: major corrections in subentry 2.
ENDBIB              18
NOCOMMON             0          0
ENDSUBENT           21
SUBENT        14118002   20130716   20131120   20131101       1392
BIB                  7         14
REACTION   (26-FE-0(N,X)0-G-0,PAR,DA,,4PI)
EXP-YEAR   (1994)
SAMPLE     Natural Fe sample
METHOD     Neutron flux determined using fission ionization
            chamber measurements of 238U and 235U.
ERR-ANALYS (ERR-S) Statistical errors of the gamma-ray peak
           analysis.
STATUS     (TABLE) Data from authors.
           (COREL,13884002) Data from an earlier experiment.
HISTORY    (20080710A) Reaction, data heading corrected.
           (20090218A) OS. Reaction corrected with authors
           agreement.
           (20130612R) Data received from R.Nelson, reaction code
           was changed.
ENDBIB              14
COMMON               2          3
E          ANG
KEV        ADEG
847.       125.0
ENDCOMMON            3
DATA                 4        208
EN         EN-ERR     DATA       ERR-S
MEV        MEV        MB         MB
      4.025       0.05   1299.087   13.27417
      4.075       0.05   1272.860   12.93231
      4.125       0.05   1243.659   13.27105
      4.175       0.05   1157.131   13.30269
      4.225       0.05   1179.175   13.03299
      4.275       0.05   1172.170   13.56586
      4.325       0.05   1065.082   12.77560
      4.375       0.05   1029.882   12.68419
      4.425       0.05   1150.692   13.39154
      4.475       0.05   1244.395   13.76681
      4.525       0.05   1236.656   13.96600
      4.575       0.05   1276.163   14.11679
      4.625       0.05   1218.850   13.29967
      4.675       0.05   1266.735   13.41507
      4.725       0.05   1335.360   13.99504
      4.775       0.05   1306.780   14.10015
      4.825       0.05   1305.844   14.13931
      4.875       0.05   1308.306   14.02907
      4.925       0.05   1334.870   14.23674
      4.975       0.05   1358.642   14.51899
      5.025       0.05   1362.016   14.77045
      5.075       0.05   1242.468   14.63001
      5.125       0.05   1277.189   14.68040
      5.175       0.05   1330.435   15.13262
      5.225       0.05   1322.627   15.17053
      5.275       0.05   1321.074   14.97685
      5.325       0.05   1236.251   14.80918
      5.375       0.05   1378.993   15.52260
      5.425       0.05   1329.303   14.99455
      5.475       0.05   1394.947   16.00183
      5.525       0.05   1328.665   15.95987
      5.575       0.05   1316.502   16.13030
      5.625       0.05   1269.681   15.99870
      5.675       0.05   1239.012   15.27238
      5.725       0.05   1333.343   16.05673
      5.775       0.05   1286.459   15.62825
      5.825       0.05   1308.694   16.06634
      5.875       0.05   1327.513   16.26887
      5.925       0.05   1369.426   16.63615
      5.975       0.05   1404.423   17.07173
      6.025       0.05   1325.474   16.76499
      6.075       0.05   1302.952   16.45600
      6.125       0.05   1320.687   16.63885
      6.175       0.05   1321.357   16.83183
      6.225       0.05   1347.829   17.76941
      6.275       0.05   1319.537   17.21765
      6.325       0.05   1352.378   17.28605
      6.375       0.05   1322.628   17.12989
      6.425       0.05   1265.388   16.52641
      6.475       0.05   1281.863   16.94075
      6.525       0.05   1326.923   17.26824
      6.575       0.05   1307.648   17.05522
      6.625       0.05   1311.231   17.06285
      6.675       0.05   1319.130   17.39656
      6.725       0.05   1331.616   17.57465
      6.775       0.05   1203.050   17.00339
      6.825       0.05   1262.098   16.89553
      6.875       0.05   1283.892   17.16498
      6.925       0.05   1307.897   17.30736
      6.975       0.05   1282.452   17.67519
      7.025       0.05   1279.374   17.63767
      7.075       0.05   1297.879   17.91443
      7.125       0.05   1309.333   18.51062
      7.175       0.05   1246.681   18.03210
      7.225       0.05   1285.720   18.86759
      7.275       0.05   1351.794   20.18830
      7.325       0.05   1334.523   20.08442
      7.375       0.05   1265.155   19.64087
      7.425       0.05   1226.658   19.24553
      7.475       0.05   1263.098   19.72455
      7.525       0.05   1262.656   19.77351
      7.575       0.05   1277.903   19.95286
      7.625       0.05   1232.902   19.73717
      7.675       0.05   1273.056   20.63487
      7.725       0.05   1248.516   20.86229
      7.775       0.05   1221.050   20.92570
      7.825       0.05   1270.856   21.10758
      7.875       0.05   1234.921   20.65624
      7.925       0.05   1237.374   20.58802
      7.975       0.05   1250.956   20.60573
      8.025       0.05   1278.109   20.83853
      8.075       0.05   1234.985   20.78175
      8.125       0.05   1254.270   21.17581
      8.175       0.05   1290.819   21.45721
      8.225       0.05   1271.801   21.40660
      8.275       0.05   1226.843   21.20779
      8.325       0.05   1246.128   21.54838
      8.375       0.05   1217.872   21.16698
      8.425       0.05   1230.889   21.52126
      8.475       0.05   1273.323   22.19412
      8.525       0.05   1258.448   21.69315
      8.575       0.05   1174.925   21.30431
      8.625       0.05   1234.177   22.16956
      8.675       0.05   1201.098   21.83737
      8.725       0.05   1144.294   21.46595
      8.775       0.05   1279.284   22.61119
      8.825       0.05   1254.228   22.78944
      8.875       0.05   1244.346   22.55443
      8.925       0.05   1260.772   22.42840
      8.975       0.05   1208.900   22.60011
      9.025       0.05   1247.365   23.28641
      9.075       0.05   1234.279   22.94191
      9.125       0.05   1188.703   22.48901
      9.175       0.05   1196.311   22.90649
      9.225       0.05   1228.610   23.26997
      9.275       0.05   1254.920   23.68474
      9.325       0.05   1244.187   23.72938
      9.375       0.05   1228.095   23.64481
      9.425       0.05   1228.430   23.71829
      9.475       0.05   1222.377   23.94535
      9.525       0.05   1261.633   24.26472
      9.575       0.05   1259.637   24.43405
      9.625       0.05   1229.083   24.59923
      9.675       0.05   1258.393   24.84797
      9.725       0.05   1227.516   24.65087
      9.775       0.05   1179.186   24.51249
      9.825       0.05   1183.103   24.19705
      9.875       0.05   1194.832   24.44926
      9.925       0.05   1189.345   24.72842
      9.975       0.05   1250.235   25.99716
      10.05        0.1   1276.083   18.80301
      10.15        0.1   1210.742   18.24431
      10.25        0.1   1165.952   17.88728
      10.35        0.1   1205.449   18.65563
      10.45        0.1   1195.808   18.68087
      10.55        0.1   1118.107   18.04180
      10.65        0.1   1193.269   19.14997
      10.75        0.1   1153.171   18.93191
      10.85        0.1   1199.011   19.58220
      10.95        0.1   1179.732   19.24737
      11.05        0.1   1124.100   18.74895
      11.15        0.1   1153.687   19.61003
      11.25        0.1   1194.622   20.48470
      11.35        0.1   1222.546   20.76479
      11.45        0.1   1178.335   20.73380
      11.55        0.1   1174.502   21.04537
      11.65        0.1   1153.651   21.00696
      11.75        0.1   1195.172   21.33934
      11.85        0.1   1139.833   20.61743
      11.95        0.1   1146.652   21.49895
      12.05        0.1   1104.362   21.44822
      12.15        0.1   1138.498   21.60325
      12.25        0.1   1072.085   21.34036
      12.35        0.1   1126.622   21.86845
      12.45        0.1   1096.584   21.95422
      12.55        0.1   1078.673   22.26520
      12.65        0.1   1090.677   22.55122
      12.75        0.1   1050.617   22.35987
      12.85        0.1   1009.655   22.10011
      12.95        0.1    964.462   21.67844
      13.05        0.1    991.396   22.25732
      13.15        0.1    965.304   22.05365
      13.25        0.1    943.887   22.00586
      13.35        0.1    916.667   21.97733
      13.45        0.1    866.481   21.42053
      13.55        0.1    847.041   21.37989
      13.65        0.1    867.387   21.88637
      13.75        0.1    846.108   21.28839
      13.85        0.1    797.600   20.82506
      13.95        0.1    759.206   20.83328
      14.05        0.1    704.656   20.56186
      14.15        0.1    681.283   20.22162
      14.25        0.1    642.836   19.90761
      14.35        0.1    649.037   20.02162
      14.45        0.1    677.436   20.02919
      14.55        0.1    662.672   20.50858
      14.65        0.1    616.499   20.21538
      14.75        0.1    561.776   19.73909
      14.85        0.1    542.509   19.12694
      14.95        0.1    523.705   18.98597
      15.05        0.1    495.155   18.68868
      15.15        0.1    492.350   18.32680
      15.25        0.1    486.518   18.33005
      15.35        0.1    477.277   18.40951
      15.45        0.1    462.525   18.08987
      15.55        0.1    434.356   18.03840
      15.65        0.1    411.654   18.18854
      15.75        0.1    393.023   18.25315
      15.85        0.1    378.120   18.34538
      15.95        0.1    357.991   18.05329
     16.075       0.15    389.982   14.93894
     16.225       0.15    374.034   14.65598
     16.375       0.15    332.500   13.88052
     16.525       0.15    326.566   13.99137
     16.675       0.15    333.531   14.25503
     16.825       0.15    309.684   13.99088
     16.975       0.15    316.655   14.35662
     17.125       0.15    302.240   13.97647
     17.275       0.15    258.246   13.35463
     17.425       0.15    257.952   13.39306
     17.575       0.15    269.982   13.70205
     17.725       0.15    257.163   13.82145
     17.875       0.15    219.977   14.05819
     18.025       0.15    257.267   14.04746
     18.175       0.15    264.695   14.04388
     18.325       0.15    250.682   13.90879
     18.475       0.15    193.744   14.00786
     18.625       0.15    200.598   14.24345
     18.775       0.15    226.871   14.24546
     18.925       0.15    249.699   14.17645
     19.075       0.15    219.704   14.03370
     19.225       0.15    202.846   13.82854
     19.375       0.15    187.956   13.76073
     19.525       0.15    190.064   13.67425
     19.675       0.15    182.634   13.86920
     19.825       0.15    176.259   13.96132
     19.975       0.15    129.207   13.49569
     20.125       0.15    138.474   13.60402
ENDDATA            210
ENDSUBENT          233
SUBENT        14118003   20080710   20080909   20080909       1349
BIB                  7          9
REACTION   (26-FE-0(N,X)26-FE-56,PAR,SIG,G)
EXP-YEAR   (1994)
SAMPLE     Natural Fe sample
METHOD     Neutron flux determined using fission ionization
            chamber measurements of 238U and 235U.
ERR-ANALYS (DATA-ERR) No information
STATUS     (DEP,14118002)
           (TABLE) Data taken from Table 2
HISTORY    (20080710A) Reaction corrected
ENDBIB               9
NOCOMMON             0          0
DATA                 4          1
EN         E          DATA       DATA-ERR
MEV        KEV        MB         MB
14.5       847.       705.       56.
ENDDATA              3
ENDSUBENT           17
SUBENT        14118004   20090222   20090724   20090712       1353
BIB                  8         11
REACTION   (26-FE-56(N,INL)26-FE-56,PAR,SIG,G,A)
EXP-YEAR   (1994)
SAMPLE     Natural Fe sample
METHOD     Neutron flux determined using fission ionization
            chamber measurements of 238U and 235U.
ASSUMED    (ASSUM,26-FE-57(N,2N)26-FE-56,PAR,SIG,G,A)
ERR-ANALYS (DATA-ERR) No information
STATUS     (DEP,14118003)
           (TABLE) Data taken from Table 2
HISTORY    (20080710A) Reaction corrected, assumed value added.
           (20090218A) OS. ASSUMED reaction corrected
ENDBIB              11
NOCOMMON             0          0
DATA                 5          1
EN         E          DATA       DATA-ERR   ASSUM
MEV        KEV        MB         MB         MB
14.5       847.       683.        57.        22.
ENDDATA              3
ENDSUBENT           19
SUBENT        14118005   20080710   20080909   20080909       1349
BIB                  6          8
REACTION   (26-FE-56(N,INL)26-FE-56,PAR,SIG,G)
EXP-YEAR   (1994)
SAMPLE     Natural Fe sample
METHOD     Neutron flux determined using fission ionization
            chamber measurements of 238U and 235U.
ERR-ANALYS (DATA-ERR) No information
STATUS     (DEP,14118004)
           (TABLE) Data taken from Table 2
ENDBIB               8
NOCOMMON             0          0
DATA                 4          1
EN         E          DATA       DATA-ERR
MEV        KEV        MB         MB
14.5       847.       744.       62.
ENDDATA              3
ENDSUBENT           16
SUBENT        14118006   20090222   20090724   20090712       1353
BIB                  6          7
REACTION   (26-FE-0(N,X)26-FE-56,PAR,SIG,G)
SAMPLE     Relatively thin natural iron sample, 164 mg/cm**2.
MONITOR    (24-CR-0(N,X)24-CR-52,PAR,SIG,G)
ERR-ANALYS (DATA-ERR) No information
STATUS     (TABLE) Data taken from Table 2
HISTORY    (20080710A) Reaction corrected
           (20090218A) OS. MONITOR reaction corrected
ENDBIB               7
COMMON               3          3
E-NRM      MONIT      MONIT-ERR
KEV        MB         MB
1434.      695.        35.
ENDCOMMON            3
DATA                 4          1
EN         E          DATA       DATA-ERR
MEV        KEV        MB         MB
14.5       847.       684.        45.
ENDDATA              3
ENDSUBENT           19
SUBENT        14118007   20090222   20090724   20090712       1353
BIB                  6          8
REACTION   (26-FE-56(N,INL)26-FE-56,PAR,SIG,G,A)
SAMPLE     Relatively thin natural iron sample, 164 mg/cm**2.
ASSUMED    (ASSUM,26-FE-57(N,2N)26-FE-56,PAR,SIG,G,A)
ERR-ANALYS (DATA-ERR) No information
STATUS     (DEP,14118006)
           (TABLE) Data taken from Table 2
HISTORY    (20080710A) Reaction corrected, assumed value added.
           (20090218A) OS. ASSUMED reaction corrected
ENDBIB               8
NOCOMMON             0          0
DATA                 5          1
EN         E          DATA       DATA-ERR   ASSUM
MEV        KEV        MB         MB         MB
14.5       847.       669.        46.        22.
ENDDATA              3
ENDSUBENT           16
SUBENT        14118008   20080710   20080909   20080909       1349
BIB                  4          5
REACTION   (26-FE-56(N,INL)26-FE-56,PAR,SIG,G)
SAMPLE     Relatively thin natural iron sample, 164 mg/cm**2.
ERR-ANALYS (DATA-ERR) No information
STATUS     (DEP,14118007)
           (TABLE) Data taken from Table 2
ENDBIB               5
NOCOMMON             0          0
DATA                 4          1
EN         E          DATA       DATA-ERR
MEV        KEV        MB         MB
14.5       847.       730.       50.
ENDDATA              3
ENDSUBENT           13
ENDENTRY             8
