ENTRY            14116   20061117   20070306   20070213       1342
SUBENT        14116001   20061117   20070306   20070213       1342
BIB                 12         18
INSTITUTE  (2JPNKYU,2JPNJAE,2JPNTOH,1USALAS)
REFERENCE  (C,2004SANTA,1,1058,2004)
           (C,2004SANTA,1,924,2004)
AUTHOR     (S.Kunieda,T.Watanabe,N.Shigyo,K.Ishibashi,D.Satoh,
            Y.Iwamoto,T.Nakamura,R.C.Haight)
TITLE      Measurement of neutron-production double-differential
            cross sections for continuous-energy-neutron-incidence
            on Fe and Pb by liquid organic scintillator
FACILITY   (ACCEL,1USALAS) LANSCE Spallation neutron source
INC-SOURCE (SPALL) Flight path 4FP15L at the Weapons Neutron
            Research Facility of LANSCE
DETECTOR   (SCIN) NE213 scintillators
SAMPLE     Iron disk of 10 mm thick
METHOD     (TOF) Flight path of about 90 meters
ANALYSIS   (UNFLD)
MONITOR    The incident neutron flux was monitored by a U238
            fission ionization detector
HISTORY    (20061115C) DR
ENDBIB              18
NOCOMMON             0          0
ENDSUBENT           21
SUBENT        14116002   20061117   20070306   20070213       1342
BIB                  3          4
REACTION   (26-FE-0(N,X)0-NN-1,,DA/DE)
ERR-ANALYS (ERR-S) Statistical uncertainty
STATUS     (CURVE) Data taken from Fig. 7
           (PRELM) Comment from Drs.Shigyo and Kunieda
ENDBIB               4
COMMON               2          3
EN-MIN     EN-MAX
MEV        MEV
90.        100.
ENDCOMMON            3
DATA                 4         73
ANG        E          DATA       ERR-S
ADEG       MEV        MB/SR/MEV  MB/SR/MEV
 15.         7.214E+00  1.082E+01  2.032E+00
 15.         8.899E+00  6.966E+00  1.176E+00
 15.         1.088E+01  3.028E+00  6.797E-01
 15.         1.501E+01  2.137E+00  3.608E-01
 15.         2.336E+01  1.654E+00  3.106E-01
 15.         2.661E+01  1.731E+00  2.242E-01
 15.         3.018E+01  1.730E+00  2.240E-01
 15.         3.438E+01  1.769E+00  2.291E-01
 15.         3.880E+01  1.851E+00  2.021E-01
 15.         4.339E+01  1.983E+00  1.752E-01
 15.         4.874E+01  2.174E+00  1.920E-01
 15.         5.475E+01  2.439E+00  2.989E-01
 15.         6.093E+01  3.072E+00  2.058E-01
 15.         6.875E+01  4.548E+00  4.963E-01
 15.         7.651E+01  6.283E+00  7.701E-01
 15.         8.482E+01  2.670E+00  1.172E+00
 15.         9.333E+01  3.809E+01  9.228E+00
 15.         1.037E+02  8.016E-01  6.104E-01
 30.         7.736E+00  6.414E+00  8.300E-01
 30.         9.070E+00  4.526E+00  4.933E-01
 30.         1.068E+01  3.344E+00  4.327E-01
 30.         1.264E+01  2.470E+00  2.178E-01
 30.         1.475E+01  1.664E+00  2.483E-01
 30.         1.746E+01  1.096E+00  1.195E-01
 30.         2.185E+01  8.870E-01  7.827E-02
 30.         2.865E+01  7.344E-01  4.906E-02
 30.         3.669E+01  7.150E-01  7.793E-02
 30.         4.656E+01  6.061E-01  9.008E-02
 30.         5.827E+01  4.795E-01  7.158E-02
 30.         7.257E+01  4.459E-01  5.768E-02
 30.         9.040E+01  3.072E-01  2.973E-02
 60.         7.824E+00  4.492E+00  4.890E-01
 60.         9.165E+00  3.174E+00  2.796E-01
 60.         1.079E+01  1.290E+00  1.666E-01
 60.         1.494E+01  6.009E-01  6.544E-02
 60.         2.050E+01  4.143E-01  4.005E-02
 60.         2.685E+01  3.598E-01  3.915E-02
 60.         3.452E+01  2.722E-01  4.582E-02
 60.         4.376E+01  2.059E-01  2.240E-02
 60.         5.522E+01  1.421E-01  2.116E-02
 60.         6.873E+01  5.639E-02  2.942E-02
 60.         8.592E+01  4.900E-02  2.016E-02
 90.         6.650E+00  5.617E+00  9.873E-01
 90.         7.794E+00  4.152E+00  5.090E-01
 90.         9.136E+00  2.864E+00  2.775E-01
 90.         1.086E+01  1.215E+00  8.139E-02
 90.         1.493E+01  4.918E-01  5.369E-02
 90.         2.060E+01  2.626E-01  3.221E-02
 90.         2.714E+01  1.727E-01  2.579E-02
 90.         3.492E+01  1.276E-01  2.154E-02
 90.         4.410E+01  7.654E-02  1.143E-02
 90.         5.572E+01  3.561E-02  3.883E-03
 90.         6.909E+01  1.582E-02  3.266E-03
120.         6.643E+00  7.966E+00  1.030E+00
120.         7.785E+00  4.676E+00  3.130E-01
120.         9.207E+00  3.152E+00  4.076E-01
120.         1.084E+01  1.221E+00  1.579E-01
120.         1.496E+01  4.614E-01  5.030E-02
120.         2.054E+01  2.409E-01  2.125E-02
120.         2.704E+01  1.622E-01  2.421E-02
120.         3.494E+01  9.084E-02  1.175E-02
120.         4.412E+01  4.038E-02  1.116E-02
150.         6.665E+00  7.120E+00  1.061E+00
150.         7.851E+00  4.375E+00  4.765E-01
150.         9.204E+00  2.816E+00  4.198E-01
150.         1.084E+01  1.169E+00  1.030E-01
150.         1.497E+01  4.518E-01  5.840E-02
150.         2.067E+01  2.468E-01  4.330E-02
150.         2.698E+01  1.413E-01  1.826E-02
150.         3.489E+01  7.377E-02  1.519E-02
150.         4.408E+01  3.596E-02  8.696E-03
150.         5.597E+01  1.240E-02  4.212E-03
150.         6.941E+01  5.906E-03  2.511E-03
ENDDATA             75
ENDSUBENT           88
ENDENTRY             2
