ENTRY            14118   20171116   20180402   20180328       1438
SUBENT        14118001   20171116   20180402   20180328       1438
BIB                 10         20
TITLE      Cross-section standards for neutron-induced gamma-ray
           production in the MeV energy range
AUTHOR     (R.O.Nelson,N.Fotiades,M.Devlin,J.A.Becker,P.E.Garrett,
           W.Younes)
REFERENCE  (C,2004SANTA,1,838,2004)
           #doi:10.1063/1.1945136
INSTITUTE  (1USALAS,1USALRL)
FACILITY   (ACCEL,1USALAS) WNR LANSCE accelerator.
INC-SOURCE (SPALL) 800 MeV protons on tungsten target.
DETECTOR   (HPGE) High purity germanium gamma detector GEANIE.
METHOD     (TOF) Flight path of about 20.34 meters.
MONITOR    In all measurements the gamma-ray detector efficiency
           was determined in situ using calibrated gamma-ray
           sources such as 152Eu and mixed radionuclide sources.
HISTORY    (20061117C) DR
           (20080710A) BIB update.
           (20090218A) Corrections in subentries 2,4,6,7.
           (20130624A) BP: Major corrections in subentry 2.
           (20171116A) BP: The latest data from the author was
                       added to subentry 2.
ENDBIB              20
NOCOMMON             0          0
ENDSUBENT           23
SUBENT        14118002   20171116   20180402   20180328       1438
BIB                  9         22
REACTION   (26-FE-0(N,X)0-G-0,PAR,DA,,4PI)
EXP-YEAR   (1994)
SAMPLE     Natural Fe sample
METHOD     Neutron flux determined using fission ionization
           chamber measurements of 238U and 235U.
ANALYSIS   (4PI1A) The data are 4Pi times the 125 degree cross
           section for the 847 keV 56Fe gamma ray.
ERR-ANALYS (ERR-S) Statistical errors of the gamma-ray peak
           analysis.
STATUS     (TABLE) Data from authors.
           (COREL,13884002) Data from an earlier experiment.
COMMENT    Compiler's comment: It needs correction for new 238U
           fission reference cross section.
HISTORY    (20080710A) Reaction, data heading corrected.
           (20090218A) OS. Reaction corrected with authors.
           agreement.
           (20130612R) Data received from R. Nelson, reaction code
                        was changed.
           (20171116R) BP: Revised data received R. Nelson.
                      The flux measurement was corrected using an
                      improved measurement of the fission foil
                      thickness.
ENDBIB              22
COMMON               2          3
E          ANG
KEV        ADEG
847.       125.0
ENDCOMMON            3
DATA                 4        281
EN         EN-ERR     DATA       ERR-S
MEV        MEV        MB         MB
      4.025       0.05   1248.443   12.75668
      4.075       0.05   1223.237   12.42815
      4.125       0.05   1195.175   12.75368
      4.175       0.05    1112.02   12.78408
      4.225       0.05   1133.205    12.5249
      4.275       0.05   1126.474     13.037
      4.325       0.05    1023.56   12.27755
      4.375       0.05   989.7324    12.1897
      4.425       0.05   1105.833   12.86948
      4.475       0.05   1195.883   13.23012
      4.525       0.05   1188.445   13.42154
      4.575       0.05   1226.412   13.56645
      4.625       0.05   1171.334   12.78119
      4.675       0.05   1217.352   12.89209
      4.725       0.05   1283.301   13.44945
      4.775       0.05   1255.836   13.55046
      4.825       0.05   1254.936   13.58809
      4.875       0.05   1257.302   13.48215
      4.925       0.05   1282.831   13.68172
      4.975       0.05   1305.675   13.95297
      5.025       0.05   1308.918   14.19463
      5.075       0.05   1194.031   14.05966
      5.125       0.05   1227.398   14.10809
      5.175       0.05   1278.569   14.54268
      5.225       0.05   1271.064   14.57911
      5.275       0.05   1269.572   14.39298
      5.325       0.05   1188.056   14.23184
      5.375       0.05   1325.233   14.91745
      5.425       0.05   1277.481   14.40999
      5.475       0.05   1340.565     15.378
      5.525       0.05   1276.867   15.33768
      5.575       0.05   1265.178   15.50146
      5.625       0.05   1220.182     15.375
      5.675       0.05   1190.709   14.67699
      5.725       0.05   1281.362   15.43076
      5.775       0.05   1236.307   15.01898
      5.825       0.05   1257.675      15.44
      5.875       0.05    1275.76   15.63463
      5.925       0.05   1316.039    15.9876
      5.975       0.05   1349.672   16.40619
      6.025       0.05     1273.8   16.11141
      6.075       0.05   1252.157   15.81447
      6.125       0.05     1269.2   15.99019
      6.175       0.05   1269.844   16.17564
      6.225       0.05   1295.284   17.07667
      6.275       0.05   1268.095   16.54642
      6.325       0.05   1299.656   16.61215
      6.375       0.05   1271.065   16.46209
      6.425       0.05   1216.057   15.88213
      6.475       0.05   1231.889   16.28032
      6.525       0.05   1275.194   16.59505
      6.575       0.05    1256.67   16.39033
      6.625       0.05   1260.113   16.39766
      6.675       0.05   1267.704   16.71836
      6.725       0.05   1279.704   16.88951
      6.775       0.05   1156.149   16.34052
      6.825       0.05   1212.895   16.23687
      6.875       0.05    1233.84   16.49581
      6.925       0.05   1256.909   16.63263
      6.975       0.05   1232.456   16.98612
      7.025       0.05   1229.498   16.95007
      7.075       0.05   1247.281   17.21604
      7.125       0.05   1258.289   17.78899
      7.175       0.05    1198.08   17.32912
      7.225       0.05   1235.597   18.13204
      7.275       0.05   1299.094   19.40127
      7.325       0.05   1282.497   19.30143
      7.375       0.05   1215.833   18.87517
      7.425       0.05   1178.837   18.49525
      7.475       0.05   1213.856   18.95559
      7.525       0.05   1213.431   19.00265
      7.575       0.05   1228.085     19.175
      7.625       0.05   1184.837   18.96773
      7.675       0.05   1223.426   19.83042
      7.725       0.05   1199.843   20.04898
      7.775       0.05   1173.448   20.10992
      7.825       0.05   1221.312    20.2847
      7.875       0.05   1186.778   19.85097
      7.925       0.05   1189.136    19.7854
      7.975       0.05   1202.187   19.80242
      8.025       0.05   1228.282   20.02615
      8.075       0.05   1186.839   19.97157
      8.125       0.05   1205.372   20.35028
      8.175       0.05   1240.496    20.6207
      8.225       0.05    1222.22   20.57207
      8.275       0.05   1179.014   20.38101
      8.325       0.05   1197.548   20.70832
      8.375       0.05   1170.394   20.34179
      8.425       0.05   1182.903   20.68225
      8.475       0.05   1223.683   21.32889
      8.525       0.05   1209.388   20.84745
      8.575       0.05   1129.121   20.47377
      8.625       0.05   1186.063   21.30529
      8.675       0.05   1154.273   20.98604
      8.725       0.05   1099.684    20.6291
      8.775       0.05   1229.411    21.7297
      8.825       0.05   1205.332     21.901
      8.875       0.05   1195.835   21.67516
      8.925       0.05   1211.621   21.55404
      8.975       0.05   1161.771   21.71905
      9.025       0.05   1198.737    22.3786
      9.075       0.05   1186.161   22.04753
      9.125       0.05   1142.362   21.61228
      9.175       0.05   1149.673   22.01349
      9.225       0.05   1180.713    22.3628
      9.275       0.05   1205.997   22.76139
      9.325       0.05   1195.682   22.80429
      9.375       0.05   1180.218   22.72302
      9.425       0.05   1180.539   22.79364
      9.475       0.05   1174.723   23.01185
      9.525       0.05   1212.449   23.31876
      9.575       0.05   1210.531    23.4815
      9.625       0.05   1181.167   23.64024
      9.675       0.05   1209.334   23.87928
      9.725       0.05   1179.662   23.68986
      9.775       0.05   1133.216   23.55688
      9.825       0.05    1136.98   23.25373
      9.875       0.05   1148.252   23.49611
      9.925       0.05   1142.979   23.76438
      9.975       0.05   1201.495   24.98367
      10.05        0.1   1226.335   18.06998
      10.15        0.1   1163.542   17.53306
      10.25        0.1   1120.498   17.18995
      10.35        0.1   1158.455   17.92835
      10.45        0.1    1149.19    17.9526
      10.55        0.1   1074.517   17.33845
      10.65        0.1    1146.75   18.40341
      10.75        0.1   1108.215   18.19385
      10.85        0.1   1152.267   18.81879
      10.95        0.1    1133.74   18.49701
      11.05        0.1   1080.277   18.01803
      11.15        0.1   1108.711   18.84554
      11.25        0.1    1148.05   19.68611
      11.35        0.1   1174.885   19.95528
      11.45        0.1   1132.398    19.9255
      11.55        0.1   1128.714   20.22493
      11.65        0.1   1108.676   20.18801
      11.75        0.1   1148.579   20.50743
      11.85        0.1   1095.397   19.81366
      11.95        0.1    1101.95   20.66082
      12.05        0.1   1061.309   20.61206
      12.15        0.1   1094.114   20.76105
      12.25        0.1    1030.29   20.50841
      12.35        0.1   1082.701   21.01592
      12.45        0.1   1053.834   21.09834
      12.55        0.1   1036.621    21.3972
      12.65        0.1   1048.157   21.67206
      12.75        0.1   1009.659   21.48818
      12.85        0.1   970.2942   21.23855
      12.95        0.1   926.8624   20.83331
      13.05        0.1   952.7464   21.38963
      13.15        0.1   927.6714    21.1939
      13.25        0.1   907.0893   21.14796
      13.35        0.1   880.9311   21.12055
      13.45        0.1   832.7017   20.58546
      13.55        0.1    814.019    20.5464
      13.65        0.1    833.572   21.03313
      13.75        0.1    813.123   20.45847
      13.85        0.1   766.5057    20.0132
      13.95        0.1   729.6089    20.0211
      14.05        0.1   677.1852   19.76026
      14.15        0.1   654.7233   19.43328
      14.25        0.1   617.7748   19.13151
      14.35        0.1   623.7347   19.24108
      14.45        0.1   651.0267   19.24836
      14.55        0.1   636.8381   19.70906
      14.65        0.1   592.4647   19.42728
      14.75        0.1   539.8754   18.96956
      14.85        0.1   521.3592   18.38128
      14.95        0.1   503.2885    18.2458
      15.05        0.1   475.8512   17.96011
      15.15        0.1    473.156   17.61233
      15.25        0.1    467.551   17.61546
      15.35        0.1   458.6709   17.69182
      15.45        0.1    444.494   17.38464
      15.55        0.1   417.4223   17.33517
      15.65        0.1   395.6054   17.47946
      15.75        0.1   377.7007   17.54156
      15.85        0.1   363.3793   17.63019
      15.95        0.1   344.0343   17.34948
     16.075       0.15    374.779   14.35654
     16.225       0.15   359.4526   14.08462
     16.375       0.15   319.5375   13.33939
     16.525       0.15   313.8345   13.44592
     16.675       0.15   320.5282    13.6993
     16.825       0.15   297.6108   13.44545
     16.975       0.15   304.3107   13.79693
     17.125       0.15    290.457    13.4316
     17.275       0.15   248.1786     12.834
     17.425       0.15   247.8954   12.87094
     17.575       0.15   259.4566   13.16788
     17.725       0.15   247.1379   13.28262
     17.875       0.15   211.4008   13.51013
     18.025       0.15   247.2377   13.49982
     18.175       0.15   254.3762   13.49639
     18.325       0.15   240.9088   13.36656
     18.475       0.15    186.191   13.46177
     18.625       0.15   192.7775   13.68818
     18.775       0.15   218.0269    13.6901
     18.925       0.15   239.9648   13.62378
     19.075       0.15   211.1392    13.4866
     19.225       0.15   194.9382   13.28944
     19.375       0.15   180.6286   13.22427
     19.525       0.15    182.654   13.14117
     19.675       0.15   175.5137   13.32852
     19.825       0.15    169.388   13.41704
     19.975       0.15   124.1701   12.96956
     20.125       0.15   133.0759   13.07367
      20.35        0.3   151.0674    9.32649
      20.65        0.3    136.094   9.120969
      20.95        0.3   151.7526   9.103804
      21.25        0.3   155.8108   9.016352
      21.55        0.3   142.9286   8.939191
      21.85        0.3   137.3646   9.065026
      22.15        0.3   143.0785   8.929069
      22.45        0.3   147.9915    8.80652
      22.75        0.3   136.5508   8.836545
      23.05        0.3   133.0998   9.140947
      23.35        0.3   132.4882   8.964444
      23.65        0.3   127.3647   8.701505
      23.95        0.3   127.4774    8.82468
      24.25        0.3    123.303   8.744298
      24.55        0.3   136.9914   8.899063
      24.85        0.3   113.9332   8.884417
      25.15        0.3    108.719   8.897254
      25.45        0.3   118.7141   9.009466
      25.75        0.3   93.26494   9.028782
      26.05        0.3   111.6301   9.080252
      26.35        0.3   129.9269   9.370331
      26.65        0.3   131.2168   9.413289
      26.95        0.3   112.3888   9.146654
      27.25        0.3   103.2055   9.225888
      27.55        0.3   121.4526   9.273613
      27.85        0.3    105.485   9.239395
      28.15        0.3    92.7548   9.003529
      28.45        0.3   92.94171   8.935601
      28.75        0.3   100.6431   8.965779
      29.05        0.3   115.3479   8.880672
      29.35        0.3   98.03286   8.756625
      29.65        0.3   93.22235   8.910817
      29.95        0.3   97.28186   8.874853
      30.25        0.3   83.80188   8.855425
        31.        1.2   83.36186   4.315788
       32.2        1.2   77.88678   4.238815
       33.4        1.2   75.54115   4.306738
       34.6        1.2   77.33643   4.328976
       35.8        1.2   66.22375   4.221229
        37.        1.2   75.59167   4.219638
       38.2        1.2   74.20571   4.312327
       39.4        1.2    52.5765   4.181288
       40.6        1.2   57.72658   4.159437
       41.8        1.2   49.32668   4.130314
        43.        1.2   64.95373   4.163765
       44.2        1.2   47.06099   4.204175
       45.4        1.2    60.1592   4.185836
       46.6        1.2   67.60207   4.104827
       47.8        1.2   50.82258    4.00252
        49.        1.2   48.25486   4.038653
       50.2        1.2   33.59779    4.09535
       53.3         5.   47.71768    1.92497
       58.3         5.   37.40344   1.941757
       63.3         5.    28.1949   1.933918
       68.3         5.   29.71814   1.970698
       73.3         5.   24.12012   1.967028
       78.3         5.   15.34386   1.945135
       83.3         5.    13.8872   1.948507
       88.3         5.   12.84526   1.965188
       93.3         5.   10.08685   1.957969
       98.3         5.   9.288494   1.942637
      103.3         5.   7.124654   1.972056
      108.3         5.   11.15192   1.946542
      115.8        10.    7.23657   1.398146
      125.8        10.   4.404136    1.41013
      135.8        10.   3.655252   1.436831
      145.8        10.   2.485001   1.501837
      155.8        10.   6.469232   1.546661
      165.8        10.   1.788296   1.561003
      175.8        10.   -2.07126   1.623658
      185.8        10.   2.855998   1.661269
      195.8        10.   -0.40208   1.708657
      205.8        10.   4.786345   1.766539
ENDDATA            283
ENDSUBENT          314
SUBENT        14118003   20080710   20080909   20080909       1349
BIB                  7          9
REACTION   (26-FE-0(N,X)26-FE-56,PAR,SIG,G)
EXP-YEAR   (1994)
SAMPLE     Natural Fe sample
METHOD     Neutron flux determined using fission ionization
            chamber measurements of 238U and 235U.
ERR-ANALYS (DATA-ERR) No information
STATUS     (DEP,14118002)
           (TABLE) Data taken from Table 2
HISTORY    (20080710A) Reaction corrected
ENDBIB               9
NOCOMMON             0          0
DATA                 4          1
EN         E          DATA       DATA-ERR
MEV        KEV        MB         MB
14.5       847.       705.       56.
ENDDATA              3
ENDSUBENT           17
SUBENT        14118004   20090222   20090724   20090712       1353
BIB                  8         11
REACTION   (26-FE-56(N,INL)26-FE-56,PAR,SIG,G,A)
EXP-YEAR   (1994)
SAMPLE     Natural Fe sample
METHOD     Neutron flux determined using fission ionization
            chamber measurements of 238U and 235U.
ASSUMED    (ASSUM,26-FE-57(N,2N)26-FE-56,PAR,SIG,G,A)
ERR-ANALYS (DATA-ERR) No information
STATUS     (DEP,14118003)
           (TABLE) Data taken from Table 2
HISTORY    (20080710A) Reaction corrected, assumed value added.
           (20090218A) OS. ASSUMED reaction corrected
ENDBIB              11
NOCOMMON             0          0
DATA                 5          1
EN         E          DATA       DATA-ERR   ASSUM
MEV        KEV        MB         MB         MB
14.5       847.       683.        57.        22.
ENDDATA              3
ENDSUBENT           19
SUBENT        14118005   20080710   20080909   20080909       1349
BIB                  6          8
REACTION   (26-FE-56(N,INL)26-FE-56,PAR,SIG,G)
EXP-YEAR   (1994)
SAMPLE     Natural Fe sample
METHOD     Neutron flux determined using fission ionization
            chamber measurements of 238U and 235U.
ERR-ANALYS (DATA-ERR) No information
STATUS     (DEP,14118004)
           (TABLE) Data taken from Table 2
ENDBIB               8
NOCOMMON             0          0
DATA                 4          1
EN         E          DATA       DATA-ERR
MEV        KEV        MB         MB
14.5       847.       744.       62.
ENDDATA              3
ENDSUBENT           16
SUBENT        14118006   20090222   20090724   20090712       1353
BIB                  6          7
REACTION   (26-FE-0(N,X)26-FE-56,PAR,SIG,G)
SAMPLE     Relatively thin natural iron sample, 164 mg/cm**2.
MONITOR    (24-CR-0(N,X)24-CR-52,PAR,SIG,G)
ERR-ANALYS (DATA-ERR) No information
STATUS     (TABLE) Data taken from Table 2
HISTORY    (20080710A) Reaction corrected
           (20090218A) OS. MONITOR reaction corrected
ENDBIB               7
COMMON               3          3
E-NRM      MONIT      MONIT-ERR
KEV        MB         MB
1434.      695.        35.
ENDCOMMON            3
DATA                 4          1
EN         E          DATA       DATA-ERR
MEV        KEV        MB         MB
14.5       847.       684.        45.
ENDDATA              3
ENDSUBENT           19
SUBENT        14118007   20090222   20090724   20090712       1353
BIB                  6          8
REACTION   (26-FE-56(N,INL)26-FE-56,PAR,SIG,G,A)
SAMPLE     Relatively thin natural iron sample, 164 mg/cm**2.
ASSUMED    (ASSUM,26-FE-57(N,2N)26-FE-56,PAR,SIG,G,A)
ERR-ANALYS (DATA-ERR) No information
STATUS     (DEP,14118006)
           (TABLE) Data taken from Table 2
HISTORY    (20080710A) Reaction corrected, assumed value added.
           (20090218A) OS. ASSUMED reaction corrected
ENDBIB               8
NOCOMMON             0          0
DATA                 5          1
EN         E          DATA       DATA-ERR   ASSUM
MEV        KEV        MB         MB         MB
14.5       847.       669.        46.        22.
ENDDATA              3
ENDSUBENT           16
SUBENT        14118008   20080710   20080909   20080909       1349
BIB                  4          5
REACTION   (26-FE-56(N,INL)26-FE-56,PAR,SIG,G)
SAMPLE     Relatively thin natural iron sample, 164 mg/cm**2.
ERR-ANALYS (DATA-ERR) No information
STATUS     (DEP,14118007)
           (TABLE) Data taken from Table 2
ENDBIB               5
NOCOMMON             0          0
DATA                 4          1
EN         E          DATA       DATA-ERR
MEV        KEV        MB         MB
14.5       847.       730.       50.
ENDDATA              3
ENDSUBENT           13
ENDENTRY             8
