ENTRY            14166   20080315   20080801   20080801       1348
SUBENT        14166001   20080315   20080801   20080801       1348
BIB                 11         34
TITLE      Subthreshold Fission Cross Section of 237Np
AUTHOR     (F.Tovesson,T.S.Hill)
INSTITUTE  (1USALAS)
REFERENCE  (J,NSE,159,94,2008)
FACILITY   (LINAC)LANSCE facility at Los Alamos
SAMPLE     237Np samples masses were 5.6, 13.6, and 14.6 mg
           235U sample mass was 15.5 mg. The sample deposits
           were approx. 13.3 cm in diameter
DETECTOR   (IOCH) Two parallel plate ionization chambers (PPIC)
           were used to measure fission fragments. One PPIC
           contained two 237Np samples, the other PPIC contained
           a 237Np and a 235U sample.
METHOD     (TOF) Tof was used to measure incident neutron energy
INC-SOURCE (SPALL) A proton beam from the LANSCE linear
           accelerator is injected into the proton storage ring
           PSR with a repetition rate of 20 Hz and a
           pulse width of 775 mus. The PSR compresses the pulse
           to 125 ns FWHM and the extracted beam is steered to
           the Lujan target system, which consists of a pair of
           tungsten spallation targets. The spallation
           neutrons are moderated by water to shift the neutron
           spectrum to lower energies.
ERR-ANALYS (ERR-S) statistical uncertainty
           uncertainty of the overall normalization of the
           cross-section ratio was 4%.
           (ERR-1) systematic uncertainty of the measured
            fission cross-section ratio introduced by correcting
            for fission of 239Pu contaminants in the sample
           (ERR-2) systematic uncertainty of the measured
            fission cross-section ratio introduced by correcting
            for fission of 233U contaminants in the sample
           (ERR-3) systematic uncertainty caused by dead time
            correction
HISTORY    (20080315C) compiled by S.H.
ENDBIB              34
NOCOMMON             0          0
ENDSUBENT           37
SUBENT        14166002   20080315   20080801   20080801       1348
BIB                  2          2
REACTION   ((93-NP-237(N,F),,SIG)/(92-U-235(N,F),,SIG))
STATUS     (TABLE) data obtained from the author (F.Tovesson)
ENDBIB               2
NOCOMMON             0          0
DATA                 6       1460
EN         DATA       ERR-S      ERR-1      ERR-2      ERR-3
EV         NO-DIM     NO-DIM     PER-CENT   PER-CENT   PER-CENT
 1.0058E-02 3.1662E-05 2.2627E-05     97.481     99.658     0.0080
 1.0174E-02 5.1545E-05 2.2695E-05     46.985     48.381     0.0080
 1.0292E-02 3.5376E-05 2.2151E-05     47.460     50.115     0.0090
 1.0411E-02 5.0362E-05 2.2319E-05     60.242     62.220     0.0090
 1.0532E-02 4.5136E-05 2.1856E-05     43.934     46.992     0.0090
 1.0654E-02 4.0658E-05 2.2073E-05     76.375     80.731     0.0090
 1.0777E-02 3.1937E-05 2.1769E-05     64.150     65.948     0.0100
 1.0902E-02 6.1871E-05 2.1123E-05     28.098     29.851     0.0100
 1.1028E-02 3.4750E-05 2.1071E-05    100.000    100.000     0.0100
 1.1156E-02 5.8371E-05 2.1250E-05     40.645     42.693     0.0110
 1.1285E-02 5.8652E-05 2.0998E-05     45.876     47.777     0.0110
 1.1416E-02 4.7220E-05 2.0661E-05     57.657     60.638     0.0110
 1.1548E-02 6.6315E-05 2.0687E-05     32.250     33.728     0.0110
 1.1682E-02 8.1341E-05 2.0505E-05     27.395     29.320     0.0110
 1.1817E-02 3.1656E-05 2.0137E-05     50.051     52.505     0.0110
 1.1954E-02 6.4985E-05 2.0332E-05     48.293     50.319     0.0110
 1.2092E-02 7.2745E-05 2.0063E-05     26.869     28.319     0.0110
 1.2232E-02 6.6613E-05 1.9427E-05     38.869     41.245     0.0120
 1.2374E-02 5.9473E-05 1.9002E-05     43.780     47.104     0.0120
 1.2517E-02 9.3457E-05 1.9343E-05     24.553     26.146     0.0120
 1.2662E-02 5.0031E-05 1.9028E-05     42.809     43.471     0.0120
 1.2809E-02 3.9468E-05 1.8778E-05     45.317     46.970     0.0120
 1.2957E-02 4.1229E-05 1.8525E-05     92.379     94.556     0.0120
 1.3107E-02 4.5833E-05 1.8610E-05     44.294     46.326     0.0130
 1.3259E-02 6.3268E-05 1.8694E-05     36.810     38.441     0.0130
 1.3412E-02 4.6144E-05 1.8428E-05     53.305     55.838     0.0130
 1.3568E-02 3.4087E-05 1.8729E-05     90.475     92.274     0.0130
 1.3725E-02 7.0337E-05 1.8621E-05     34.692     36.403     0.0130
 1.3884E-02 3.1409E-05 1.8295E-05     67.993     70.931     0.0130
 1.4044E-02 6.4996E-05 1.8356E-05     41.777     42.841     0.0140
 1.4207E-02 6.3878E-05 1.8062E-05     33.909     36.024     0.0140
 1.4372E-02 5.6564E-05 1.7984E-05     57.104     59.818     0.0150
 1.4538E-02 8.0304E-05 1.7856E-05     32.263     33.827     0.0150
 1.4706E-02 5.6583E-05 1.7575E-05     40.654     41.557     0.0160
 1.4877E-02 6.5816E-05 1.7551E-05     28.507     29.927     0.0160
 1.5049E-02 4.4546E-05 1.7465E-05     66.154     69.203     0.0160
 1.5223E-02 6.7373E-05 1.7419E-05     36.216     38.447     0.0170
 1.5399E-02 3.0014E-05 1.6998E-05     78.472     81.437     0.0170
 1.5578E-02 4.6460E-05 1.7222E-05     49.459     51.797     0.0170
 1.5758E-02 5.9141E-05 1.7355E-05     34.671     35.878     0.0170
 1.5941E-02 5.0044E-05 1.7632E-05     36.551     38.175     0.0160
 1.6125E-02 5.7473E-05 1.7484E-05     39.097     41.656     0.0170
 1.6312E-02 5.5552E-05 1.7626E-05     58.664     62.023     0.0170
 1.6501E-02 7.5069E-05 1.7626E-05     27.222     28.726     0.0170
 1.6692E-02 6.1512E-05 1.7669E-05     30.301     31.211     0.0170
 1.6885E-02 6.4451E-05 1.7685E-05     30.471     32.575     0.0170
 1.7081E-02 4.4460E-05 1.7485E-05     54.187     56.023     0.0170
 1.7278E-02 3.8078E-05 1.7417E-05     54.841     57.240     0.0180
 1.7479E-02 4.1606E-05 1.7398E-05     60.539     63.179     0.0180
 1.7681E-02 3.4988E-05 1.7438E-05     66.366     67.715     0.0180
 1.7886E-02 3.8181E-05 1.7239E-05     63.497     65.587     0.0180
 1.8093E-02 6.1077E-05 1.7211E-05     49.080     51.632     0.0190
 1.8302E-02 3.4230E-05 1.6894E-05     87.004     90.227     0.0200
 1.8514E-02 4.5919E-05 1.6701E-05     46.324     48.154     0.0200
 1.8729E-02 3.8399E-05 1.6604E-05     44.774     45.698     0.0200
 1.8946E-02 4.7735E-05 1.6505E-05     53.683     56.291     0.0210
 1.9165E-02 4.7695E-05 1.6592E-05     63.957     66.882     0.0210
 1.9387E-02 3.4460E-05 1.6415E-05     74.460     76.317     0.0210
 1.9611E-02 4.1663E-05 1.6339E-05     50.467     52.704     0.0210
 1.9838E-02 3.9728E-05 1.6462E-05     52.214     53.380     0.0210
 2.0068E-02 2.5663E-05 1.6417E-05     70.527     72.670     0.0210
 2.0300E-02 4.6733E-05 1.6461E-05     52.569     55.193     0.0220
 2.0536E-02 3.6686E-05 1.6273E-05     73.689     76.216     0.0220
 2.0773E-02 5.6993E-05 1.6156E-05     43.312     45.389     0.0220
 2.1014E-02 6.3116E-05 1.6136E-05     43.304     45.488     0.0230
 2.1257E-02 4.0213E-05 1.5868E-05     45.225     47.380     0.0230
 2.1503E-02 1.3564E-05 1.5845E-05    100.000    100.000     0.0230
 2.1752E-02 3.8242E-05 1.5797E-05     74.704     76.954     0.0240
 2.2004E-02 2.2695E-05 1.5580E-05     88.804     93.080     0.0240
 2.2259E-02 5.1087E-05 1.5707E-05     52.156     53.777     0.0240
 2.2517E-02 2.2354E-05 1.5664E-05     87.310     90.148     0.0240
 2.2778E-02 2.6751E-05 1.5708E-05     74.229     78.393     0.0240
 2.3041E-02 6.6037E-05 1.5847E-05     41.006     43.150     0.0240
 2.3308E-02 7.3206E-05 1.5763E-05     34.918     36.229     0.0240
 2.3578E-02 5.8259E-05 1.5722E-05     40.905     42.765     0.0240
 2.3851E-02 5.8428E-05 1.5616E-05     37.043     37.961     0.0250
 2.4127E-02 5.9993E-05 1.5433E-05     41.608     43.200     0.0250
 2.4407E-02 6.5075E-05 1.5470E-05     35.909     37.799     0.0250
 2.4689E-02 5.6238E-05 1.5228E-05     35.150     36.555     0.0250
 2.4975E-02 6.8614E-05 1.5517E-05     39.601     41.122     0.0250
 2.5264E-02 6.6295E-05 1.5254E-05     31.173     32.047     0.0250
 2.5557E-02 6.9245E-05 1.5321E-05     37.115     38.729     0.0260
 2.5853E-02 5.1008E-05 1.5130E-05     45.444     46.750     0.0260
 2.6152E-02 6.6757E-05 1.5113E-05     34.728     36.105     0.0260
 2.6455E-02 7.9694E-05 1.5142E-05     26.687     27.347     0.0260
 2.6761E-02 5.5937E-05 1.4972E-05     45.190     47.110     0.0270
 2.7071E-02 4.5387E-05 1.4869E-05     55.582     57.735     0.0270
 2.7385E-02 5.6181E-05 1.4858E-05     36.182     38.237     0.0280
 2.7702E-02 6.9078E-05 1.4771E-05     39.831     41.150     0.0280
 2.8022E-02 7.6549E-05 1.4665E-05     25.887     26.854     0.0280
 2.8347E-02 6.5833E-05 1.4733E-05     43.766     45.153     0.0290
 2.8675E-02 6.1629E-05 1.4563E-05     32.809     33.766     0.0290
 2.9007E-02 5.8876E-05 1.4730E-05     48.184     49.522     0.0290
 2.9343E-02 4.7926E-05 1.4733E-05     50.660     51.989     0.0290
 2.9683E-02 6.4198E-05 1.4799E-05     32.837     34.316     0.0290
 3.0027E-02 6.3640E-05 1.4947E-05     39.139     39.926     0.0280
 3.0374E-02 6.5472E-05 1.4882E-05     33.507     33.937     0.0290
 3.0726E-02 7.4372E-05 1.4909E-05     29.437     29.853     0.0290
 3.1082E-02 6.8808E-05 1.4843E-05     33.234     34.318     0.0290
 3.1442E-02 2.9083E-05 1.4823E-05     82.959     84.246     0.0290
 3.1806E-02 5.4509E-05 1.4722E-05     48.120     48.992     0.0300
 3.2174E-02 7.6655E-05 1.4829E-05     30.385     31.030     0.0300
 3.2547E-02 5.1150E-05 1.4818E-05     46.909     47.376     0.0300
 3.2924E-02 6.1298E-05 1.4692E-05     39.222     40.119     0.0310
 3.3305E-02 6.3841E-05 1.4661E-05     37.254     38.147     0.0310
 3.3690E-02 5.8763E-05 1.4608E-05     39.127     39.457     0.0310
 3.4081E-02 3.1641E-05 1.4508E-05     70.423     70.760     0.0320
 3.4475E-02 7.2369E-05 1.4673E-05     39.861     40.229     0.0320
 3.4874E-02 7.6736E-05 1.4599E-05     30.319     30.962     0.0320
 3.5278E-02 5.3141E-05 1.4585E-05     44.173     45.086     0.0320
 3.5687E-02 3.0458E-05 1.4421E-05     69.994     71.270     0.0320
 3.6100E-02 7.0008E-05 1.4660E-05     38.202     39.236     0.0320
 3.6518E-02 3.4056E-05 1.4566E-05     56.283     57.991     0.0330
 3.6941E-02 6.4266E-05 1.4637E-05     45.496     46.380     0.0330
 3.7369E-02 4.2197E-05 1.4473E-05     45.861     46.238     0.0330
 3.7801E-02 3.7826E-05 1.4452E-05     90.245     91.937     0.0340
 3.8239E-02 6.4988E-05 1.4483E-05     43.363     43.781     0.0340
 3.8682E-02 5.9273E-05 1.4400E-05     43.623     44.201     0.0350
 3.9130E-02 7.4124E-05 1.4501E-05     34.382     34.821     0.0350
 3.9583E-02 4.6861E-05 1.4227E-05     55.776     56.029     0.0360
 4.0041E-02 4.9512E-05 1.4457E-05     45.947     46.180     0.0360
 4.0505E-02 5.9017E-05 1.4297E-05     37.397     37.120     0.0360
 4.0974E-02 4.7096E-05 1.4325E-05     76.383     75.837     0.0370
 4.1448E-02 3.8046E-05 1.4268E-05     67.264     67.187     0.0370
 4.1928E-02 4.1955E-05 1.4194E-05     58.640     59.151     0.0370
 4.2414E-02 3.9295E-05 1.4274E-05     64.207     64.507     0.0370
 4.2905E-02 3.5281E-05 1.4290E-05     87.959     87.724     0.0370
 4.3402E-02 3.7160E-05 1.4340E-05     59.042     59.201     0.0370
 4.3904E-02 4.2673E-05 1.4456E-05     66.079     66.316     0.0370
 4.4413E-02 2.7226E-05 1.4425E-05     95.236     95.872     0.0370
 4.4927E-02 5.1840E-05 1.4462E-05     51.778     51.976     0.0370
 4.5447E-02 4.5207E-05 1.4413E-05     60.427     60.391     0.0380
 4.5974E-02 2.9264E-05 1.4402E-05     94.669     94.567     0.0380
 4.6506E-02 3.6973E-05 1.4552E-05     69.843     69.530     0.0380
 4.7044E-02 5.1078E-05 1.4629E-05     65.738     64.582     0.0380
 4.7589E-02 4.2179E-05 1.4543E-05     48.793     48.736     0.0380
 4.8140E-02 4.1016E-05 1.4596E-05     60.701     61.082     0.0380
 4.8698E-02 1.9194E-05 1.4582E-05    100.000    100.000     0.0380
 4.9261E-02 3.4404E-05 1.4736E-05     70.888     70.970     0.0380
 4.9832E-02 4.9771E-05 1.4691E-05     45.995     45.666     0.0380
 5.0409E-02 2.6739E-05 1.4674E-05    100.000    100.000     0.0380
 5.0993E-02 6.3682E-05 1.4751E-05     45.604     44.861     0.0390
 5.1583E-02 4.2274E-05 1.4679E-05     63.151     62.554     0.0390
 5.2180E-02 2.6657E-05 1.4749E-05     74.141     72.820     0.0390
 5.2785E-02 3.5067E-05 1.4853E-05    100.000     99.196     0.0390
 5.3396E-02 5.4296E-05 1.4879E-05     43.926     43.153     0.0390
 5.4014E-02 5.7549E-05 1.5047E-05     49.543     48.613     0.0390
 5.4640E-02 4.4314E-05 1.5059E-05     63.890     62.363     0.0390
 5.5272E-02 3.0563E-05 1.5129E-05     59.679     56.696     0.0390
 5.5912E-02 3.4538E-05 1.5267E-05    100.000    100.000     0.0390
 5.6560E-02 5.3251E-05 1.5225E-05     41.800     40.309     0.0390
 5.7215E-02 5.6524E-05 1.5306E-05     55.753     53.911     0.0390
 5.7877E-02 2.4537E-05 1.5314E-05     76.011     72.673     0.0390
 5.8547E-02 5.7495E-05 1.5318E-05     53.969     51.768     0.0390
 5.9225E-02 3.4037E-05 1.5582E-05     66.778     63.317     0.0390
 5.9911E-02 2.8565E-05 1.5641E-05    100.000     96.923     0.0390
 6.0605E-02 3.2284E-05 1.5594E-05     94.727     90.536     0.0390
 6.1307E-02 5.0186E-05 1.5681E-05     61.303     58.711     0.0390
 6.2017E-02 2.8788E-05 1.5885E-05    100.000    100.000     0.0390
 6.2735E-02 5.7138E-05 1.5922E-05     43.790     41.228     0.0390
 6.3461E-02 1.7682E-05 1.5999E-05    100.000    100.000     0.0390
 6.4196E-02 1.8084E-05 1.6080E-05    100.000    100.000     0.0390
 6.4939E-02 2.5601E-05 1.6157E-05     77.287     72.434     0.0380
 6.5691E-02 6.8438E-05 1.6368E-05     44.196     42.058     0.0380
 6.6452E-02 5.2776E-05 1.6579E-05     58.936     55.342     0.0380
 6.7221E-02 3.0203E-05 1.6644E-05    100.000     93.007     0.0380
 6.8000E-02 5.0121E-05 1.6833E-05     54.865     51.494     0.0380
 6.8787E-02 6.1252E-05 1.6957E-05     42.190     39.520     0.0380
 6.9584E-02 4.5651E-05 1.7078E-05     56.815     52.145     0.0380
 7.0389E-02 5.0989E-05 1.7225E-05     62.572     58.200     0.0370
 7.1205E-02 2.6899E-05 1.7282E-05     91.024     83.487     0.0370
 7.2029E-02 5.4242E-05 1.7527E-05     67.739     62.445     0.0370
 7.2863E-02 3.8215E-05 1.7698E-05     68.451     63.373     0.0370
 7.3707E-02 5.8853E-05 1.7770E-05     47.576     43.799     0.0370
 7.4560E-02 4.1376E-05 1.7881E-05     59.932     54.925     0.0370
 7.5424E-02 4.9112E-05 1.8153E-05     76.649     69.468     0.0370
 7.6297E-02 3.2187E-05 1.8135E-05     87.169     78.720     0.0360
 7.7180E-02 5.7696E-05 1.8257E-05     54.650     48.704     0.0360
 7.8074E-02 7.1165E-05 1.8403E-05     42.471     38.723     0.0360
 7.8978E-02 6.0911E-05 1.8718E-05     47.966     42.306     0.0360
 7.9893E-02 5.5935E-05 1.8930E-05     56.031     49.903     0.0360
 8.0818E-02 6.6171E-05 1.9016E-05     40.940     35.657     0.0350
 8.1754E-02 2.6490E-05 1.9086E-05    100.000    100.000     0.0350
 8.2700E-02 6.1003E-05 1.9482E-05     57.893     51.416     0.0350
 8.3658E-02 4.3012E-05 1.9620E-05     71.768     64.041     0.0350
 8.4627E-02 3.8916E-05 1.9815E-05     66.945     58.453     0.0350
 8.5607E-02 4.8755E-05 2.0101E-05     72.173     62.081     0.0340
 8.6598E-02 3.9453E-05 2.0294E-05     64.826     56.834     0.0340
 8.7601E-02 6.2669E-05 2.0606E-05     47.811     41.141     0.0340
 8.8615E-02 3.4481E-05 2.0848E-05    100.000     90.207     0.0330
 8.9641E-02 5.7639E-05 2.1031E-05     46.934     39.762     0.0330
 9.0679E-02 1.0575E-05 2.1310E-05    100.000    100.000     0.0330
 9.1729E-02 2.4041E-05 2.1598E-05    100.000    100.000     0.0330
 9.2791E-02-9.3792E-06 2.1602E-05    100.000    100.000     0.0320
 9.3866E-02 3.8284E-05 2.1975E-05    100.000     85.712     0.0320
 9.4953E-02 3.6276E-05 2.2437E-05    100.000    100.000     0.0320
 9.6052E-02 4.2435E-05 2.2783E-05     65.740     54.811     0.0310
 9.7164E-02 7.4720E-05 2.2863E-05     38.474     32.048     0.0310
 9.8290E-02 6.0001E-05 2.3359E-05     63.395     52.228     0.0310
 9.9428E-02 2.5691E-05 2.3495E-05    100.000    100.000     0.0310
 1.0058E-01 7.2575E-05 2.4178E-05     46.810     38.104     0.0310
 1.0174E-01 3.8662E-05 2.3979E-05     89.676     72.376     0.0300
 1.0292E-01 3.5031E-05 2.4400E-05    100.000     87.302     0.0300
 1.0411E-01 4.6205E-05 2.4767E-05    100.000     81.712     0.0300
 1.0532E-01 2.3744E-05 2.5049E-05     80.313     63.871     0.0300
 1.0654E-01 3.3762E-05 2.5665E-05     84.426     65.793     0.0290
 1.0777E-01 3.6113E-05 2.5832E-05    100.000    100.000     0.0290
 1.0902E-01 3.2720E-05 2.6012E-05     69.316     54.546     0.0290
 1.1028E-01 3.2648E-05 2.6416E-05    100.000     81.041     0.0290
 1.1156E-01 4.8686E-05 2.7095E-05    100.000     85.813     0.0290
 1.1285E-01 6.0131E-05 2.7393E-05     53.168     39.694     0.0280
 1.1416E-01 4.5160E-05 2.7812E-05    100.000     87.064     0.0280
 1.1548E-01 2.8803E-05 2.8211E-05    100.000     99.906     0.0280
 1.1682E-01 4.2485E-05 2.8842E-05     81.114     58.934     0.0280
 1.1817E-01-4.9749E-06 2.9102E-05    100.000    100.000     0.0280
 1.1954E-01 2.3637E-05 2.9531E-05    100.000    100.000     0.0270
 1.2092E-01-2.2017E-05 3.0143E-05    100.000    100.000     0.0270
 1.2232E-01 5.6941E-05 3.0437E-05     70.241     49.621     0.0270
 1.2374E-01-5.4621E-06 3.0655E-05    100.000    100.000     0.0270
 1.2517E-01 6.2750E-05 3.1710E-05     97.869     66.896     0.0270
 1.2662E-01 1.4308E-05 3.2003E-05    100.000    100.000     0.0260
 1.2809E-01 5.1976E-05 3.2702E-05     68.467     45.901     0.0260
 1.2957E-01 6.0586E-05 3.2805E-05    100.000     75.334     0.0260
 1.3107E-01 5.1862E-06 3.3024E-05    100.000     79.732     0.0260
 1.3259E-01-3.6313E-06 3.3765E-05    100.000    100.000     0.0260
 1.3412E-01-2.3258E-06 3.4239E-05    100.000    100.000     0.0250
 1.3568E-01 2.1768E-05 3.4781E-05    100.000    100.000     0.0250
 1.3725E-01 5.0222E-05 3.5776E-05    100.000     94.513     0.0250
 1.3884E-01 5.5103E-05 3.6501E-05     61.552     38.490     0.0250
 1.4044E-01 2.2733E-05 3.6995E-05    100.000    100.000     0.0250
 1.4207E-01 7.1654E-05 3.7798E-05     55.032     33.836     0.0250
 1.4372E-01-7.3099E-06 3.8173E-05    100.000     99.132     0.0240
 1.4538E-01 4.6914E-05 3.8749E-05     93.383     55.864     0.0240
 1.4706E-01-4.4756E-07 3.9859E-05    100.000    100.000     0.0240
 1.4877E-01 7.5774E-05 4.0029E-05     57.339     33.589     0.0240
 1.5049E-01-9.5830E-07 4.0934E-05    100.000    100.000     0.0240
 1.5223E-01 1.2297E-06 4.1269E-05    100.000    100.000     0.0240
 1.5399E-01 1.5674E-05 4.2292E-05    100.000    100.000     0.0240
 1.5578E-01 7.6285E-05 4.3145E-05     83.735     46.797     0.0230
 1.5758E-01 8.8921E-06 4.4203E-05    100.000    100.000     0.0230
 1.5941E-01 6.4090E-05 4.4355E-05     55.394     30.465     0.0230
 1.6125E-01-1.4983E-05 4.5714E-05     89.246     47.540     0.0230
 1.6312E-01 2.9853E-05 4.7101E-05    100.000    100.000     0.0230
 1.6501E-01-6.1147E-05 4.7274E-05    100.000    100.000     0.0230
 1.6692E-01 1.1108E-05 4.8432E-05    100.000    100.000     0.0230
 1.6885E-01 3.0463E-05 4.9029E-05    100.000     81.561     0.0230
 1.7081E-01 4.7783E-05 4.9890E-05    100.000     61.409     0.0220
 1.7278E-01 2.2753E-05 5.1145E-05    100.000     99.229     0.0220
 1.7479E-01-1.5030E-05 5.2732E-05    100.000     80.751     0.0220
 1.7681E-01-1.4337E-05 5.2745E-05    100.000    100.000     0.0220
 1.7886E-01 8.8261E-05 5.4123E-05     65.451     30.441     0.0220
 1.8093E-01-2.4873E-05 5.5510E-05    100.000    100.000     0.0220
 1.8302E-01-5.7212E-05 5.6431E-05    100.000     61.497     0.0220
 1.8514E-01 9.2069E-05 5.7138E-05    100.000     50.830     0.0220
 1.8729E-01-3.4962E-05 5.9266E-05    100.000    100.000     0.0220
 1.8946E-01 8.9364E-06 5.9794E-05    100.000    100.000     0.0220
 1.9165E-01 7.6376E-05 6.2018E-05    100.000     91.815     0.0220
 1.9387E-01 4.1591E-05 6.3379E-05    100.000    100.000     0.0220
 1.9611E-01 1.2903E-05 6.4385E-05    100.000    100.000     0.0220
 1.9838E-01 2.1495E-05 6.5628E-05    100.000     76.175     0.0220
 2.0068E-01-5.0666E-05 6.6958E-05    100.000     37.711     0.0220
 2.0300E-01 2.0142E-05 6.8229E-05    100.000    100.000     0.0220
 2.0536E-01 6.5132E-05 6.9110E-05    100.000     41.032     0.0220
 2.0773E-01 2.5855E-05 7.0633E-05    100.000    100.000     0.0220
 2.1014E-01-4.9062E-06 7.2979E-05    100.000    100.000     0.0220
 2.1257E-01 8.9774E-06 7.4871E-05    100.000    100.000     0.0220
 2.1503E-01-1.5977E-05 7.7121E-05    100.000    100.000     0.0230
 2.1752E-01-5.5611E-05 7.7825E-05    100.000     34.863     0.0230
 2.2004E-01 1.4324E-04 7.9262E-05     91.929     25.332     0.0230
 2.2259E-01-2.5300E-05 8.2207E-05    100.000     45.231     0.0230
 2.2517E-01 1.2279E-04 8.3326E-05     84.966     21.264     0.0230
 2.2778E-01 1.0835E-04 8.4631E-05     80.135     19.353     0.0230
 2.3041E-01-3.6810E-05 8.8512E-05    100.000     22.972     0.0230
 2.3308E-01-3.4944E-05 9.1110E-05    100.000    100.000     0.0230
 2.3578E-01 9.1856E-05 9.2251E-05    100.000     54.656     0.0240
 2.3851E-01-1.1455E-05 9.5155E-05    100.000    100.000     0.0240
 2.4127E-01 1.3561E-04 9.5013E-05    100.000     23.296     0.0240
 2.4407E-01 1.1248E-04 9.9158E-05    100.000     25.483     0.0240
 2.4689E-01 2.4756E-05 1.0448E-04    100.000     40.262     0.0240
 2.4975E-01 4.4669E-05 1.0757E-04    100.000    100.000     0.0250
 2.5264E-01 5.0174E-05 1.1060E-04    100.000    100.000     0.0250
 2.5557E-01 9.3672E-05 1.1220E-04    100.000     30.706     0.0250
 2.5853E-01 9.7861E-05 1.1767E-04    100.000    100.000     0.0250
 2.6152E-01 2.6093E-05 1.2016E-04    100.000    100.000     0.0250
 2.6455E-01 1.6932E-04 1.2140E-04     99.379     12.233     0.0260
 2.6761E-01 3.7318E-04 1.2403E-04     64.102      7.599     0.0260
 2.7071E-01 1.1191E-04 1.2987E-04    100.000     29.922     0.0260
 2.7385E-01 3.2559E-04 1.3150E-04     92.349     10.060     0.0260
 2.7702E-01 1.7650E-04 1.3610E-04    100.000     13.149     0.0260
 2.8023E-01 4.4981E-04 1.3462E-04     56.447      5.887     0.0260
 2.8347E-01 4.7873E-04 1.4255E-04     56.481      5.500     0.0260
 2.8675E-01 5.3073E-04 1.3900E-04     41.894      4.106     0.0260
 2.9007E-01 3.0352E-04 1.4777E-04     84.091      8.011     0.0260
 2.9343E-01 1.2076E-04 1.4988E-04    100.000     13.376     0.0260
 2.9683E-01 2.6853E-04 1.5091E-04     88.014      8.484     0.0260
 3.0027E-01 4.0008E-04 1.4626E-04     58.875      5.609     0.0260
 3.0374E-01 2.3331E-04 1.4731E-04     71.481      6.933     0.0260
 3.0726E-01 2.6857E-04 1.4476E-04     69.062      7.084     0.0260
 3.1082E-01 1.8048E-04 1.4732E-04     94.001      9.461     0.0260
 3.1442E-01 2.4074E-04 1.4138E-04     64.744      7.048     0.0260
 3.1806E-01-1.0794E-05 1.4226E-04    100.000     20.643     0.0250
 3.2174E-01 2.4914E-04 1.3747E-04     53.856      6.369     0.0250
 3.2547E-01 1.7224E-04 1.3570E-04     88.526     11.068     0.0250
 3.2924E-01 9.3534E-05 1.3101E-04     71.397      9.252     0.0250
 3.3305E-01-1.7852E-04 1.3317E-04    100.000     45.855     0.0240
 3.3691E-01 8.6397E-05 1.2603E-04     84.424     12.573     0.0240
 3.4081E-01 2.0134E-04 1.2030E-04     51.652      8.255     0.0240
 3.4475E-01 8.5194E-05 1.1865E-04     74.288     12.613     0.0240
 3.4874E-01 1.0670E-04 1.1608E-04     78.666     14.434     0.0230
 3.5278E-01-1.2940E-06 1.1401E-04    100.000     22.406     0.0230
 3.5687E-01-1.0389E-05 1.1259E-04    100.000     43.129     0.0230
 3.6100E-01 5.2279E-05 1.0797E-04    100.000     26.243     0.0230
 3.6518E-01-6.9956E-05 1.0703E-04    100.000    100.000     0.0220
 3.6941E-01-1.5086E-04 1.0541E-04    100.000    100.000     0.0220
 3.7369E-01-4.8517E-05 1.0363E-04    100.000    100.000     0.0220
 3.7801E-01 7.4246E-05 9.9342E-05     82.581     25.162     0.0220
 3.8239E-01-1.6187E-04 9.9270E-05    100.000     86.150     0.0210
 3.8682E-01-1.1326E-06 9.7940E-05    100.000     63.935     0.0210
 3.9130E-01-1.1897E-04 9.7321E-05    100.000     40.010     0.0210
 3.9583E-01-2.0228E-05 9.3093E-05    100.000     74.692     0.0210
 4.0041E-01 1.0372E-04 9.0871E-05     66.175     26.881     0.0200
 4.0505E-01 3.6279E-05 9.0529E-05     80.673     34.158     0.0200
 4.0974E-01 1.0662E-04 9.0265E-05     85.729     37.647     0.0200
 4.1448E-01 2.0244E-05 8.7503E-05    100.000     52.532     0.0200
 4.1928E-01 3.1323E-05 8.8955E-05    100.000    100.000     0.0200
 4.2414E-01 1.0366E-04 8.7833E-05     43.432     23.301     0.0200
 4.2905E-01 5.8314E-05 8.5863E-05     70.859     39.260     0.0190
 4.3402E-01 9.8904E-05 8.5935E-05     68.683     39.881     0.0190
 4.3904E-01 1.4615E-04 8.6232E-05     42.574     26.726     0.0190
 4.4413E-01 1.4126E-04 8.4324E-05     41.818     26.591     0.0190
 4.4927E-01 1.8037E-04 8.6032E-05     37.443     24.943     0.0190
 4.5447E-01 2.1303E-04 8.5537E-05     23.448     16.675     0.0190
 4.5974E-01 4.4511E-04 8.6692E-05     14.389     10.514     0.0180
 4.6506E-01 4.4306E-04 8.7247E-05     14.286     11.149     0.0180
 4.7044E-01 6.8026E-04 8.8492E-05      8.737      6.810     0.0180
 4.7589E-01 7.5821E-04 9.0552E-05      7.997      6.540     0.0180
 4.8140E-01 8.1524E-04 9.1939E-05      6.686      5.627     0.0180
 4.8698E-01 8.0778E-04 9.0283E-05      6.436      5.576     0.0180
 4.9262E-01 9.1982E-04 9.4684E-05      6.234      5.799     0.0180
 4.9832E-01 7.9355E-04 9.2029E-05      6.618      6.178     0.0180
 5.0409E-01 7.0056E-04 9.0687E-05      6.916      6.819     0.0180
 5.0993E-01 7.9120E-04 8.8561E-05      6.025      6.133     0.0170
 5.1583E-01 7.0657E-04 8.7764E-05      6.265      6.499     0.0170
 5.2180E-01 4.2321E-04 8.5048E-05     10.350     10.779     0.0170
 5.2785E-01 3.6542E-04 8.7288E-05     14.567     16.250     0.0170
 5.3396E-01 3.7827E-04 8.3268E-05     11.182     12.691     0.0170
 5.4014E-01 3.2321E-04 8.4812E-05     13.219     15.493     0.0170
 5.4640E-01 3.1022E-04 8.3222E-05     13.897     16.534     0.0170
 5.5272E-01 2.0742E-04 8.4662E-05     20.247     24.109     0.0170
 5.5912E-01 1.5077E-04 8.2443E-05     32.367     40.824     0.0170
 5.6560E-01 2.0933E-04 8.3686E-05     19.017     24.052     0.0170
 5.7215E-01 1.8009E-04 8.2689E-05     28.263     36.563     0.0170
 5.7877E-01 1.8290E-04 8.1577E-05     19.451     25.519     0.0170
 5.8547E-01 1.3403E-04 8.1444E-05     47.087     61.758     0.0170
 5.9225E-01 2.0069E-04 8.0813E-05     18.823     26.437     0.0170
 5.9911E-01 7.6076E-05 8.2547E-05     36.487     49.430     0.0170
 6.0605E-01 1.9730E-04 8.1426E-05     24.064     35.343     0.0160
 6.1307E-01 1.6630E-04 8.3666E-05     25.180     37.307     0.0160
 6.2016E-01 2.3961E-04 8.3080E-05     17.172     25.055     0.0160
 6.2735E-01 1.5625E-04 8.3337E-05     39.670     57.286     0.0160
 6.3461E-01 1.0137E-04 8.0199E-05     20.625     31.557     0.0160
 6.4196E-01 1.2284E-04 8.1474E-05     43.816     68.448     0.0160
 6.4939E-01 7.4954E-05 8.1794E-05     39.070     60.486     0.0160
 6.5691E-01 1.0606E-04 8.3435E-05     46.532     74.083     0.0160
 6.6452E-01 8.1821E-05 8.2765E-05     79.124    100.000     0.0160
 6.7221E-01 1.0584E-04 8.0778E-05     22.494     37.293     0.0160
 6.8000E-01 1.9154E-04 8.0560E-05     18.608     30.738     0.0160
 6.8787E-01 1.1655E-04 8.1136E-05     44.504     76.973     0.0160
 6.9584E-01 1.4560E-04 8.1871E-05     41.014     68.246     0.0160
 7.0389E-01 1.6325E-04 8.3565E-05     19.156     32.980     0.0160
 7.1205E-01 1.6270E-04 8.1717E-05     18.238     32.471     0.0160
 7.2029E-01 8.6250E-05 8.2765E-05    100.000    100.000     0.0160
 7.2863E-01 1.2909E-04 8.3810E-05     26.646     46.514     0.0160
 7.3707E-01 6.9875E-05 8.1623E-05     32.497     59.412     0.0160
 7.4560E-01 1.0708E-04 8.0626E-05     46.343     86.230     0.0160
 7.5424E-01-3.2064E-05 8.0585E-05     77.150    100.000     0.0160
 7.6297E-01 1.6641E-04 8.1826E-05     58.640    100.000     0.0160
 7.7180E-01 1.3312E-05 7.9492E-05     54.267    100.000     0.0160
 7.8074E-01 1.4526E-05 8.0585E-05     74.183    100.000     0.0160
 7.8978E-01 1.2926E-04 7.9475E-05     36.372     72.166     0.0160
 7.9893E-01-2.0675E-05 7.9549E-05    100.000    100.000     0.0160
 8.0818E-01 1.5463E-04 7.8815E-05     31.430     65.971     0.0160
 8.1754E-01 9.8207E-06 8.0204E-05     47.138     99.118     0.0170
 8.2700E-01 1.9945E-04 7.9530E-05     20.438     45.135     0.0170
 8.3658E-01 1.0538E-04 7.8540E-05     29.705     65.870     0.0170
 8.4627E-01 5.9208E-05 7.5657E-05     78.244    100.000     0.0170
 8.5607E-01 4.8995E-05 7.8503E-05    100.000    100.000     0.0170
 8.6598E-01 5.7155E-05 7.6118E-05     38.871     90.378     0.0170
 8.7601E-01-8.0637E-05 7.3327E-05     89.730    100.000     0.0170
 8.8615E-01 1.1425E-04 7.4152E-05    100.000    100.000     0.0180
 8.9641E-01 3.6250E-05 7.4695E-05    100.000    100.000     0.0180
 9.0679E-01 3.7677E-05 7.2461E-05     46.356    100.000     0.0180
 9.1729E-01 1.2050E-04 7.1641E-05     35.727     91.753     0.0180
 9.2791E-01-4.8399E-05 6.8829E-05     57.169    100.000     0.0190
 9.3866E-01-8.2579E-06 6.9010E-05     69.873    100.000     0.0190
 9.4953E-01 5.8483E-05 6.5343E-05     42.390    100.000     0.0200
 9.6052E-01 5.9564E-05 6.3464E-05     53.409    100.000     0.0200
 9.7164E-01 1.2114E-04 6.1907E-05     18.634     50.385     0.0210
 9.8289E-01 4.3636E-05 6.0064E-05     98.497    100.000     0.0210
 9.9428E-01-6.5323E-05 5.6170E-05     37.969    100.000     0.0220
 1.0058E+00 7.1234E-05 5.4467E-05     37.918    100.000     0.0230
 1.0174E+00 1.0855E-04 5.1762E-05     23.137     72.666     0.0240
 1.0292E+00 7.0217E-05 4.8990E-05     22.305     68.074     0.0250
 1.0411E+00 8.0795E-05 4.5949E-05     15.344     50.812     0.0260
 1.0532E+00-1.3379E-05 4.2405E-05     25.886     88.999     0.0270
 1.0654E+00 3.6845E-06 3.9728E-05    100.000    100.000     0.0280
 1.0777E+00 1.3297E-05 3.8007E-05    100.000    100.000     0.0280
 1.0902E+00 4.1926E-05 3.6915E-05    100.000    100.000     0.0280
 1.1028E+00 3.3366E-05 3.5834E-05     37.635    100.000     0.0280
 1.1156E+00 3.6914E-05 3.4732E-05     49.034    100.000     0.0260
 1.1285E+00 4.8531E-05 3.6186E-05     22.905     91.214     0.0250
 1.1416E+00 1.3545E-05 3.8459E-05    100.000    100.000     0.0230
 1.1548E+00-2.9869E-06 4.2435E-05     43.878    100.000     0.0200
 1.1682E+00 5.6898E-05 4.8578E-05     27.709    100.000     0.0180
 1.1817E+00 1.8892E-05 5.9036E-05    100.000    100.000     0.0160
 1.1954E+00 7.3064E-05 7.2912E-05     92.147    100.000     0.0140
 1.2092E+00 1.3950E-05 9.1444E-05    100.000    100.000     0.0130
 1.2232E+00 5.4997E-04 1.2025E-04      6.733     33.929     0.0120
 1.2374E+00 8.6384E-04 1.5642E-04      4.819     23.611     0.0120
 1.2517E+00 1.1685E-03 1.7979E-04      2.990     15.487     0.0110
 1.2662E+00 2.0053E-03 2.2235E-04      2.390     12.862     0.0110
 1.2809E+00 2.6939E-03 2.6946E-04      1.840      9.982     0.0110
 1.2957E+00 4.1050E-03 3.0624E-04      1.314      7.456     0.0100
 1.3107E+00 5.7457E-03 3.3222E-04      0.771      4.557     0.0100
 1.3259E+00 4.8318E-03 3.4568E-04      0.996      6.150     0.0100
 1.3412E+00 4.5396E-03 3.4575E-04      1.022      6.528     0.0100
 1.3568E+00 3.2179E-03 3.5173E-04      1.476      9.907     0.0100
 1.3725E+00 2.4493E-03 3.6665E-04      2.511     17.194     0.0100
 1.3884E+00 2.9013E-03 3.6857E-04      1.642     12.250     0.0090
 1.4044E+00 2.5904E-03 4.1494E-04      2.545     19.354     0.0090
 1.4207E+00 2.5411E-03 4.3539E-04      2.328     18.485     0.0090
 1.4372E+00 3.8792E-03 4.8903E-04      1.656     14.278     0.0090
 1.4538E+00 4.9815E-03 5.0773E-04      1.377     11.149     0.0090
 1.4706E+00 4.9488E-03 5.4138E-04      1.278     11.328     0.0090
 1.4877E+00 5.2162E-03 5.4820E-04      1.173     11.065     0.0090
 1.5049E+00 3.4923E-03 5.4486E-04      1.600     15.620     0.0090
 1.5223E+00 2.8067E-03 4.8675E-04      1.776     17.127     0.0090
 1.5399E+00 1.6724E-03 5.4309E-04      4.646     49.556     0.0090
 1.5578E+00 1.4065E-03 5.7381E-04      5.160     57.856     0.0090
 1.5758E+00 7.7556E-05 6.2965E-04     17.450    100.000     0.0090
 1.5941E+00 1.5184E-03 5.6933E-04      4.020     47.050     0.0090
 1.6125E+00-1.0527E-04 6.8273E-04     19.154    100.000     0.0090
 1.6312E+00 7.5838E-04 6.3672E-04      7.876    100.000     0.0090
 1.6501E+00 5.1243E-04 7.2685E-04     25.019    100.000     0.0090
 1.6692E+00 1.3363E-03 7.5080E-04     12.120    100.000     0.0090
 1.6885E+00 5.0824E-04 8.2682E-04     31.709    100.000     0.0090
 1.7081E+00 1.2021E-03 8.4290E-04     10.277    100.000     0.0090
 1.7279E+00 2.0236E-03 8.3875E-04      4.200     86.539     0.0090
 1.7479E+00-1.6946E-04 9.9101E-04     39.214    100.000     0.0090
 1.7681E+00 1.0613E-03 9.6307E-04     10.850    100.000     0.0090
 1.7886E+00 1.5487E-03 9.2156E-04      4.759    100.000     0.0090
 1.8093E+00 1.3231E-03 8.3130E-04      4.939    100.000     0.0090
 1.8302E+00 5.1224E-04 8.5328E-04    100.000    100.000     0.0090
 1.8514E+00 1.9850E-03 7.1364E-04      3.085     56.127     0.0100
 1.8729E+00 3.4266E-04 7.1091E-04      9.001    100.000     0.0100
 1.8945E+00 1.2234E-03 5.8870E-04      4.920     74.135     0.0110
 1.9165E+00 6.5390E-04 5.5393E-04      9.113    100.000     0.0110
 1.9387E+00-1.6830E-04 5.0725E-04    100.000    100.000     0.0110
 1.9611E+00 7.2526E-05 3.8826E-04     37.805    100.000     0.0110
 1.9838E+00 1.6558E-04 3.0968E-04     43.001    100.000     0.0100
 2.0068E+00-1.9386E-04 2.2246E-04    100.000    100.000     0.0100
 2.0301E+00-3.8189E-04 2.1614E-04      6.997     64.326     0.0090
 2.0536E+00-3.8760E-04 2.4448E-04      9.478     82.925     0.0090
 2.0773E+00-4.5934E-04 3.3697E-04      6.314     55.099     0.0080
 2.1014E+00 2.5334E-04 4.2623E-04     26.660    100.000     0.0080
 2.1257E+00-6.5374E-05 5.5166E-04     17.909    100.000     0.0080
 2.1503E+00 8.5854E-04 5.7416E-04     11.817    100.000     0.0080
 2.1752E+00-5.2379E-04 6.8799E-04      9.547    100.000     0.0080
 2.2004E+00-3.8960E-05 6.9699E-04     15.210    100.000     0.0080
 2.2259E+00-6.0485E-04 8.3060E-04      6.551     97.630     0.0080
 2.2517E+00-1.1934E-03 9.5941E-04      3.699     58.021     0.0080
 2.2778E+00 6.4044E-04 9.5099E-04     23.851    100.000     0.0080
 2.3041E+00 6.5585E-04 8.5795E-04      9.526    100.000     0.0080
 2.3308E+00 2.6054E-03 6.5447E-04      1.975     20.285     0.0070
 2.3578E+00 7.3703E-04 5.7904E-04      5.359     34.723     0.0070
 2.3851E+00 1.4289E-03 4.9927E-04      5.545     24.066     0.0070
 2.4127E+00 6.9680E-04 4.0715E-04      6.462     20.659     0.0070
 2.4407E+00 1.1982E-03 3.7422E-04      5.983     15.462     0.0070
 2.4689E+00 1.2576E-03 4.0163E-04      7.562     16.845     0.0070
 2.4975E+00 7.6575E-04 4.5559E-04     11.607     25.707     0.0070
 2.5264E+00 7.9443E-04 3.9807E-04      8.161     17.040     0.0070
 2.5557E+00 3.4323E-04 4.7367E-04     26.021     58.069     0.0080
 2.5853E+00 5.5443E-04 4.1321E-04     10.225     20.970     0.0080
 2.6152E+00 1.0938E-03 4.3160E-04      8.545     17.522     0.0090
 2.6455E+00 9.9622E-04 4.5049E-04      8.776     17.053     0.0090
 2.6761E+00 8.3590E-04 4.5319E-04     12.663     26.156     0.0100
 2.7071E+00 1.2801E-03 3.8723E-04      5.695     11.850     0.0110
 2.7385E+00 5.8977E-04 3.0517E-04      9.490     19.656     0.0120
 2.7702E+00 4.1711E-04 2.4210E-04     18.752     40.436     0.0130
 2.8022E+00-6.7357E-05 1.8511E-04    100.000    100.000     0.0150
 2.8347E+00-9.7023E-05 1.4663E-04     19.397     42.882     0.0160
 2.8675E+00 5.2447E-05 1.3148E-04     53.275    100.000     0.0170
 2.9007E+00 8.3737E-05 1.2350E-04    100.000    100.000     0.0180
 2.9343E+00 1.2723E-05 1.0878E-04    100.000    100.000     0.0180
 2.9683E+00 2.0590E-05 9.8353E-05     56.242    100.000     0.0180
 3.0027E+00 7.5079E-07 8.8180E-05    100.000    100.000     0.0170
 3.0374E+00-8.9183E-06 7.3419E-05    100.000    100.000     0.0170
 3.0726E+00 2.8374E-05 6.4262E-05    100.000    100.000     0.0170
 3.1082E+00-1.3249E-05 5.6792E-05     33.821    100.000     0.0160
 3.1442E+00-8.5070E-06 5.5230E-05     55.787    100.000     0.0160
 3.1806E+00-8.0663E-05 6.5786E-05     17.353     57.907     0.0170
 3.2174E+00-2.3748E-04 8.6376E-05      9.624     35.338     0.0190
 3.2547E+00-3.5605E-05 1.1729E-04     16.067     63.194     0.0210
 3.2924E+00 3.0550E-05 1.3775E-04     61.818    100.000     0.0220
 3.3305E+00-1.3298E-04 1.3505E-04     20.914     93.753     0.0220
 3.3691E+00-2.2225E-05 1.2605E-04     32.937    100.000     0.0210
 3.4081E+00-1.6320E-04 1.0429E-04      9.823     52.026     0.0200
 3.4475E+00-4.7930E-05 9.2412E-05     17.339     98.818     0.0190
 3.4874E+00-9.0689E-05 7.5571E-05     10.046     58.981     0.0170
 3.5278E+00 5.0852E-05 6.0017E-05     43.508    100.000     0.0160
 3.5687E+00 1.2564E-04 4.9489E-05     11.666     89.698     0.0130
 3.6100E+00 7.0881E-05 4.8435E-05     12.121     92.036     0.0100
 3.6518E+00 1.9005E-04 7.0127E-05      7.960     55.158     0.0070
 3.6941E+00 1.0991E-03 1.6851E-04      2.646     15.545     0.0050
 3.7369E+00 4.4789E-03 4.6789E-04      1.327      6.049     0.0050
 3.7801E+00 1.9234E-02 1.3833E-03      0.573      2.153     0.0040
 3.8239E+00 5.5641E-02 3.7974E-03      0.254      0.864     0.0040
 3.8682E+00 9.6790E-02 7.8728E-03      0.137      0.432     0.0040
 3.9130E+00 6.8174E-02 6.7672E-03      0.178      0.502     0.0040
 3.9583E+00 3.2860E-02 4.5296E-03      0.445      1.354     0.0040
 4.0041E+00 2.2394E-02 4.1085E-03      0.849      2.541     0.0040
 4.0505E+00 1.4398E-02 2.8255E-03      1.185      3.479     0.0040
 4.0974E+00 1.1583E-02 2.9106E-03      1.844      5.408     0.0050
 4.1448E+00 9.5368E-03 2.4965E-03      1.966      6.535     0.0050
 4.1928E+00 1.2030E-02 2.3375E-03      1.263      4.485     0.0050
 4.2414E+00 1.0146E-02 2.0401E-03      1.450      5.405     0.0060
 4.2905E+00 8.4041E-03 2.0490E-03      1.885      7.557     0.0060
 4.3402E+00 8.4219E-03 1.9384E-03      1.658      6.936     0.0070
 4.3904E+00 5.3916E-03 1.6906E-03      2.917     12.097     0.0070
 4.4413E+00 5.0334E-03 1.3602E-03      2.574     12.069     0.0070
 4.4927E+00 1.5406E-03 1.4966E-03      6.928     36.270     0.0070
 4.5447E+00 1.5859E-03 1.1952E-03      8.762     49.666     0.0070
 4.5973E+00 1.3786E-03 9.5603E-04     18.123    100.000     0.0070
 4.6506E+00 6.8904E-04 7.5469E-04     11.210     68.594     0.0080
 4.7044E+00 8.2772E-04 4.9313E-04      7.286     46.183     0.0080
 4.7589E+00 2.6644E-04 3.4852E-04     17.317    100.000     0.0080
 4.8140E+00-1.2274E-04 2.1487E-04     17.252    100.000     0.0080
 4.8698E+00 1.3288E-04 1.9731E-04     85.904    100.000     0.0080
 4.9261E+00 8.8803E-04 3.9312E-04      4.942     27.034     0.0090
 4.9832E+00 1.7674E-03 6.0356E-04      3.875     21.149     0.0090
 5.0409E+00 1.4035E-03 5.9486E-04      4.544     22.166     0.0100
 5.0993E+00 1.5916E-03 4.9682E-04      4.167     19.821     0.0100
 5.1583E+00 8.6707E-04 4.3731E-04      8.221     35.890     0.0110
 5.2180E+00 1.0051E-03 3.2383E-04      3.603     15.381     0.0120
 5.2785E+00 8.7944E-04 2.6845E-04      5.230     21.796     0.0140
 5.3396E+00 1.3956E-03 2.3269E-04      2.767     12.078     0.0160
 5.4014E+00 1.4616E-03 2.1442E-04      2.362      9.552     0.0180
 5.4640E+00 2.3737E-03 2.1783E-04      1.233      5.363     0.0200
 5.5272E+00 3.1835E-03 2.3202E-04      0.842      3.986     0.0240
 5.5912E+00 4.3970E-03 2.5530E-04      0.607      3.105     0.0250
 5.6560E+00 7.7657E-03 3.1581E-04      0.353      1.951     0.0250
 5.7215E+00 1.3860E-02 3.9432E-04      0.174      1.134     0.0250
 5.7877E+00 1.5232E-02 3.9111E-04      0.122      0.885     0.0250
 5.8547E+00 5.6756E-03 2.4067E-04      0.243      1.767     0.0250
 5.9225E+00 1.1624E-03 1.3595E-04      0.912      7.163     0.0250
 5.9911E+00 2.8544E-04 9.0884E-05      3.145     24.073     0.0260
 6.0605E+00 1.7694E-04 6.8823E-05      6.082     46.380     0.0270
 6.1307E+00 1.0423E-04 5.4332E-05      8.466     68.661     0.0270
 6.2016E+00 9.9365E-06 4.5457E-05     40.814    100.000     0.0260
 6.2735E+00 6.3038E-05 4.3507E-05     45.806    100.000     0.0230
 6.3461E+00 9.5286E-05 3.4944E-05      5.493     59.502     0.0200
 6.4196E+00 2.3542E-05 3.9530E-05     19.298    100.000     0.0170
 6.4939E+00-3.6370E-04 1.1800E-04      3.131     45.188     0.0140
 6.5691E+00-8.6727E-04 3.6517E-04      2.876     51.788     0.0130
 6.6452E+00-1.1149E-03 5.7782E-04      1.908     46.873     0.0130
 6.7221E+00-8.4910E-04 5.1309E-04      2.171     61.613     0.0130
 6.8000E+00-8.4747E-04 4.4639E-04      1.948     57.634     0.0130
 6.8787E+00-9.1484E-06 2.4524E-04      8.636    100.000     0.0120
 6.9584E+00 1.2594E-04 1.0298E-04      4.076     33.254     0.0120
 7.0389E+00 2.2788E-04 5.2219E-05      4.124     18.095     0.0120
 7.1204E+00 2.0143E-04 5.3966E-05      7.612     18.912     0.0110
 7.2029E+00 6.2749E-04 1.7079E-04      9.904     16.285     0.0130
 7.2863E+00 3.1251E-03 6.4474E-04      5.873      7.399     0.0210
 7.3707E+00 1.2733E-02 1.3529E-03      2.796      2.469     0.0350
 7.4560E+00 1.2069E-02 1.5661E-03      2.932      2.114     0.0490
 7.5424E+00 7.5072E-03 1.8094E-03      6.505      3.357     0.0560
 7.6297E+00 3.1577E-03 2.3534E-03    100.000    100.000     0.0600
 7.7180E+00 1.9118E-03 3.2668E-03     75.822     12.439     0.0640
 7.8074E+00 6.4887E-03 2.2965E-03     19.960      2.248     0.0680
 7.8978E+00 6.8503E-04 8.0862E-04      9.534      1.747     0.0710
 7.9893E+00 2.3855E-04 2.1443E-04      7.188      4.504     0.0720
 8.0818E+00 4.4769E-04 1.0226E-04      5.963      8.207     0.0730
 8.1754E+00 3.6732E-04 6.0977E-05      2.942      5.973     0.0740
 8.2700E+00 4.3736E-04 4.2882E-05      1.470      4.038     0.0740
 8.3658E+00 3.1511E-04 2.8421E-05      1.255      3.954     0.0730
 8.4627E+00 2.0627E-04 1.7630E-05      1.139      4.356     0.0720
 8.5607E+00 1.8995E-04 1.1201E-05      0.751      3.194     0.0690
 8.6598E+00 1.8837E-04 7.2901E-06      0.491      2.213     0.0630
 8.7601E+00 1.9901E-04 5.6833E-06      0.315      1.418     0.0520
 8.8615E+00 2.5314E-04 8.7508E-06      0.367      1.670     0.0390
 8.9641E+00 5.1968E-04 2.2358E-05      0.328      1.856     0.0310
 9.0679E+00 4.6981E-04 3.0914E-05      0.495      3.277     0.0260
 9.1729E+00 2.2383E-04 2.9242E-05      1.482      9.839     0.0230
 9.2791E+00 2.2248E-04 2.8484E-05      1.540     11.962     0.0200
 9.3866E+00 1.5847E-04 3.8079E-05      3.989     24.074     0.0180
 9.4953E+00 2.2063E-05 5.8626E-05     33.901    100.000     0.0170
 9.6052E+00 4.7684E-05 7.5521E-05     86.023    100.000     0.0180
 9.7164E+00 1.1130E-04 9.4068E-05     95.693    100.000     0.0180
 9.8290E+00 1.5827E-04 1.2165E-04     20.332    100.000     0.0190
 9.9428E+00-3.8922E-04 1.7102E-04      6.777     41.048     0.0210
 1.0058E+01-4.3716E-04 1.8192E-04      5.906     32.961     0.0280
 1.0174E+01-1.1220E-04 1.5762E-04      8.858     57.952     0.0340
 1.0292E+01-1.1890E-06 2.4503E-04     11.119     61.600     0.0350
 1.0411E+01 5.2246E-04 4.4946E-04    100.000    100.000     0.0360
 1.0532E+01 2.0240E-03 5.5523E-04     14.775     24.715     0.0360
 1.0654E+01 2.9378E-03 7.6407E-04     20.573     13.877     0.0370
 1.0777E+01 2.8217E-03 9.4719E-04     34.461     11.006     0.0380
 1.0902E+01 5.6774E-04 1.2519E-03    100.000     63.223     0.0390
 1.1028E+01-2.6630E-04 9.4014E-04     34.227      8.114     0.0410
 1.1156E+01 1.1295E-03 3.8710E-04      8.190      4.041     0.0440
 1.1285E+01 1.4314E-04 2.1890E-04     17.087     14.858     0.0460
 1.1416E+01 1.3040E-04 1.3876E-04     42.198     39.946     0.0480
 1.1548E+01 1.1934E-04 8.9293E-05     33.690     28.343     0.0490
 1.1682E+01-1.1299E-04 7.4710E-05     25.519     17.757     0.0490
 1.1817E+01 1.6494E-04 1.3346E-04     76.034     38.676     0.0480
 1.1954E+01-3.7498E-05 1.0011E-04     22.309     15.092     0.0470
 1.2092E+01 9.4883E-05 3.6341E-05      4.280     14.752     0.0460
 1.2232E+01 1.2375E-04 1.8794E-05      2.027     19.750     0.0430
 1.2374E+01 1.0788E-04 1.1680E-05      1.533     17.506     0.0380
 1.2517E+01 2.0926E-05 2.4704E-05     15.176    100.000     0.0330
 1.2662E+01-3.9020E-04 1.2265E-04      2.256     43.212     0.0310
 1.2809E+01-3.5374E-05 1.2600E-04      9.523    100.000     0.0310
 1.2957E+01-1.2647E-05 1.0681E-04      6.797     67.090     0.0310
 1.3107E+01 9.8363E-05 9.7021E-05     10.907     56.682     0.0310
 1.3259E+01 1.1893E-04 7.2898E-05     22.156     76.204     0.0310
 1.3412E+01-1.2417E-06 6.9841E-05     38.897    100.000     0.0310
 1.3568E+01 8.9448E-05 6.1385E-05     39.257    100.000     0.0290
 1.3725E+01 1.4458E-04 4.9860E-05     14.901     27.181     0.0280
 1.3884E+01 3.7070E-05 4.7066E-05    100.000    100.000     0.0260
 1.4044E+01 1.0499E-04 5.7675E-05    100.000     60.407     0.0240
 1.4207E+01-4.6997E-05 1.0370E-04     33.209      6.952     0.0240
 1.4372E+01-1.4167E-04 1.7108E-04     45.192      8.086     0.0240
 1.4538E+01 2.1846E-04 2.2881E-04    100.000    100.000     0.0240
 1.4706E+01 3.0951E-04 6.0789E-04    100.000     57.147     0.0270
 1.4877E+01 2.4440E-04 4.0365E-04      9.040      4.451     0.0340
 1.5049E+01-3.3584E-04 2.1334E-04     52.950     75.692     0.0440
 1.5223E+01-1.7082E-04 1.4001E-04     14.344     34.850     0.0470
 1.5399E+01-2.0067E-04 9.9018E-05     19.864     48.462     0.0470
 1.5578E+01-2.4676E-04 1.6954E-04     62.040    100.000     0.0470
 1.5758E+01 2.9204E-04 1.9434E-04     10.272     25.317     0.0480
 1.5941E+01 2.7560E-04 1.0541E-04     13.693     57.405     0.0490
 1.6125E+01 7.1876E-06 7.1725E-05    100.000    100.000     0.0510
 1.6312E+01-2.8757E-04 1.3715E-04      9.017     62.924     0.0530
 1.6501E+01-9.3088E-06 9.2730E-05     32.830    100.000     0.0530
 1.6692E+01 2.2248E-04 5.9807E-05      6.501     20.906     0.0520
 1.6885E+01 3.8958E-04 1.0492E-04      6.751      9.069     0.0510
 1.7081E+01 2.4608E-04 1.9627E-04     45.328     38.917     0.0520
 1.7279E+01-8.4255E-05 2.5310E-04     31.143     16.278     0.0530
 1.7479E+01 3.5625E-04 2.7613E-04     41.496     15.567     0.0550
 1.7681E+01 2.5724E-04 2.1077E-04     63.449     24.800     0.0570
 1.7886E+01 2.0462E-05 6.2434E-05      6.458     10.943     0.0590
 1.8093E+01 1.7713E-04 3.1353E-05      1.969     16.806     0.0600
 1.8302E+01 1.2928E-04 3.7403E-05      2.970     38.793     0.0600
 1.8514E+01 6.5767E-05 3.8588E-05      3.605     68.677     0.0610
 1.8729E+01 6.8198E-05 3.0203E-05      5.698    100.000     0.0600
 1.8945E+01 1.1961E-04 2.0309E-05      1.004     36.701     0.0590
 1.9165E+01 1.6531E-04 9.4502E-06      0.293      6.736     0.0550
 1.9387E+01 1.6010E-04 7.1629E-06      0.318      4.417     0.0480
 1.9611E+01 1.2228E-04 2.5757E-05      1.531     19.318     0.0430
 1.9838E+01 2.8702E-04 6.5854E-05      2.075     22.416     0.0430
 2.0068E+01 2.4936E-04 6.7698E-05      2.255     24.546     0.0430
 2.0300E+01 2.7639E-04 7.8329E-05      3.888     52.772     0.0430
 2.0536E+01 1.8643E-04 6.6043E-05      4.361     47.368     0.0430
 2.0773E+01 2.0985E-04 4.8124E-05      3.331     24.719     0.0430
 2.1014E+01 2.6883E-04 3.0535E-05      2.266     11.869     0.0410
 2.1257E+01 5.0330E-05 5.7884E-05     48.262    100.000     0.0390
 2.1503E+01-5.1077E-04 3.7215E-04     14.215     65.945     0.0380
 2.1752E+01 2.4275E-04 5.3520E-04     11.049     44.185     0.0380
 2.2004E+01 1.3941E-03 5.4752E-04     49.264    100.000     0.0380
 2.2259E+01 1.3525E-03 4.9491E-04     51.174     76.887     0.0380
 2.2517E+01 1.1567E-04 1.9860E-04      6.150     15.607     0.0390
 2.2778E+01 4.9136E-04 7.0765E-05      1.442     11.651     0.0380
 2.3041E+01 4.2967E-04 4.5619E-05      0.925      8.359     0.0380
 2.3308E+01 3.3225E-04 3.8291E-05      1.037      8.102     0.0380
 2.3578E+01 2.8586E-04 2.9439E-05      1.186      9.612     0.0370
 2.3851E+01 4.4987E-04 4.6693E-05      1.421      8.773     0.0350
 2.4127E+01 7.5414E-04 6.2393E-05      0.519      4.301     0.0360
 2.4407E+01 1.0456E-03 6.3238E-05      0.378      3.108     0.0380
 2.4689E+01 2.0676E-03 9.4806E-05      0.305      2.104     0.0410
 2.4975E+01 3.5327E-03 1.1446E-04      0.192      1.337     0.0460
 2.5264E+01 1.6955E-03 7.5073E-05      0.282      1.923     0.0510
 2.5557E+01 1.3784E-03 6.7473E-05      0.696      2.268     0.0510
 2.5853E+01 3.2446E-03 1.2438E-04      0.774      1.313     0.0500
 2.6152E+01 8.5716E-03 2.4022E-04      0.771      0.599     0.0490
 2.6455E+01 9.9046E-03 1.9118E-04      0.300      0.341     0.0490
 2.6761E+01 8.2144E-03 1.9299E-04      0.053      0.381     0.0480
 2.7071E+01 1.6831E-03 1.1701E-04      0.189      1.498     0.0480
 2.7385E+01 1.2966E-03 9.9262E-05      0.330      2.976     0.0490
 2.7702E+01 1.0022E-03 6.3716E-05      0.208      3.085     0.0500
 2.8023E+01 1.6039E-03 9.1743E-05      0.135      3.324     0.0500
 2.8347E+01 4.5088E-03 2.0745E-04      0.085      1.992     0.0510
 2.8675E+01 1.1341E-02 4.2535E-04      0.049      1.769     0.0510
 2.9007E+01 2.5271E-02 7.8729E-04      0.033      1.190     0.0530
 2.9343E+01 2.7372E-02 7.1337E-04      0.028      0.649     0.0540
 2.9683E+01 3.3140E-02 6.4452E-04      0.016      0.272     0.0540
 3.0027E+01 6.5510E-02 9.7348E-04      0.009      0.136     0.0550
 3.0374E+01 8.7755E-02 8.9054E-04      0.004      0.078     0.0560
 3.0726E+01 2.1170E-02 3.2226E-04      0.008      0.179     0.0570
 3.1082E+01 2.0359E-03 1.2114E-04      0.095      1.572     0.0570
 3.1442E+01 1.8099E-03 1.0914E-04      0.227      3.275     0.0570
 3.1806E+01 6.1756E-04 4.8456E-05      0.429      5.035     0.0570
 3.2174E+01 3.4992E-04 3.2833E-05      1.261      7.178     0.0560
 3.2547E+01 5.8686E-04 7.5433E-05      1.440      7.090     0.0560
 3.2924E+01 6.6023E-04 6.3562E-05      0.406      6.236     0.0570
 3.3305E+01 5.7401E-04 3.9239E-05      0.167      4.865     0.0570
 3.3691E+01 4.5746E-04 3.0180E-05      0.167      4.908     0.0560
 3.4081E+01 4.8473E-04 3.0860E-05      0.147      4.727     0.0560
 3.4475E+01 4.9085E-04 2.2434E-05      0.115      3.149     0.0550
 3.4874E+01 5.9859E-04 2.2031E-05      0.083      1.709     0.0530
 3.5278E+01 7.6936E-04 2.3916E-05      0.074      1.134     0.0490
 3.5687E+01 2.8624E-03 8.7520E-05      0.057      0.895     0.0460
 3.6100E+01 1.1381E-02 2.8589E-04      0.028      0.554     0.0470
 3.6518E+01 2.6775E-02 5.2071E-04      0.015      0.324     0.0490
 3.6941E+01 5.8951E-02 8.4677E-04      0.009      0.126     0.0530
 3.7369E+01 5.7755E-02 7.6692E-04      0.005      0.091     0.0570
 3.7801E+01 3.4495E-02 5.0225E-04      0.008      0.090     0.0580
 3.8239E+01 3.9342E-02 4.6096E-04      0.007      0.059     0.0600
 3.8682E+01 6.0780E-02 5.4449E-04      0.005      0.047     0.0600
 3.9130E+01 5.3754E-02 3.8619E-04      0.003      0.034     0.0600
 3.9583E+01 4.6261E-02 3.1203E-04      0.005      0.036     0.0590
 4.0041E+01 1.5320E-01 1.0305E-03      0.003      0.023     0.0580
 4.0505E+01 3.1095E-02 4.0784E-04      0.016      0.065     0.0580
 4.0974E+01 3.3588E-02 4.1170E-04      0.046      0.093     0.0580
 4.1448E+01 4.6129E-02 4.3994E-04      0.047      0.035     0.0570
 4.1928E+01 7.8166E-03 1.7473E-04      0.107      0.110     0.0560
 4.2414E+01 3.6329E-03 1.4401E-04      0.126      0.832     0.0560
 4.2905E+01 6.2502E-03 2.0907E-04      0.104      0.535     0.0550
 4.3402E+01 2.1468E-03 1.0739E-04      0.233      0.746     0.0550
 4.3904E+01 1.9332E-03 9.3751E-05      0.436      0.765     0.0560
 4.4413E+01 2.0112E-03 9.2471E-05      0.696      0.633     0.0570
 4.4927E+01 3.2785E-03 1.1507E-04      0.312      0.436     0.0570
 4.5447E+01 9.3210E-03 2.4287E-04      0.098      0.281     0.0580
 4.5974E+01 2.1194E-02 3.6844E-04      0.054      0.149     0.0590
 4.6506E+01 6.0228E-03 1.6299E-04      0.109      0.228     0.0590
 4.7044E+01 7.6696E-04 6.1202E-05      1.352      1.877     0.0590
 4.7589E+01 1.2734E-03 1.0443E-04      2.789      2.218     0.0590
 4.8140E+01 1.2043E-03 7.1398E-05      1.186      1.644     0.0580
 4.8698E+01 1.8716E-03 8.7710E-05      0.620      1.942     0.0580
 4.9261E+01 3.5260E-03 1.2446E-04      0.541      0.690     0.0570
 4.9832E+01 5.8809E-03 1.5430E-04      0.416      0.264     0.0570
 5.0409E+01 7.1173E-03 1.3331E-04      0.181      0.156     0.0570
 5.0993E+01 1.3388E-03 4.8771E-05      0.183      0.335     0.0560
 5.1583E+01 2.7793E-04 2.4970E-05      1.396      2.328     0.0550
 5.2180E+01 2.7287E-04 3.7705E-05      4.693      5.486     0.0540
 5.2785E+01 1.2166E-04 7.0256E-05     25.788     26.645     0.0530
 5.3396E+01 3.2956E-04 6.2686E-05      2.502      9.717     0.0530
 5.4014E+01 2.2747E-04 5.6039E-05      4.716     20.856     0.0540
 5.4640E+01 3.2398E-04 4.3545E-05      3.325     10.976     0.0530
 5.5272E+01 2.9338E-04 3.2363E-05      3.134      6.789     0.0520
 5.5912E+01 1.4377E-04 2.9524E-05      8.830     15.579     0.0490
 5.6560E+01 1.6342E-04 3.3839E-05     14.391     21.804     0.0460
 5.7215E+01 2.0949E-04 1.1135E-04    100.000    100.000     0.0450
 5.7877E+01 8.5975E-05 1.0133E-04     44.240     21.793     0.0440
 5.8547E+01 3.6792E-04 1.1219E-04     16.933      8.499     0.0430
 5.9225E+01 6.6182E-04 2.0001E-04     16.361      4.476     0.0430
 5.9911E+01 1.0358E-03 1.3614E-04      3.875      1.863     0.0430
 6.0605E+01 6.7727E-04 1.1505E-04      4.365      4.814     0.0430
 6.1307E+01 5.9554E-04 1.6637E-04      9.877     15.152     0.0430
 6.2017E+01 6.1667E-04 2.3461E-04      8.918     10.315     0.0430
 6.2735E+01 1.1819E-03 2.3064E-04      5.530      5.994     0.0430
 6.3461E+01 5.6463E-04 1.6602E-04      7.363      7.062     0.0430
 6.4196E+01 4.7583E-04 2.1259E-04     35.937     45.152     0.0430
 6.4939E+01 2.2224E-03 4.9789E-04      7.491      4.956     0.0440
 6.5691E+01 3.1434E-03 5.8780E-04     13.082      3.521     0.0450
 6.6452E+01 1.1761E-03 3.3189E-04      4.652      2.261     0.0460
 6.7221E+01 1.8872E-03 2.5080E-04      2.249      3.508     0.0460
 6.8000E+01 1.2215E-03 1.6327E-04      1.639      3.903     0.0470
 6.8787E+01 3.8421E-04 8.4925E-05      3.836     10.892     0.0480
 6.9584E+01 3.0639E-04 5.4502E-05      3.019      9.798     0.0480
 7.0389E+01 2.4630E-04 3.7323E-05      3.778      9.026     0.0470
 7.1204E+01 2.4821E-04 5.3944E-05      5.046      7.932     0.0460
 7.2029E+01 2.2892E-04 7.0391E-05     10.778     15.034     0.0470
 7.2863E+01 1.2702E-04 8.9510E-05    100.000    100.000     0.0470
 7.3707E+01 3.7816E-04 1.7684E-04    100.000    100.000     0.0470
 7.4560E+01 2.1091E-04 1.3128E-04    100.000     63.032     0.0470
 7.5424E+01-3.2065E-04 1.7209E-04    100.000    100.000     0.0460
 7.6297E+01 2.7069E-04 1.4034E-04      2.471      4.356     0.0460
 7.7180E+01 4.0331E-04 1.0484E-04      3.294      9.868     0.0470
 7.8074E+01 2.8915E-04 8.6952E-05      5.195     20.451     0.0470
 7.8978E+01 3.2895E-04 1.1992E-04      7.808     22.983     0.0470
 7.9893E+01 3.6177E-04 1.0865E-04      6.639     14.807     0.0470
 8.0818E+01 3.8293E-04 1.2037E-04     15.052     14.531     0.0470
 8.1754E+01 5.1209E-04 1.3285E-04     13.629     11.364     0.0470
 8.2700E+01 5.8506E-04 1.1307E-04      8.688      6.991     0.0470
 8.3658E+01 5.3637E-04 7.7984E-05      6.141      2.098     0.0470
 8.4627E+01 2.8642E-04 8.6787E-05     22.722      5.615     0.0460
 8.5607E+01 4.5186E-04 1.8932E-04     22.099      5.820     0.0460
 8.6598E+01 1.1343E-03 1.8181E-04      3.735      1.551     0.0470
 8.7601E+01 7.2185E-04 1.0516E-04      2.924      3.122     0.0470
 8.8615E+01 4.7207E-04 7.1685E-05      3.124      7.984     0.0470
 8.9641E+01 6.7314E-04 8.8514E-05      2.535      7.224     0.0470
 9.0679E+01 4.8064E-04 8.7849E-05      4.483     11.970     0.0470
 9.1729E+01 2.9604E-04 6.9866E-05      3.031      5.560     0.0460
 9.2791E+01 3.5385E-04 9.2796E-05      6.319     13.705     0.0460
 9.3866E+01 7.4545E-04 1.4589E-04      4.247      8.385     0.0460
 9.4953E+01 5.6736E-04 1.3616E-04      5.300      8.443     0.0470
 9.6052E+01 6.5731E-04 1.4940E-04      6.400      9.525     0.0470
 9.7164E+01 4.4304E-04 1.6146E-04      9.437     20.184     0.0470
 9.8290E+01 5.9712E-04 1.1553E-04      3.659     12.579     0.0470
 9.9428E+01 9.7027E-04 1.7994E-04      2.367      6.457     0.0480
 1.0058E+02 1.4143E-03 1.5966E-04      1.635      3.208     0.0480
 1.0174E+02 1.1474E-03 1.3203E-04      1.533      2.834     0.0480
 1.0292E+02 7.1540E-04 8.5590E-05      2.028      4.183     0.0490
 1.0411E+02 8.2320E-04 1.0792E-04      2.072      5.328     0.0490
 1.0532E+02 1.4279E-03 1.2710E-04      1.566      4.447     0.0500
 1.0654E+02 1.5377E-03 1.9442E-04      2.308      6.264     0.0500
 1.0777E+02 1.2924E-03 1.6581E-04      1.763      6.254     0.0510
 1.0902E+02 2.0601E-03 2.1450E-04      0.823      6.109     0.0510
 1.1028E+02 3.4758E-03 2.4253E-04      0.451      3.221     0.0520
 1.1156E+02 4.8996E-03 2.8120E-04      0.414      2.199     0.0520
 1.1285E+02 6.6446E-03 2.8137E-04      0.241      1.131     0.0530
 1.1416E+02 7.3647E-03 2.6890E-04      0.321      0.982     0.0530
 1.1548E+02 7.3962E-03 2.2707E-04      0.372      0.515     0.0540
 1.1682E+02 1.1483E-02 2.7301E-04      0.296      0.338     0.0540
 1.1817E+02 2.0005E-02 3.2954E-04      0.164      0.228     0.0550
 1.1954E+02 4.2364E-02 5.3509E-04      0.089      0.077     0.0550
 1.2092E+02 9.2277E-03 2.3746E-04      0.088      0.202     0.0550
 1.2232E+02 1.2679E-03 8.7473E-05      0.457      1.452     0.0550
 1.2374E+02 1.8960E-03 1.2791E-04      0.555      2.448     0.0550
 1.2517E+02 1.2616E-03 8.1379E-05      0.515      1.426     0.0550
 1.2662E+02 5.7675E-04 6.2887E-05      1.412      2.045     0.0540
 1.2809E+02 6.5752E-04 9.9589E-05      2.407      3.138     0.0540
 1.2957E+02 4.7252E-04 9.7676E-05      5.846      6.382     0.0540
 1.3107E+02 4.1341E-04 7.9262E-05      5.145      5.217     0.0540
 1.3259E+02 4.2548E-04 7.1287E-05      4.250      6.345     0.0530
 1.3412E+02 3.0761E-04 6.4094E-05      3.528      7.677     0.0530
 1.3568E+02 4.5411E-04 6.5623E-05      2.487      5.528     0.0520
 1.3725E+02 1.1479E-03 1.3863E-04      1.875      2.199     0.0520
 1.3884E+02 1.1690E-03 1.5217E-04      1.001      2.460     0.0530
 1.4044E+02 8.4066E-04 1.1387E-04      1.395      4.310     0.0530
 1.4207E+02 5.4854E-04 9.5688E-05      2.979      6.987     0.0520
 1.4372E+02 7.2196E-04 1.4180E-04      4.547      6.334     0.0520
 1.4538E+02 6.2306E-04 8.6222E-05      1.297      4.063     0.0520
 1.4706E+02 6.6991E-04 9.9806E-05      2.420      5.078     0.0520
 1.4877E+02 4.9401E-04 9.3714E-05      2.427      7.552     0.0520
 1.5049E+02 6.4382E-04 1.1558E-04      2.125      6.433     0.0520
 1.5223E+02 7.7005E-04 1.2450E-04      1.815      5.899     0.0520
 1.5400E+02 5.2585E-04 8.8558E-05      2.404      4.215     0.0520
 1.5578E+02 5.5166E-04 1.0321E-04      5.339      5.324     0.0520
 1.5758E+02 4.8345E-04 1.2561E-04      6.696      4.821     0.0530
 1.5941E+02 7.5049E-04 1.0253E-04      1.591      3.116     0.0530
 1.6125E+02 7.7876E-04 1.0157E-04      1.406      5.509     0.0530
 1.6312E+02 6.5438E-04 9.3982E-05      1.640      5.757     0.0530
 1.6501E+02 7.4361E-04 1.0534E-04      2.183      5.695     0.0530
 1.6692E+02 6.7863E-04 9.2014E-05      1.931      4.339     0.0530
 1.6885E+02 8.3289E-04 9.7997E-05      1.334      4.378     0.0540
 1.7081E+02 1.2136E-03 1.1958E-04      0.645      2.670     0.0540
 1.7278E+02 1.2224E-03 1.0224E-04      0.455      1.807     0.0540
 1.7479E+02 1.3177E-03 8.7139E-05      0.359      1.578     0.0540
 1.7681E+02 1.2965E-03 8.1023E-05      0.387      1.050     0.0550
 1.7886E+02 1.7530E-03 1.0790E-04      0.427      0.871     0.0540
 1.8093E+02 2.7060E-03 1.6264E-04      0.419      0.884     0.0550
 1.8302E+02 5.5845E-03 2.8718E-04      0.505      0.917     0.0550
 1.8514E+02 1.0055E-02 4.3196E-04      0.334      0.618     0.0560
 1.8729E+02 1.1579E-02 3.8475E-04      0.173      0.532     0.0560
 1.8946E+02 9.9706E-03 3.1000E-04      0.171      0.619     0.0570
 1.9165E+02 1.1195E-02 2.9825E-04      0.190      0.433     0.0570
 1.9387E+02 1.7876E-02 3.8313E-04      0.219      0.218     0.0570
 1.9611E+02 2.5452E-02 4.7306E-04      0.195      0.159     0.0570
 1.9838E+02 2.1574E-02 3.5458E-04      0.095      0.127     0.0570
 2.0068E+02 3.7949E-02 4.9153E-04      0.067      0.078     0.0570
 2.0300E+02 2.5064E-02 5.0454E-04      0.119      0.127     0.0570
 2.0536E+02 6.4397E-03 2.8826E-04      0.423      0.624     0.0570
 2.0773E+02 4.9086E-03 2.2880E-04      0.186      0.937     0.0580
 2.1014E+02 2.4696E-03 1.6124E-04      0.289      1.421     0.0580
 2.1257E+02 1.9915E-03 1.2374E-04      0.361      1.421     0.0580
 2.1503E+02 3.1345E-03 1.5538E-04      0.306      1.318     0.0580
 2.1752E+02 4.5194E-03 1.8085E-04      0.186      0.989     0.0580
 2.2004E+02 2.3729E-03 1.1321E-04      0.271      0.966     0.0580
 2.2259E+02 2.3957E-03 1.1288E-04      0.256      1.001     0.0570
 2.2517E+02 4.0955E-03 1.5947E-04      0.221      0.484     0.0570
 2.2778E+02 6.4142E-03 2.1618E-04      0.178      0.338     0.0570
 2.3041E+02 7.7085E-03 2.1937E-04      0.119      0.302     0.0570
 2.3308E+02 9.2372E-03 2.4431E-04      0.124      0.340     0.0560
 2.3578E+02 1.1621E-02 3.3727E-04      0.112      0.321     0.0560
 2.3851E+02 4.9961E-03 1.9914E-04      0.152      0.481     0.0560
 2.4127E+02 2.6249E-03 1.3393E-04      0.331      0.783     0.0560
 2.4407E+02 3.9133E-03 1.8744E-04      0.361      0.836     0.0550
 2.4689E+02 5.8502E-03 2.1961E-04      0.249      0.695     0.0550
 2.4975E+02 9.3948E-03 2.7184E-04      0.172      0.443     0.0550
 2.5264E+02 1.3736E-02 3.1320E-04      0.126      0.252     0.0540
 2.5557E+02 7.9791E-03 2.4444E-04      0.171      0.213     0.0540
 2.5853E+02 3.1631E-03 1.5542E-04      0.472      0.405     0.0540
 2.6152E+02 1.3484E-03 9.6845E-05      1.141      0.905     0.0530
 2.6455E+02 1.5756E-03 1.2004E-04      1.449      1.233     0.0530
 2.6761E+02 1.6357E-03 1.1412E-04      1.082      1.151     0.0520
 2.7071E+02 2.3152E-03 1.3314E-04      1.025      0.913     0.0520
 2.7385E+02 2.8962E-03 1.7099E-04      1.281      1.066     0.0510
 2.7702E+02 4.6397E-03 2.1167E-04      0.749      0.822     0.0510
 2.8023E+02 9.7968E-03 3.1355E-04      0.244      0.417     0.0510
 2.8347E+02 1.8984E-02 5.3237E-04      0.125      0.289     0.0510
 2.8675E+02 4.7442E-03 2.4558E-04      0.217      0.562     0.0510
 2.9007E+02 1.1782E-03 1.3647E-04      0.997      2.707     0.0510
 2.9343E+02 1.5208E-03 2.0501E-04      1.290      4.665     0.0510
 2.9683E+02 1.2394E-03 2.0742E-04      1.766      7.222     0.0510
 3.0027E+02 1.3799E-03 2.0353E-04      1.759      4.242     0.0510
 3.0374E+02 1.3129E-03 1.8281E-04      1.574      2.274     0.0510
 3.0726E+02 1.5209E-03 1.8559E-04      1.139      2.046     0.0510
 3.1082E+02 1.5368E-03 1.7970E-04      1.174      2.607     0.0510
 3.1442E+02 1.3083E-03 1.3865E-04      0.740      2.189     0.0510
 3.1806E+02 1.5929E-03 1.5362E-04      0.632      1.875     0.0510
 3.2174E+02 1.7157E-03 1.5272E-04      0.699      1.771     0.0510
 3.2547E+02 2.2291E-03 1.7502E-04      0.745      1.792     0.0510
 3.2924E+02 4.2698E-03 2.6273E-04      0.298      0.934     0.0510
 3.3305E+02 5.7831E-03 2.8712E-04      0.176      0.532     0.0510
 3.3690E+02 5.9468E-03 2.8620E-04      0.162      0.397     0.0510
 3.4081E+02 2.7220E-03 1.9312E-04      0.283      0.774     0.0510
 3.4475E+02 2.3367E-03 1.9818E-04      0.633      1.132     0.0510
 3.4874E+02 3.0682E-03 2.3768E-04      0.666      1.094     0.0510
 3.5278E+02 4.0847E-03 2.6008E-04      0.404      0.833     0.0510
 3.5687E+02 5.6783E-03 3.0160E-04      0.205      0.768     0.0510
 3.6100E+02 8.1114E-03 3.4950E-04      0.162      0.592     0.0510
 3.6518E+02 1.3281E-02 4.5759E-04      0.110      0.521     0.0510
 3.6941E+02 2.3269E-02 6.2954E-04      0.078      0.298     0.0510
 3.7369E+02 2.3607E-02 6.2586E-04      0.063      0.235     0.0510
 3.7801E+02 7.6724E-03 3.1739E-04      0.097      0.312     0.0510
 3.8239E+02 2.6691E-03 1.9916E-04      0.385      1.079     0.0510
 3.8682E+02 1.9174E-03 1.9047E-04      0.650      1.791     0.0510
 3.9130E+02 1.8741E-03 1.9378E-04      0.568      2.460     0.0510
 3.9583E+02 2.0010E-03 1.9730E-04      0.995      2.000     0.0510
 4.0041E+02 2.7133E-03 2.3997E-04      1.196      1.213     0.0510
 4.0505E+02 3.8756E-03 2.4739E-04      0.641      0.608     0.0510
 4.0974E+02 4.5207E-03 2.5680E-04      0.330      0.524     0.0510
 4.1448E+02 5.8842E-03 2.6768E-04      0.222      0.479     0.0510
 4.1928E+02 7.7824E-03 2.7188E-04      0.119      0.256     0.0510
 4.2414E+02 1.1510E-02 3.2300E-04      0.079      0.164     0.0510
 4.2905E+02 8.9703E-03 2.8352E-04      0.093      0.158     0.0510
 4.3402E+02 2.4055E-03 1.5469E-04      0.229      0.437     0.0510
 4.3904E+02 1.3732E-03 1.2774E-04      0.584      1.335     0.0510
 4.4413E+02 1.7950E-03 1.5934E-04      0.572      1.078     0.0510
 4.4927E+02 2.3301E-03 1.9592E-04      0.705      1.079     0.0510
 4.5447E+02 2.8154E-03 2.0467E-04      0.652      0.859     0.0510
 4.5974E+02 3.1969E-03 1.9545E-04      0.623      0.793     0.0510
 4.6506E+02 4.5037E-03 2.1653E-04      0.251      0.644     0.0510
 4.7044E+02 7.5134E-03 2.9689E-04      0.189      0.461     0.0510
 4.7589E+02 7.4770E-03 2.8507E-04      0.120      0.344     0.0510
 4.8140E+02 2.6163E-03 1.6895E-04      0.295      0.842     0.0510
 4.8698E+02 1.0762E-03 1.3167E-04      1.207      2.506     0.0510
 4.9262E+02 8.6240E-04 1.2153E-04      1.898      2.923     0.0500
 4.9832E+02 7.2211E-04 1.0127E-04      1.819      2.617     0.0500
 5.0409E+02 7.2491E-04 1.0177E-04      2.459      2.795     0.0500
 5.0993E+02 6.6519E-04 1.0859E-04      3.478      3.168     0.0500
 5.1583E+02 8.1281E-04 1.2882E-04      3.748      3.619     0.0500
 5.2180E+02 1.1256E-03 1.7132E-04      2.753      3.242     0.0500
 5.2785E+02 1.1517E-03 1.6572E-04      2.703      2.810     0.0500
 5.3396E+02 1.5648E-03 1.6305E-04      1.661      1.990     0.0500
 5.4014E+02 2.1983E-03 1.7084E-04      0.694      1.247     0.0490
 5.4640E+02 3.2579E-03 2.1676E-04      0.707      1.030     0.0490
 5.5272E+02 3.8656E-03 2.4143E-04      0.577      0.677     0.0490
 5.5912E+02 2.8279E-03 2.0124E-04      0.727      0.873     0.0490
 5.6560E+02 2.1545E-03 1.6801E-04      0.863      1.239     0.0490
 5.7215E+02 2.6029E-03 1.6653E-04      0.593      1.026     0.0490
 5.7877E+02 4.4562E-03 2.2038E-04      0.314      0.686     0.0490
 5.8547E+02 4.5139E-03 2.1983E-04      0.143      0.629     0.0490
 5.9225E+02 2.3971E-03 1.6060E-04      0.190      0.771     0.0490
 5.9911E+02 1.2214E-03 1.2910E-04      0.547      1.837     0.0490
 6.0605E+02 9.5549E-04 1.2792E-04      0.844      3.616     0.0490
 6.1307E+02 1.2214E-03 1.4911E-04      0.642      3.275     0.0490
 6.2016E+02 1.5102E-03 1.9120E-04      0.669      3.358     0.0500
 6.2735E+02 2.0234E-03 2.0385E-04      0.608      3.117     0.0500
 6.3461E+02 2.4804E-03 2.2075E-04      0.549      2.291     0.0500
 6.4196E+02 3.4742E-03 2.5411E-04      0.302      1.386     0.0500
 6.4939E+02 5.2218E-03 2.9783E-04      0.162      0.941     0.0510
 6.5691E+02 7.7498E-03 3.3609E-04      0.106      0.587     0.0510
 6.6452E+02 9.8905E-03 3.3707E-04      0.068      0.345     0.0510
 6.7221E+02 8.0704E-03 2.9115E-04      0.080      0.380     0.0520
 6.8000E+02 3.4595E-03 1.9716E-04      0.144      0.681     0.0520
 6.8787E+02 2.3480E-03 1.8408E-04      0.367      1.316     0.0520
 6.9584E+02 2.9241E-03 2.0831E-04      0.251      1.193     0.0530
 7.0389E+02 4.7275E-03 2.6189E-04      0.153      0.658     0.0530
 7.1204E+02 6.8313E-03 3.1421E-04      0.123      0.544     0.0540
 7.2029E+02 7.2067E-03 3.0775E-04      0.116      0.427     0.0540
 7.2863E+02 3.8453E-03 2.2456E-04      0.187      0.575     0.0550
 7.3707E+02 1.5597E-03 1.6228E-04      0.542      1.498     0.0550
 7.4560E+02 1.3618E-03 1.7040E-04      1.018      2.952     0.0550
 7.5424E+02 1.2655E-03 1.6087E-04      1.042      3.100     0.0550
 7.6297E+02 1.7681E-03 1.6478E-04      0.523      1.469     0.0550
 7.7180E+02 2.2454E-03 1.8427E-04      0.428      1.324     0.0560
 7.8074E+02 2.9466E-03 2.1284E-04      0.513      1.106     0.0560
 7.8978E+02 4.5148E-03 2.6959E-04      0.321      0.694     0.0570
 7.9893E+02 8.0010E-03 3.7206E-04      0.183      0.475     0.0580
 8.0818E+02 1.1364E-02 4.6993E-04      0.136      0.380     0.0590
 8.1754E+02 7.7630E-03 4.2788E-04      0.181      0.694     0.0600
 8.2700E+02 4.9979E-03 3.6079E-04      0.254      0.961     0.0610
 8.3658E+02 5.0920E-03 3.4550E-04      0.339      0.983     0.0620
 8.4627E+02 6.2645E-03 3.5833E-04      0.263      0.656     0.0630
 8.5607E+02 9.1461E-03 4.1602E-04      0.136      0.453     0.0640
 8.6598E+02 1.4736E-02 5.2946E-04      0.080      0.252     0.0660
 8.7601E+02 2.1721E-02 6.8234E-04      0.060      0.177     0.0680
 8.8615E+02 1.8665E-02 6.4906E-04      0.077      0.187     0.0700
 8.9641E+02 8.5649E-03 4.3630E-04      0.139      0.258     0.0740
 9.0679E+02 3.1545E-03 2.7252E-04      0.377      0.677     0.0780
 9.1729E+02 1.9184E-03 2.2337E-04      0.996      1.763     0.0810
 9.2791E+02 1.4959E-03 1.9909E-04      1.086      1.611     0.0810
 9.3866E+02 1.4161E-03 1.8904E-04      0.781      1.241     0.0810
 9.4953E+02 1.7884E-03 2.1299E-04      0.859      1.389     0.0800
 9.6052E+02 1.8242E-03 2.5066E-04      1.377      2.227     0.0800
 9.7164E+02 2.1271E-03 2.6086E-04      1.178      2.001     0.0800
 9.8289E+02 2.5743E-03 2.6153E-04      0.820      1.222     0.0800
 9.9428E+02 2.5824E-03 2.7658E-04      1.057      1.683     0.0800
 1.0058E+03 3.3524E-03 2.8709E-04      0.594      0.973     0.0800
 1.0174E+03 5.9815E-03 3.7718E-04      0.425      0.815     0.0800
 1.0292E+03 8.8557E-03 4.4085E-04      0.208      0.434     0.0790
 1.0411E+03 8.6588E-03 4.1055E-04      0.149      0.331     0.0790
 1.0532E+03 6.1731E-03 3.3061E-04      0.204      0.400     0.0790
 1.0654E+03 4.6142E-03 2.7423E-04      0.173      0.587     0.0790
 1.0777E+03 4.1586E-03 2.5703E-04      0.208      0.624     0.0780
 1.0902E+03 5.5546E-03 3.1062E-04      0.206      0.609     0.0780
 1.1028E+03 7.9369E-03 3.8023E-04      0.149      0.366     0.0780
 1.1156E+03 8.9474E-03 3.9314E-04      0.132      0.348     0.0780
 1.1285E+03 8.8446E-03 3.6818E-04      0.124      0.269     0.0780
 1.1416E+03 9.2069E-03 3.6487E-04      0.136      0.330     0.0770
 1.1548E+03 8.6493E-03 3.4156E-04      0.109      0.253     0.0770
 1.1682E+03 6.2270E-03 2.9501E-04      0.137      0.340     0.0770
 1.1817E+03 3.1117E-03 2.3663E-04      0.326      0.793     0.0770
 1.1954E+03 2.7915E-03 2.3322E-04      0.318      0.977     0.0760
 1.2092E+03 3.5349E-03 2.7303E-04      0.439      1.000     0.0760
 1.2232E+03 5.7569E-03 3.3770E-04      0.202      0.613     0.0760
 1.2374E+03 7.7125E-03 3.9487E-04      0.155      0.572     0.0760
 1.2517E+03 9.3930E-03 4.2979E-04      0.145      0.398     0.0760
 1.2662E+03 1.1525E-02 4.6477E-04      0.101      0.259     0.0750
 1.2809E+03 1.1107E-02 4.5050E-04      0.122      0.261     0.0750
 1.2957E+03 9.6659E-03 4.2447E-04      0.149      0.382     0.0750
 1.3107E+03 1.0507E-02 4.4519E-04      0.184      0.442     0.0750
 1.3259E+03 8.7832E-03 3.9596E-04      0.177      0.369     0.0750
 1.3412E+03 5.1220E-03 3.0586E-04      0.282      0.543     0.0740
 1.3568E+03 3.6470E-03 2.5856E-04      0.335      0.713     0.0740
 1.3725E+03 2.7511E-03 2.3528E-04      0.386      1.005     0.0740
 1.3884E+03 3.7768E-03 2.7065E-04      0.340      0.875     0.0740
 1.4045E+03 5.0791E-03 3.1122E-04      0.235      0.662     0.0730
 1.4207E+03 6.3807E-03 3.4860E-04      0.157      0.482     0.0730
 1.4372E+03 5.5976E-03 3.3410E-04      0.162      0.540     0.0730
 1.4538E+03 4.3094E-03 3.1356E-04      0.216      0.792     0.0730
 1.4706E+03 4.9597E-03 3.7419E-04      0.306      0.877     0.0730
 1.4877E+03 4.8241E-03 3.7552E-04      0.269      0.977     0.0720
 1.5049E+03 3.9696E-03 3.3580E-04      0.273      1.033     0.0720
 1.5223E+03 3.5194E-03 2.9496E-04      0.205      0.916     0.0720
 1.5400E+03 2.5480E-03 2.4957E-04      0.321      1.244     0.0720
 1.5578E+03 2.3567E-03 2.4341E-04      0.392      1.628     0.0720
 1.5758E+03 3.1543E-03 2.6617E-04      0.286      0.866     0.0710
 1.5941E+03 3.2928E-03 2.7896E-04      0.260      1.227     0.0710
 1.6125E+03 4.3139E-03 3.1474E-04      0.271      0.905     0.0710
 1.6312E+03 3.5429E-03 2.8686E-04      0.340      0.924     0.0710
 1.6501E+03 2.8512E-03 2.5203E-04      0.259      0.844     0.0710
 1.6692E+03 2.9217E-03 2.6832E-04      0.374      1.366     0.0700
 1.6885E+03 2.7264E-03 2.6840E-04      0.363      1.099     0.0700
 1.7081E+03 3.8287E-03 3.1423E-04      0.275      1.212     0.0700
 1.7278E+03 4.8041E-03 3.3850E-04      0.206      0.878     0.0700
 1.7479E+03 6.7554E-03 3.9180E-04      0.151      0.556     0.0700
 1.7681E+03 6.4707E-03 3.8281E-04      0.162      0.485     0.0690
 1.7886E+03 6.2894E-03 3.8508E-04      0.230      0.465     0.0690
 1.8093E+03 4.3616E-03 3.2490E-04      0.288      0.696     0.0690
 1.8302E+03 3.7750E-03 3.0484E-04      0.330      0.900     0.0690
 1.8514E+03 3.2327E-03 2.8751E-04      0.342      1.207     0.0690
 1.8729E+03 4.0622E-03 3.2118E-04      0.308      1.108     0.0680
 1.8945E+03 6.1946E-03 3.7185E-04      0.146      0.549     0.0680
 1.9165E+03 8.8221E-03 4.3789E-04      0.078      0.397     0.0680
 1.9387E+03 1.1286E-02 4.8964E-04      0.058      0.248     0.0680
 1.9611E+03 1.1768E-02 5.0771E-04      0.045      0.248     0.0680
 1.9838E+03 8.3956E-03 4.6651E-04      0.090      0.386     0.0680
 2.0068E+03 4.7798E-03 3.6638E-04      0.135      0.612     0.0670
 2.0300E+03 3.4305E-03 3.2407E-04      0.221      1.056     0.0670
 2.0536E+03 2.1282E-03 2.6715E-04      0.370      1.831     0.0670
 2.0773E+03 2.5757E-03 2.7911E-04      0.350      1.295     0.0670
 2.1014E+03 2.4372E-03 2.7185E-04      0.307      1.389     0.0670
 2.1257E+03 2.3358E-03 2.7030E-04      0.453      1.434     0.0670
 2.1503E+03 1.5452E-03 2.3093E-04      0.516      2.263     0.0660
 2.1752E+03 1.8137E-03 2.5322E-04      0.688      2.240     0.0660
 2.2004E+03 2.1687E-03 2.6292E-04      0.473      1.993     0.0660
 2.2259E+03 2.1902E-03 2.6285E-04      0.359      1.401     0.0660
 2.2517E+03 2.6972E-03 2.9041E-04      0.404      1.219     0.0660
 2.2778E+03 4.2231E-03 3.5392E-04      0.291      0.986     0.0660
 2.3041E+03 5.5075E-03 4.0167E-04      0.219      0.697     0.0650
 2.3308E+03 7.7996E-03 4.6643E-04      0.146      0.418     0.0650
 2.3578E+03 7.0429E-03 4.6066E-04      0.199      0.466     0.0650
 2.3851E+03 6.4489E-03 4.3330E-04      0.151      0.484     0.0650
 2.4127E+03 5.0368E-03 3.8602E-04      0.209      0.661     0.0650
 2.4407E+03 3.9779E-03 3.6067E-04      0.384      0.906     0.0650
 2.4689E+03 4.2616E-03 3.6530E-04      0.322      1.034     0.0640
 2.4975E+03 5.0252E-03 3.8467E-04      0.217      0.698     0.0640
 2.5264E+03 5.7744E-03 4.0115E-04      0.172      0.597     0.0640
 2.5557E+03 5.7974E-03 3.9323E-04      0.140      0.593     0.0640
 2.5853E+03 6.0438E-03 4.1018E-04      0.156      0.535     0.0640
 2.6152E+03 6.5017E-03 4.3706E-04      0.187      0.580     0.0630
 2.6455E+03 6.8975E-03 4.7248E-04      0.178      0.569     0.0630
 2.6761E+03 7.2523E-03 4.8149E-04      0.236      0.565     0.0630
 2.7071E+03 5.6708E-03 4.1946E-04      0.246      0.549     0.0630
 2.7385E+03 4.6119E-03 3.6804E-04      0.314      0.721     0.0630
 2.7702E+03 4.0941E-03 3.5156E-04      0.384      0.966     0.0630
 2.8022E+03 3.7329E-03 3.3677E-04      0.421      0.750     0.0630
 2.8347E+03 4.4733E-03 3.7146E-04      0.344      0.929     0.0620
 2.8675E+03 5.2145E-03 3.9565E-04      0.311      0.755     0.0620
 2.9007E+03 5.4132E-03 4.0130E-04      0.241      0.655     0.0620
 2.9343E+03 4.9217E-03 3.8452E-04      0.235      0.734     0.0620
 2.9683E+03 4.2676E-03 3.5917E-04      0.255      0.662     0.0620
 3.0027E+03 4.4645E-03 3.6016E-04      0.294      0.912     0.0610
 3.0374E+03 4.9107E-03 3.7790E-04      0.187      0.679     0.0610
 3.0726E+03 5.2038E-03 3.9195E-04      0.233      0.679     0.0610
 3.1082E+03 6.0889E-03 4.3037E-04      0.239      0.562     0.0610
 3.1442E+03 8.7466E-03 5.1210E-04      0.192      0.441     0.0610
 3.1806E+03 7.6782E-03 4.8348E-04      0.241      0.514     0.0600
 3.2174E+03 7.2321E-03 4.5953E-04      0.185      0.375     0.0600
 3.2547E+03 6.4063E-03 4.2418E-04      0.193      0.572     0.0600
 3.2924E+03 5.9729E-03 4.1266E-04      0.199      0.445     0.0600
 3.3305E+03 7.1148E-03 4.5356E-04      0.128      0.327     0.0600
 3.3691E+03 6.8359E-03 4.5390E-04      0.155      0.381     0.0600
 3.4081E+03 6.4776E-03 4.4570E-04      0.140      0.563     0.0590
 3.4475E+03 6.3354E-03 4.3207E-04      0.148      0.586     0.0590
 3.4874E+03 5.7739E-03 4.1401E-04      0.173      0.669     0.0590
 3.5278E+03 5.8603E-03 4.1354E-04      0.172      0.532     0.0590
 3.5687E+03 5.3830E-03 4.0101E-04      0.159      0.604     0.0590
 3.6100E+03 5.6546E-03 4.1947E-04      0.171      0.514     0.0590
 3.6518E+03 5.7423E-03 4.2078E-04      0.204      0.537     0.0580
 3.6941E+03 4.6462E-03 3.9304E-04      0.279      0.707     0.0580
 3.7369E+03 5.2719E-03 4.0311E-04      0.218      0.503     0.0580
 3.7801E+03 3.9474E-03 3.6222E-04      0.310      0.775     0.0580
 3.8239E+03 4.5553E-03 3.8892E-04      0.271      0.757     0.0580
 3.8682E+03 5.3787E-03 4.1700E-04      0.239      0.604     0.0580
 3.9130E+03 5.4978E-03 4.2881E-04      0.267      0.662     0.0570
 3.9583E+03 5.7424E-03 4.3042E-04      0.194      0.593     0.0570
 4.0041E+03 5.4892E-03 4.2328E-04      0.223      0.610     0.0570
 4.0505E+03 5.4614E-03 4.2150E-04      0.196      0.660     0.0570
 4.0974E+03 5.3727E-03 4.0953E-04      0.179      0.528     0.0570
 4.1448E+03 5.3280E-03 3.9860E-04      0.147      0.434     0.0570
 4.1928E+03 4.8698E-03 3.8172E-04      0.171      0.667     0.0560
 4.2414E+03 4.8813E-03 3.7982E-04      0.194      0.605     0.0560
 4.2905E+03 4.4865E-03 3.6397E-04      0.216      0.666     0.0560
 4.3402E+03 3.9937E-03 3.5075E-04      0.298      0.624     0.0560
 4.3904E+03 4.6546E-03 3.8761E-04      0.329      0.879     0.0560
 4.4413E+03 4.4653E-03 3.8286E-04      0.322      0.812     0.0550
 4.4927E+03 4.0412E-03 3.6132E-04      0.248      0.778     0.0550
 4.5447E+03 4.8286E-03 3.9759E-04      0.216      0.591     0.0550
 4.5974E+03 5.0905E-03 4.3099E-04      0.291      0.754     0.0550
 4.6506E+03 5.4762E-03 4.3123E-04      0.171      0.570     0.0550
 4.7044E+03 5.5087E-03 4.4064E-04      0.169      0.682     0.0550
 4.7589E+03 5.1568E-03 4.3108E-04      0.201      0.647     0.0550
 4.8140E+03 4.6187E-03 4.0331E-04      0.164      0.710     0.0540
 4.8698E+03 4.6390E-03 4.0535E-04      0.198      0.688     0.0540
 4.9261E+03 5.0741E-03 4.2007E-04      0.152      0.798     0.0540
 4.9832E+03 4.5690E-03 4.0173E-04      0.194      0.695     0.0540
 5.0409E+03 5.1355E-03 4.2297E-04      0.200      0.647     0.0540
 5.0993E+03 5.4785E-03 4.3567E-04      0.189      0.647     0.0540
 5.1583E+03 5.5743E-03 4.3642E-04      0.129      0.510     0.0530
 5.2180E+03 6.0324E-03 4.6345E-04      0.192      0.573     0.0530
 5.2785E+03 6.1027E-03 4.6134E-04      0.185      0.617     0.0530
 5.3396E+03 6.5339E-03 4.7287E-04      0.186      0.521     0.0530
 5.4014E+03 5.6750E-03 4.5070E-04      0.233      0.585     0.0530
 5.4640E+03 5.0229E-03 4.2735E-04      0.195      0.626     0.0530
 5.5272E+03 4.7234E-03 4.2947E-04      0.311      0.835     0.0520
 5.5912E+03 4.2645E-03 4.0865E-04      0.267      0.711     0.0520
 5.6560E+03 3.7242E-03 3.8821E-04      0.270      0.638     0.0520
 5.7215E+03 4.0744E-03 4.2756E-04      0.270      0.842     0.0520
 5.7877E+03 3.7185E-03 4.1758E-04      0.314      0.945     0.0520
 5.8547E+03 4.2543E-03 4.4809E-04      0.226      0.788     0.0520
 5.9225E+03 4.6285E-03 4.7041E-04      0.185      0.760     0.0520
 5.9911E+03 3.9077E-03 4.6720E-04      0.467      1.395     0.0520
 6.0605E+03 4.4597E-03 4.6951E-04      0.318      0.952     0.0510
 6.1307E+03 5.0415E-03 4.8992E-04      0.296      0.785     0.0510
 6.2016E+03 5.5351E-03 4.9991E-04      0.246      0.667     0.0510
 6.2735E+03 5.9560E-03 5.1815E-04      0.178      0.600     0.0510
 6.3461E+03 6.6152E-03 5.3405E-04      0.131      0.487     0.0510
 6.4196E+03 7.0743E-03 5.5763E-04      0.156      0.489     0.0510
 6.4939E+03 7.5724E-03 5.7206E-04      0.149      0.492     0.0510
 6.5691E+03 6.5995E-03 5.3805E-04      0.147      0.533     0.0500
 6.6452E+03 7.8839E-03 5.8133E-04      0.104      0.457     0.0500
 6.7221E+03 5.9295E-03 5.0794E-04      0.187      0.543     0.0500
 6.8000E+03 5.8400E-03 4.9227E-04      0.135      0.489     0.0500
 6.8787E+03 5.1082E-03 4.7252E-04      0.219      0.595     0.0500
 6.9584E+03 4.4624E-03 4.5438E-04      0.255      0.836     0.0500
 7.0389E+03 4.5480E-03 4.5333E-04      0.242      0.813     0.0500
 7.1204E+03 5.6848E-03 5.0427E-04      0.195      0.621     0.0490
 7.2029E+03 5.5831E-03 5.0243E-04      0.193      0.507     0.0490
 7.2863E+03 5.0639E-03 4.9275E-04      0.269      0.712     0.0490
 7.3707E+03 7.5292E-03 5.9924E-04      0.204      0.457     0.0490
 7.4560E+03 7.3733E-03 5.9806E-04      0.190      0.511     0.0490
 7.5424E+03 6.7394E-03 5.7812E-04      0.156      0.442     0.0490
 7.6297E+03 6.1646E-03 5.6221E-04      0.230      0.503     0.0490
 7.7180E+03 6.0256E-03 5.5722E-04      0.198      0.452     0.0490
 7.8074E+03 5.3322E-03 5.2132E-04      0.218      0.692     0.0480
 7.8978E+03 5.0165E-03 5.2935E-04      0.328      0.971     0.0480
 7.9893E+03 5.2412E-03 5.2995E-04      0.270      0.728     0.0480
 8.0818E+03 5.3932E-03 5.3644E-04      0.258      0.581     0.0480
 8.1754E+03 4.8470E-03 5.1729E-04      0.277      0.729     0.0480
 8.2700E+03 5.8551E-03 5.3697E-04      0.161      0.485     0.0480
 8.3658E+03 5.9200E-03 5.3769E-04      0.181      0.542     0.0480
 8.4627E+03 5.6678E-03 5.3715E-04      0.257      0.659     0.0480
 8.5607E+03 6.1712E-03 5.3546E-04      0.162      0.527     0.0480
 8.6598E+03 5.8668E-03 5.2733E-04      0.201      0.713     0.0470
 8.7601E+03 5.9198E-03 5.2272E-04      0.192      0.499     0.0470
 8.8615E+03 6.7519E-03 5.4866E-04      0.204      0.442     0.0470
 8.9641E+03 7.0503E-03 5.6106E-04      0.184      0.548     0.0470
 9.0679E+03 6.7800E-03 5.4427E-04      0.141      0.473     0.0470
 9.1729E+03 7.0822E-03 5.4481E-04      0.131      0.482     0.0470
 9.2791E+03 6.2454E-03 5.1567E-04      0.161      0.379     0.0470
 9.3866E+03 6.5876E-03 5.3695E-04      0.192      0.488     0.0470
 9.4953E+03 5.9937E-03 5.0129E-04      0.139      0.421     0.0460
 9.6052E+03 6.4993E-03 5.3381E-04      0.243      0.621     0.0460
 9.7164E+03 6.3577E-03 5.1645E-04      0.144      0.448     0.0460
 9.8290E+03 5.8938E-03 5.0451E-04      0.147      0.418     0.0460
 9.9428E+03 6.8524E-03 5.5550E-04      0.200      0.565     0.0460
 1.0058E+04 7.1808E-03 5.6328E-04      0.165      0.484     0.0460
 1.0174E+04 5.8243E-03 5.0817E-04      0.145      0.546     0.0450
 1.0292E+04 6.7495E-03 5.3555E-04      0.139      0.448     0.0450
 1.0411E+04 6.4433E-03 5.3827E-04      0.168      0.650     0.0450
 1.0532E+04 5.2191E-03 4.8175E-04      0.195      0.687     0.0450
 1.0654E+04 5.3054E-03 4.8289E-04      0.177      0.595     0.0450
 1.0777E+04 5.8027E-03 5.0589E-04      0.167      0.601     0.0450
 1.0902E+04 5.7526E-03 4.9737E-04      0.158      0.581     0.0450
 1.1028E+04 5.9108E-03 5.0930E-04      0.221      0.611     0.0440
 1.1156E+04 5.7858E-03 5.0245E-04      0.150      0.544     0.0440
 1.1285E+04 6.0786E-03 5.2085E-04      0.213      0.751     0.0440
 1.1416E+04 5.7203E-03 5.0672E-04      0.185      0.632     0.0440
 1.1548E+04 5.8813E-03 5.1901E-04      0.227      0.580     0.0440
 1.1682E+04 6.1715E-03 5.2729E-04      0.179      0.590     0.0440
 1.1817E+04 6.5575E-03 5.4652E-04      0.169      0.529     0.0440
 1.1954E+04 6.5387E-03 5.5352E-04      0.197      0.595     0.0430
 1.2092E+04 6.1792E-03 5.3519E-04      0.212      0.558     0.0440
 1.2232E+04 7.2907E-03 5.7205E-04      0.151      0.478     0.0430
 1.2374E+04 6.6094E-03 5.5963E-04      0.180      0.676     0.0430
 1.2517E+04 6.1750E-03 5.3815E-04      0.192      0.465     0.0430
 1.2662E+04 6.0716E-03 5.2017E-04      0.194      0.448     0.0430
 1.2809E+04 6.0652E-03 5.2800E-04      0.260      0.799     0.0430
 1.2957E+04 6.0396E-03 5.2546E-04      0.244      0.553     0.0430
 1.3107E+04 5.6599E-03 5.0721E-04      0.250      0.674     0.0420
 1.3259E+04 6.0284E-03 5.0883E-04      0.210      0.575     0.0420
 1.3412E+04 5.9158E-03 5.0462E-04      0.203      0.568     0.0420
 1.3568E+04 6.0742E-03 5.1991E-04      0.240      0.617     0.0420
 1.3725E+04 6.1316E-03 5.1930E-04      0.191      0.613     0.0420
 1.3884E+04 6.1661E-03 5.1984E-04      0.216      0.587     0.0420
 1.4044E+04 5.7455E-03 5.0112E-04      0.167      0.498     0.0420
 1.4207E+04 6.6718E-03 5.3996E-04      0.167      0.577     0.0420
 1.4372E+04 6.2582E-03 5.3325E-04      0.212      0.751     0.0410
 1.4538E+04 5.8900E-03 5.1703E-04      0.199      0.531     0.0410
 1.4706E+04 5.8883E-03 5.1875E-04      0.243      0.695     0.0410
 1.4877E+04 5.9972E-03 5.2277E-04      0.201      0.619     0.0410
 1.5049E+04 6.1237E-03 5.2767E-04      0.199      0.592     0.0410
 1.5223E+04 5.9000E-03 5.2583E-04      0.172      0.462     0.0400
 1.5400E+04 5.7079E-03 5.2221E-04      0.253      0.523     0.0400
 1.5578E+04 5.7440E-03 5.3045E-04      0.237      0.672     0.0400
 1.5758E+04 5.9005E-03 5.4404E-04      0.252      0.704     0.0400
 1.5941E+04 5.9265E-03 5.4550E-04      0.264      0.879     0.0400
 1.6125E+04 5.9650E-03 5.4076E-04      0.233      0.577     0.0400
 1.6312E+04 6.5208E-03 5.5968E-04      0.209      0.600     0.0400
 1.6501E+04 5.1273E-03 5.0538E-04      0.274      0.655     0.0390
 1.6692E+04 6.5424E-03 5.6026E-04      0.219      0.663     0.0390
 1.6885E+04 6.9286E-03 5.7956E-04      0.200      0.555     0.0390
 1.7081E+04 5.8409E-03 5.1074E-04      0.169      0.476     0.0390
 1.7278E+04 6.5569E-03 5.3902E-04      0.201      0.544     0.0390
 1.7479E+04 6.4882E-03 5.3449E-04      0.174      0.529     0.0390
 1.7681E+04 6.0575E-03 5.2493E-04      0.210      0.585     0.0390
 1.7886E+04 5.8104E-03 4.8766E-04      0.163      0.570     0.0380
 1.8093E+04 6.2839E-03 5.0997E-04      0.193      0.526     0.0380
 1.8302E+04 6.6365E-03 5.1786E-04      0.150      0.460     0.0380
 1.8514E+04 6.8295E-03 5.2967E-04      0.143      0.397     0.0380
 1.8729E+04 6.5369E-03 5.1996E-04      0.192      0.533     0.0380
 1.8946E+04 6.9129E-03 5.3487E-04      0.187      0.541     0.0380
 1.9165E+04 6.3546E-03 5.2156E-04      0.193      0.562     0.0380
 1.9387E+04 6.7730E-03 5.3274E-04      0.163      0.507     0.0380
 1.9611E+04 7.0499E-03 5.4458E-04      0.187      0.496     0.0370
 1.9838E+04 7.3929E-03 5.5989E-04      0.179      0.504     0.0370
 2.0068E+04 6.5818E-03 5.3289E-04      0.210      0.492     0.0370
 2.0300E+04 6.7314E-03 5.3991E-04      0.234      0.537     0.0370
 2.0536E+04 6.3642E-03 5.1423E-04      0.176      0.554     0.0370
 2.0773E+04 5.5593E-03 4.8274E-04      0.242      0.578     0.0360
 2.1014E+04 6.1804E-03 5.0159E-04      0.203      0.444     0.0360
 2.1257E+04 6.1968E-03 5.0477E-04      0.229      0.562     0.0360
 2.1503E+04 6.2994E-03 5.1722E-04      0.237      0.658     0.0360
 2.1752E+04 5.2158E-03 4.6072E-04      0.259      0.620     0.0350
 2.2004E+04 5.8133E-03 4.7702E-04      0.191      0.520     0.0350
 2.2259E+04 5.5439E-03 4.7336E-04      0.265      0.632     0.0350
 2.2517E+04 5.7062E-03 4.8461E-04      0.257      0.668     0.0350
 2.2778E+04 6.0310E-03 4.9031E-04      0.231      0.582     0.0350
 2.3041E+04 5.3170E-03 4.6357E-04      0.192      0.509     0.0350
 2.3308E+04 6.0763E-03 4.9272E-04      0.186      0.588     0.0350
 2.3578E+04 5.9105E-03 4.8526E-04      0.197      0.477     0.0350
 2.3851E+04 5.2150E-03 4.5906E-04      0.188      0.601     0.0350
 2.4127E+04 6.9118E-03 5.4609E-04      0.215      0.539     0.0340
 2.4407E+04 6.2077E-03 5.2625E-04      0.220      0.551     0.0340
 2.4689E+04 5.9601E-03 5.1056E-04      0.187      0.444     0.0340
 2.4975E+04 6.1674E-03 5.2078E-04      0.210      0.495     0.0340
 2.5264E+04 6.1345E-03 5.2774E-04      0.227      0.552     0.0340
 2.5557E+04 6.6145E-03 5.6889E-04      0.199      0.586     0.0330
 2.5853E+04 6.0833E-03 5.5299E-04      0.244      0.597     0.0330
 2.6152E+04 6.8766E-03 5.8365E-04      0.175      0.491     0.0330
 2.6455E+04 6.1266E-03 5.4657E-04      0.173      0.408     0.0330
 2.6761E+04 6.1656E-03 5.6063E-04      0.235      0.626     0.0330
 2.7071E+04 6.8364E-03 5.8838E-04      0.133      0.416     0.0330
 2.7385E+04 6.1876E-03 5.8303E-04      0.267      0.563     0.0330
 2.7702E+04 5.8228E-03 5.5481E-04      0.191      0.485     0.0330
 2.8022E+04 6.1667E-03 5.7509E-04      0.191      0.439     0.0330
 2.8347E+04 6.3034E-03 5.8297E-04      0.244      0.551     0.0320
 2.8675E+04 6.0182E-03 5.7793E-04      0.251      0.629     0.0320
 2.9007E+04 5.6916E-03 5.5245E-04      0.191      0.454     0.0320
 2.9343E+04 5.7686E-03 5.6492E-04      0.253      0.701     0.0320
 2.9683E+04 6.3534E-03 5.8966E-04      0.204      0.518     0.0320
 3.0027E+04 5.8330E-03 5.6236E-04      0.193      0.455     0.0320
 3.0374E+04 7.4757E-03 7.0388E-04      0.199      0.596     0.0310
 3.0726E+04 7.1099E-03 6.9596E-04      0.225      0.674     0.0310
 3.1082E+04 7.3816E-03 6.9451E-04      0.180      0.452     0.0310
 3.1442E+04 6.2449E-03 6.5297E-04      0.250      0.519     0.0310
 3.1806E+04 6.6747E-03 6.5881E-04      0.194      0.459     0.0310
 3.2174E+04 8.1812E-03 8.4728E-04      0.142      0.477     0.0310
 3.2547E+04 8.4368E-03 9.5978E-04      0.140      0.500     0.0310
 3.2924E+04 8.2170E-03 9.4136E-04      0.190      0.529     0.0310
 3.3305E+04 6.3651E-03 8.3362E-04      0.242      0.479     0.0310
 3.3690E+04 6.4108E-03 8.5710E-04      0.270      0.691     0.0310
 3.4081E+04 6.5302E-03 8.8233E-04      0.397      0.637     0.0310
 3.4475E+04 7.3072E-03 9.6345E-04      0.167      0.536     0.0310
 3.4874E+04 8.5021E-03 1.0490E-03      0.180      0.617     0.0310
 3.5278E+04 8.4505E-03 1.0215E-03      0.127      0.395     0.0310
 3.5687E+04 9.0049E-03 1.0591E-03      0.092      0.390     0.0310
 3.6100E+04 7.5885E-03 9.9101E-04      0.182      0.536     0.0310
 3.6518E+04 6.1341E-03 8.0636E-04      0.140      0.292     0.0300
 3.6941E+04 6.1756E-03 7.4198E-04      0.180      0.341     0.0300
 3.7369E+04 7.0031E-03 7.8914E-04      0.238      0.474     0.0300
 3.7801E+04 8.7891E-03 8.8794E-04      0.130      0.416     0.0300
 3.8239E+04 9.2407E-03 9.1941E-04      0.148      0.371     0.0300
 3.8682E+04 7.9259E-03 8.3852E-04      0.158      0.456     0.0300
 3.9130E+04 7.7990E-03 7.9941E-04      0.154      0.383     0.0300
 3.9583E+04 6.5906E-03 7.1455E-04      0.121      0.334     0.0300
 4.0041E+04 7.1669E-03 7.6537E-04      0.209      0.494     0.0300
 4.0505E+04 7.9083E-03 7.8653E-04      0.125      0.425     0.0300
 4.0974E+04 8.1485E-03 8.0377E-04      0.105      0.446     0.0300
 4.1448E+04 8.2711E-03 8.1740E-04      0.172      0.422     0.0300
 4.1928E+04 7.1623E-03 7.2165E-04      0.148      0.396     0.0290
 4.2414E+04 6.8435E-03 6.8311E-04      0.149      0.269     0.0290
 4.2905E+04 7.6012E-03 7.3701E-04      0.191      0.411     0.0290
 4.3402E+04 7.7995E-03 7.3969E-04      0.151      0.375     0.0290
 4.3904E+04 8.4481E-03 7.6745E-04      0.184      0.423     0.0290
 4.4413E+04 8.5937E-03 7.7551E-04      0.141      0.383     0.0290
 4.4927E+04 7.8600E-03 7.4199E-04      0.185      0.426     0.0290
 4.5447E+04 7.1518E-03 6.3190E-04      0.117      0.320     0.0280
 4.5974E+04 7.7161E-03 6.6071E-04      0.158      0.304     0.0280
 4.6506E+04 7.7498E-03 6.6426E-04      0.133      0.331     0.0280
 4.7044E+04 8.3025E-03 6.9132E-04      0.139      0.382     0.0280
 4.7589E+04 8.2105E-03 6.9212E-04      0.138      0.353     0.0280
 4.8140E+04 7.9616E-03 6.8756E-04      0.158      0.469     0.0280
 4.8698E+04 7.1496E-03 6.1369E-04      0.133      0.359     0.0270
 4.9262E+04 7.2040E-03 6.1208E-04      0.240      0.295     0.0270
 4.9832E+04 7.9516E-03 6.3274E-04      0.154      0.366     0.0270
 5.0409E+04 8.9366E-03 6.7267E-04      0.168      0.450     0.0270
 5.0993E+04 7.6041E-03 6.3050E-04      0.173      0.397     0.0270
 5.1583E+04 7.7442E-03 6.4116E-04      0.164      0.428     0.0270
 5.2180E+04 9.0148E-03 6.9181E-04      0.172      0.376     0.0270
 5.2785E+04 6.3462E-03 5.6917E-04      0.277      0.578     0.0260
 5.3396E+04 7.1985E-03 5.7732E-04      0.154      0.345     0.0260
 5.4014E+04 8.8792E-03 6.3361E-04      0.125      0.333     0.0260
 5.4640E+04 8.7998E-03 6.3229E-04      0.124      0.251     0.0260
 5.5272E+04 9.1088E-03 6.5343E-04      0.139      0.284     0.0260
 5.5912E+04 9.3332E-03 6.6033E-04      0.113      0.324     0.0260
 5.6560E+04 9.1505E-03 6.6358E-04      0.169      0.345     0.0260
 5.7215E+04 8.7583E-03 6.2513E-04      0.189      0.391     0.0250
 5.7877E+04 8.0202E-03 5.8626E-04      0.171      0.292     0.0250
 5.8547E+04 8.4351E-03 6.0748E-04      0.198      0.363     0.0250
 5.9225E+04 9.4003E-03 6.3889E-04      0.165      0.350     0.0250
 5.9911E+04 8.5703E-03 6.0809E-04      0.152      0.413     0.0250
 6.0605E+04 9.3951E-03 6.5189E-04      0.232      0.418     0.0250
 6.1307E+04 9.8579E-03 6.5368E-04      0.143      0.285     0.0250
 6.2016E+04 9.8094E-03 6.4643E-04      0.119      0.296     0.0240
 6.2735E+04 9.2727E-03 6.1711E-04      0.139      0.274     0.0240
 6.3461E+04 8.4879E-03 5.9720E-04      0.149      0.318     0.0230
 6.4196E+04 9.4149E-03 6.3315E-04      0.145      0.327     0.0240
 6.4939E+04 9.8217E-03 6.4790E-04      0.150      0.335     0.0240
 6.5691E+04 9.1387E-03 6.3152E-04      0.205      0.398     0.0230
 6.6452E+04 1.0074E-02 6.5259E-04      0.139      0.322     0.0240
 6.7221E+04 9.7040E-03 6.5142E-04      0.150      0.315     0.0230
 6.8000E+04 9.9855E-03 6.8059E-04      0.124      0.272     0.0230
 6.8787E+04 1.0493E-02 7.2879E-04      0.174      0.375     0.0220
 6.9584E+04 1.0620E-02 7.2694E-04      0.123      0.297     0.0220
 7.0389E+04 1.0164E-02 7.1552E-04      0.137      0.282     0.0220
 7.1204E+04 9.6334E-03 6.9709E-04      0.146      0.288     0.0220
 7.2029E+04 9.7013E-03 7.0966E-04      0.149      0.320     0.0220
 7.2863E+04 8.6748E-03 6.7935E-04      0.205      0.371     0.0220
 7.3707E+04 9.7828E-03 7.1535E-04      0.177      0.397     0.0220
 7.4560E+04 1.1467E-02 8.3051E-04      0.136      0.316     0.0220
 7.5424E+04 1.2780E-02 9.6112E-04      0.110      0.261     0.0210
 7.6297E+04 1.2631E-02 9.6095E-04      0.082      0.315     0.0210
 7.7180E+04 1.0978E-02 8.9269E-04      0.113      0.243     0.0210
 7.8074E+04 1.0812E-02 8.9479E-04      0.122      0.301     0.0210
 7.8978E+04 1.1011E-02 8.9089E-04      0.112      0.219     0.0210
 7.9893E+04 1.1073E-02 9.1285E-04      0.176      0.289     0.0210
 8.0818E+04 1.0498E-02 8.8643E-04      0.136      0.253     0.0210
 8.1754E+04 1.1326E-02 9.2769E-04      0.161      0.244     0.0210
 8.2700E+04 1.1725E-02 9.4592E-04      0.116      0.237     0.0210
 8.3658E+04 1.0070E-02 8.9307E-04      0.168      0.311     0.0210
 8.4627E+04 1.0997E-02 9.2686E-04      0.128      0.229     0.0210
 8.5607E+04 1.2682E-02 9.9570E-04      0.097      0.223     0.0210
 8.6598E+04 1.1681E-02 9.5377E-04      0.117      0.213     0.0210
 8.7601E+04 1.1701E-02 9.4969E-04      0.084      0.179     0.0210
 8.8615E+04 1.3119E-02 1.0181E-03      0.118      0.218     0.0210
 8.9641E+04 1.3061E-02 1.0125E-03      0.084      0.152     0.0210
 9.0679E+04 1.1858E-02 9.3502E-04      0.099      0.223     0.0200
 9.1729E+04 8.8767E-03 6.8459E-04      0.119      0.220     0.0190
 9.2791E+04 8.4027E-03 6.6606E-04      0.136      0.210     0.0190
 9.3866E+04 1.1408E-02 7.7729E-04      0.126      0.269     0.0190
 9.4953E+04 1.3570E-02 8.5744E-04      0.099      0.207     0.0190
 9.6052E+04 1.3039E-02 8.3916E-04      0.102      0.242     0.0190
 9.7164E+04 1.2146E-02 8.0160E-04      0.084      0.191     0.0190
 9.8290E+04 1.3033E-02 8.3955E-04      0.107      0.222     0.0190
 9.9428E+04 1.3931E-02 8.7085E-04      0.097      0.238     0.0190
 1.0058E+05 1.2890E-02 8.3769E-04      0.095      0.192     0.0190
 1.0174E+05 1.2549E-02 7.3749E-04      0.091      0.189     0.0180
 1.0292E+05 1.0034E-02 6.4435E-04      0.109      0.215     0.0170
 1.0411E+05 1.0585E-02 6.7114E-04      0.152      0.241     0.0170
 1.0532E+05 1.3131E-02 7.4405E-04      0.119      0.234     0.0170
 1.0654E+05 1.3105E-02 7.4875E-04      0.108      0.228     0.0170
 1.0777E+05 1.2690E-02 7.3339E-04      0.100      0.199     0.0170
 1.0902E+05 1.3654E-02 7.6983E-04      0.107      0.236     0.0170
 1.1028E+05 1.3284E-02 7.5583E-04      0.106      0.229     0.0170
 1.1156E+05 1.3055E-02 7.5763E-04      0.109      0.210     0.0170
 1.1285E+05 1.2722E-02 7.4742E-04      0.117      0.271     0.0180
 1.1416E+05 1.1885E-02 6.9263E-04      0.145      0.277     0.0160
 1.1548E+05 1.2507E-02 6.9510E-04      0.135      0.219     0.0150
 1.1682E+05 1.2920E-02 7.0414E-04      0.108      0.180     0.0150
 1.1817E+05 1.5624E-02 7.8423E-04      0.097      0.194     0.0150
 1.1954E+05 1.4235E-02 7.5119E-04      0.092      0.197     0.0150
 1.2092E+05 1.5619E-02 7.8362E-04      0.095      0.177     0.0150
 1.2232E+05 1.5228E-02 7.8539E-04      0.108      0.228     0.0150
 1.2374E+05 1.4214E-02 7.5065E-04      0.089      0.214     0.0150
 1.2517E+05 1.5196E-02 7.8142E-04      0.088      0.214     0.0150
 1.2662E+05 1.4747E-02 7.7769E-04      0.102      0.222     0.0150
 1.2809E+05 1.4258E-02 7.8273E-04      0.122      0.291     0.0150
 1.2957E+05 1.5988E-02 8.4617E-04      0.112      0.226     0.0130
 1.3107E+05 1.5115E-02 8.2221E-04      0.115      0.235     0.0130
 1.3259E+05 1.8399E-02 9.0379E-04      0.092      0.182     0.0130
 1.3412E+05 1.8600E-02 9.0641E-04      0.074      0.151     0.0130
 1.3568E+05 1.6583E-02 8.6000E-04      0.077      0.148     0.0130
 1.3725E+05 1.8039E-02 8.9943E-04      0.062      0.149     0.0130
 1.3884E+05 1.8417E-02 9.1515E-04      0.072      0.157     0.0130
 1.4044E+05 1.8913E-02 9.3068E-04      0.082      0.176     0.0130
 1.4207E+05 1.7427E-02 9.0355E-04      0.096      0.202     0.0130
 1.4372E+05 1.8738E-02 9.2999E-04      0.076      0.151     0.0130
 1.4538E+05 1.7367E-02 8.9571E-04      0.093      0.167     0.0130
 1.4706E+05 1.5787E-02 8.1547E-04      0.096      0.197     0.0110
 1.4877E+05 1.5956E-02 8.2190E-04      0.085      0.172     0.0110
 1.5049E+05 1.9932E-02 9.1491E-04      0.078      0.132     0.0110
 1.5223E+05 2.1410E-02 9.4774E-04      0.065      0.139     0.0110
 1.5400E+05 2.1649E-02 9.6189E-04      0.060      0.119     0.0110
 1.5578E+05 2.1367E-02 9.5716E-04      0.059      0.118     0.0110
 1.5758E+05 2.1851E-02 9.7869E-04      0.067      0.132     0.0110
 1.5941E+05 2.2333E-02 9.8671E-04      0.062      0.127     0.0110
 1.6125E+05 2.2163E-02 9.8317E-04      0.068      0.128     0.0110
 1.6312E+05 2.0323E-02 9.4360E-04      0.059      0.143     0.0110
 1.6501E+05 2.0950E-02 9.6453E-04      0.066      0.146     0.0110
 1.6692E+05 2.1359E-02 9.7030E-04      0.074      0.142     0.0110
 1.6885E+05 1.8293E-02 7.9958E-04      0.087      0.134     0.0080
 1.7081E+05 1.7492E-02 7.8099E-04      0.075      0.111     0.0080
 1.7278E+05 2.0445E-02 8.4747E-04      0.066      0.159     0.0080
 1.7479E+05 2.5289E-02 9.4843E-04      0.055      0.138     0.0080
 1.7681E+05 2.4610E-02 9.4496E-04      0.070      0.156     0.0080
 1.7886E+05 2.4487E-02 9.4261E-04      0.056      0.140     0.0080
 1.8093E+05 2.4101E-02 9.3517E-04      0.063      0.122     0.0080
 1.8302E+05 2.4496E-02 9.5064E-04      0.062      0.132     0.0080
 1.8514E+05 2.4598E-02 9.4552E-04      0.056      0.114     0.0080
 1.8729E+05 2.3884E-02 9.3833E-04      0.053      0.123     0.0080
 1.8946E+05 2.3636E-02 9.4003E-04      0.068      0.113     0.0080
 1.9165E+05 2.4144E-02 9.4934E-04      0.061      0.160     0.0080
 1.9387E+05 2.5512E-02 9.6590E-04      0.052      0.127     0.0080
 1.9611E+05 2.1067E-02 8.1029E-04      0.076      0.121     0.0050
 1.9838E+05 2.0167E-02 7.9993E-04      0.095      0.171     0.0050
ENDDATA           1462
ENDSUBENT         1469
ENDENTRY             2
