ENTRY            F1033   20091203   20100128   20100127       F037
SUBENT        F1033001   20091203   20100128   20100127       F037
BIB                 11         26
TITLE      Investigation of the reaction 27Al(p,a0)24Mg in the
           proton energy range 1-2.5 MeV.
AUTHOR     (M.A.Abuzeid,F.M.Aly,Y.P.Antoufiev,A.T.Baranik,
           T.M.Nower,P.V.Sorokin)
INSTITUTE  (3EGYCAI)
REFERENCE  (J,NP,45,123,1963)
           (J,IZV,28,46,1964)
           (J,BAS,28,47,1965)
           #doi:10.1016/0029-5582(63)90788-0
FACILITY   (VDG)
INC-SPECT  The energy spread in the incident beam was 0.25%.
DETECTOR   (SOLST) The reaction products were recorded by two
           semiconductor detectors of the type ORTEC-100A-40. One
           of them with solid angle 2.1*10**(-3) sr, was placed at
           the angle 135 degr. with respect to the beam and used
           as a monitor. The other detector could be rotated
           around the target without disturbing the vacuum in the
           range of scattering angles 30-150 degr. in the
           laboratory system. The solid angle of the rotating
           counter was 1.9*10**(-3) sr.
SAMPLE     Self-supporting targets 27Al of 20-50 mu-g/cm2
           thickness were prepared by evaporation in vacuum.
METHOD     (BCINT)
           (PHD)
ERR-ANALYS (ERR-DIG)   Data digitizing error
HISTORY    (20090408C)
ENDBIB              26
COMMON               2          3
E-LVL      EN-RSL
MEV        PER-CENT
 0.         2.
ENDCOMMON            3
ENDSUBENT           33
SUBENT        F1033002   20091203   20100128   20100127       F037
BIB                  3          3
REACTION   (13-AL-27(P,A)12-MG-24,PAR,DA)
ERR-ANALYS (EN-ERR-DIG) Energy digitizing error
STATUS     (CURVE) Fig.2 (Reference J,NP,45,123,1963)
ENDBIB               3
COMMON               3          3
ANG        EN-ERR-DIG ERR-DIG
ADEG       MEV        MB/SR
 150.       0.002      0.01
ENDCOMMON            3
DATA                 2        220
EN         DATA
MEV        MB/SR
     1.1852    0.25663
     1.1897    0.38705
     1.1911    0.53921
     1.1926    0.90876
     1.1941     2.8435
     1.1956     3.7347
     1.1986     4.2999
      1.203     2.4739
     1.2045     1.1696
     1.2059     2.0608
     1.2074    0.64783
     1.2236    0.25646
     1.2517    0.19112
     1.2724    0.19103
     1.3034    0.16915
     1.3196    0.16908
       1.33    0.27772
     1.3374    0.14726
     1.3521    0.14719
     1.3595    0.25585
     1.3625    0.66887
      1.364     1.0819
     1.3655     1.4732
     1.3669     1.9079
     1.3684     2.2123
     1.3699     2.8209
     1.3714     3.4296
     1.3729      4.147
     1.3773      4.973
     1.3803       4.56
     1.3817      3.473
     1.3862     2.7557
     1.3876     1.8644
     1.3891     1.2774
     1.3905    0.42962
     1.4038    0.71216
     1.4097    0.42953
     1.4127    0.21214
     1.4245    0.16861
     1.4378    0.34245
     1.4452     0.5598
     1.4467     1.0598
     1.4496     1.4511
     1.4511     1.8858
     1.4541     2.1901
     1.4585     1.9293
     1.4615     1.6467
     1.4629     1.2554
     1.4659    0.86405
     1.4703    0.32057
      1.488    0.19006
     1.5087    0.18997
     1.5294    0.18987
     1.5501    0.18978
     1.5693    0.21143
     1.5811    0.34181
     1.5944    0.34175
     1.5988    0.75476
     1.6032    0.58083
     1.6062    0.36343
     1.6254    0.27639
      1.649    0.25455
     1.6638    0.34144
     1.6712    0.75443
     1.6756    0.51529
     1.6859    0.34134
     1.6978    0.31955
      1.714    0.36295
     1.7273    0.68897
     1.7362     1.0585
     1.7377     1.5802
     1.7406     2.0584
     1.7421     2.7758
     1.7436     3.7758
     1.7451     4.6235
     1.7481     5.0148
     1.7525     4.8192
      1.754     4.4061
     1.7554     3.8192
     1.7569     3.3192
     1.7584     2.9714
     1.7598     2.5801
     1.7613     2.2322
     1.7628     1.7975
     1.7643     1.4062
     1.7657     1.0583
     1.7716    0.68877
     1.7864    0.44958
     1.8056    0.29732
     1.8292    0.25374
     1.8558    0.27536
     1.8824    0.29698
     1.9031    0.44905
     1.9119    0.75335
     1.9134     1.0577
     1.9149     1.4272
     1.9164     1.7968
     1.9179     2.1228
     1.9194     2.4054
     1.9238     2.1663
     1.9253     1.9054
     1.9282     1.4924
     1.9311     1.0793
     1.9356    0.66629
     1.9444    0.49234
     1.9577    0.40533
     1.9755    0.64437
     1.9828    0.94868
     1.9858     1.1443
     1.9888     1.3182
     1.9932     1.2747
     1.9961     1.4486
     2.0021     1.3834
     2.0035      1.166
     2.0139    0.90506
     2.0198     0.6007
     2.0271    0.49197
      2.036    0.49193
     2.0449    0.75275
     2.0478    0.94839
     2.0508     1.2527
     2.0567     1.0136
     2.0626    0.68746
     2.0714     0.3396
     2.0907    0.29604
     2.1128    0.29594
     2.1335     0.3828
     2.1424    0.64362
     2.1438     1.0132
     2.1453     1.3175
     2.1468     2.2305
     2.1483     2.9044
     2.1498     3.9261
     2.1528     4.5565
     2.1542     4.1435
     2.1572     3.1217
     2.1586     1.4479
     2.1601     1.1435
     2.1645    0.81743
     2.1719    0.66523
     2.1763    0.99129
     2.1778     2.6217
     2.1808     1.4695
     2.1837    0.99125
     2.1867     1.9043
     2.1882     2.4912
     2.1911     3.0781
     2.1941     2.4042
     2.1955     1.0782
        2.2     0.7738
     2.2088    0.64332
     2.2162    0.92589
     2.2177     1.3824
     2.2207     1.6432
     2.2236     1.0346
     2.2265    0.70846
     2.2398    0.46928
     2.2546    0.44747
     2.2723    0.44739
     2.2886    0.46906
     2.3078    0.55593
     2.3166    0.77327
     2.3226     1.3819
      2.324     1.6863
      2.327     1.8819
       2.33     2.0558
     2.3359     1.9036
     2.3373      1.621
     2.3388     1.2514
     2.3418     0.6862
     2.3506    0.44704
     2.3654    0.42524
     2.3713    0.66433
     2.3743     1.2295
     2.3758     2.2295
     2.3772     2.9903
     2.3787     3.9903
     2.3802      4.925
     2.3817     5.8163
     2.3832     6.5337
     2.3847     7.5554
     2.3862     8.4684
     2.3877      9.164
     2.3892     9.6205
     2.3907     9.3161
     2.3921     8.9249
     2.3936     8.7292
     2.3981     9.3161
     2.3996     10.055
      2.401     10.816
     2.4025     11.403
     2.4055      10.86
     2.4068     2.1859
     2.4112     1.5554
      2.423     1.0989
     2.4363    0.70752
     2.4525     1.1422
     2.4555     1.7291
      2.457     2.2726
     2.4585     2.8813
       2.46     3.4899
     2.4615     3.9899
     2.4629     4.5986
     2.4659      5.729
     2.4689     6.4246
     2.4718     5.3811
     2.4733     3.9681
     2.4747     1.5117
     2.4821     1.1856
     2.4909     1.4029
     2.4924     1.9681
     2.4939     2.5115
     2.4954     3.4246
     2.4969     4.3158
     2.4984     5.0984
     2.5014     6.9027
     2.5043     5.8592
     2.5058     4.1419
     2.5072    0.90285
     2.5116    0.57675
ENDDATA            222
ENDSUBENT          234
SUBENT        F1033003   20091203   20100128   20100127       F037
BIB                  4          5
REACTION   (13-AL-27(P,A)12-MG-24,PAR,DA,,REL)
COMMENT    No explanation of relative units is given.
ERR-ANALYS (ANG-ERR-D) Angle digitizing error
           (DATA-ERR)  Error from the graphic bars
STATUS     (CURVE) Fig.3(a,b) (Reference J,NP,45,123,1963)
ENDBIB               5
COMMON               2          3
ANG-ERR-D  ERR-DIG
ADEG       ARB-UNITS
 0.245      0.005
ENDCOMMON            3
DATA                 4        128
EN         ANG        DATA       DATA-ERR
MEV        ADEG       ARB-UNITS  ARB-UNITS
      1.184     81.734     1.0765     5.E-02
      1.184     90.665      1.002   6.25E-02
      1.184     99.105    0.87737    5.1E-02
      1.184     107.04    0.87776       0.11
      1.184     116.95    0.94075    7.5E-02
      1.184     125.37     1.0287   6.25E-02
      1.184     131.82    0.99148    5.3E-02
      1.184     139.26    0.99185       0.14
      1.184     145.22    0.89215   8.75E-02
      1.184     148.18     1.0173   6.23E-02
      1.184     150.66     1.0174    5.1E-02
      1.363     81.722      1.001  6.329E-02
      1.363      90.84    0.91268  8.861E-02
      1.363     99.444     1.0016  8.864E-02
      1.363     107.54     1.0398    0.10127
      1.363     117.17    0.95149  8.862E-02
      1.363     125.27     1.0024  8.863E-02
      1.363     132.36    0.83805  7.595E-02
      1.363     138.94     1.0408  6.329E-02
      1.363     145.02    0.88908    0.11391
      1.363     149.06    0.99048  7.595E-02
      1.363     150.59    0.95255  6.329E-02
      1.437     90.325     1.0499  6.098E-02
      1.437     99.788     1.0136  4.878E-02
      1.437     107.26    0.98938  6.098E-02
      1.437     116.72    0.91647  4.877E-02
      1.437     124.69    0.94108  6.098E-02
      1.437     132.16    0.92909  8.537E-02
      1.437     139.12    0.99026  7.317E-02
      1.437      145.1    0.97823  7.319E-02
      1.437     148.59    0.97832  7.316E-02
      1.437     151.08    0.97839  6.098E-02
      1.650     90.698    0.96396   6.25E-02
      1.650     99.268    0.98928   8.75E-02
      1.650     117.43    0.87746    7.5E-02
      1.650     132.05      0.778       0.17
      1.650     149.21    0.61614    5.1E-02
      1.650     151.22    0.64122       0.11
      1.726     80.953    0.97651  9.756E-02
      1.726     89.953    0.98896  7.316E-02
      1.726     99.458    0.87947  7.313E-02
      1.726     115.97    0.70921  7.319E-02
      1.726     130.97     0.5633  6.098E-02
      1.726     145.48    0.40517  4.878E-02
      1.726     149.98    0.33213  6.098E-02
      2.135     80.241    0.97553  4.938E-02
      2.135     89.861     1.0126  3.704E-02
      2.135     98.468     1.0374  4.938E-02
      2.135     106.06    0.95103  6.173E-02
      2.135     116.19    0.90172  7.409E-02
      2.135     124.29     1.0252  4.938E-02
      2.135     130.37       1.05  3.704E-02
      2.135     137.46     0.9883  7.407E-02
      2.135     143.53    0.98834  4.938E-02
      2.135     147.58    0.97603  3.703E-02
      2.135     150.11    0.98839  3.704E-02
      2.165     81.882    0.87405  6.329E-02
      2.165     90.345    0.91219  8.861E-02
      2.165      100.3    0.97568  7.595E-02
      2.165     107.76     1.4062  6.329E-02
      2.165     116.72      1.495  6.327E-02
      2.165     124.68     1.6977  7.595E-02
      2.165     132.14     1.9383  5.063E-02
      2.165      140.1     2.0271  8.861E-02
      2.165     145.07     2.3436  6.329E-02
      2.165     149.05      2.445  7.595E-02
      2.165     151.05     2.2931    0.10127
      2.175     80.519    0.86591     0.1125
      2.175     89.566     1.0294    7.5E-02
      2.175     98.121     1.1178    5.2E-02
      2.175     106.73    0.91876   8.75E-02
      2.175     116.29    0.99481   6.25E-02
      2.175     123.89    0.83313   7.49E-02
      2.175     130.44    0.85884   7.51E-02
      2.175     137.49    0.85961       0.15
      2.175     143.56    0.79777   7.52E-02
      2.175     147.59    0.78571    7.5E-02
      2.175     149.59    0.88593   7.47E-02
       2.20     90.515    0.91638  7.408E-02
       2.20     98.907    0.94167  9.877E-02
       2.20     106.78     1.2138    0.12346
       2.20     115.66     1.2762  8.642E-02
       2.20     124.07     1.1657  8.641E-02
       2.20     131.44     1.4749  6.173E-02
       2.20     138.86     1.3766  9.877E-02
       2.20     144.77     1.4635  9.879E-02
       2.20     148.69     1.7724  8.642E-02
       2.20     150.16     1.8219  7.408E-02
       2.31      82.23    0.79359     0.1111
       2.31     90.308     1.1154  7.407E-02
       2.31     98.923     1.2768    0.12445
       2.31     116.67     1.5256  9.876E-02
       2.31     132.37     1.9223     0.2171
       2.31     145.83     3.3681  8.642E-02
       2.31     151.01     2.8625  9.876E-02
       2.38       81.5       0.95     0.1125
       2.38       90.5         1.   8.71E-02
       2.38        99.       1.05     0.1375
       2.38      115.5      1.275   7.55E-02
       2.38      131.5       1.75   6.25E-02
       2.38       145.      2.175   6.23E-02
       2.38       151.      2.375   8.75E-02
       2.45     56.897    0.98739  8.974E-02
       2.45     65.033    0.98765  8.971E-02
       2.45     73.677    0.98793  7.692E-02
       2.45     82.325    0.89847    0.10256
       2.45     91.474    0.97569  7.692E-02
       2.45     100.63     1.0016  7.694E-02
       2.45     109.27    0.97626    0.10256
       2.45      116.9    0.98933  8.974E-02
       2.45     125.03     1.0793   6.41E-02
       2.45     133.17     1.0411  8.974E-02
       2.45     139.77     1.0926  5.128E-02
       2.45     145.37     1.0159  8.974E-02
       2.45     148.93     1.0545  7.692E-02
       2.45     151.47    0.99044  6.511E-02
       2.48     71.914    0.99028  8.642E-02
       2.48     80.997    0.95427  6.173E-02
       2.48     90.075    0.94295  8.642E-02
       2.48     98.644    0.95626  8.643E-02
       2.48     106.71    0.98186    0.17945
       2.48     115.28    0.97048  8.642E-02
       2.48     123.85     0.9838  9.876E-02
       2.48     131.41    0.97231  7.407E-02
       2.48     138.48    0.94842  7.406E-02
       2.48     145.05     0.8504    0.14814
       2.48     148.06    0.93715  8.642E-02
       2.48     150.08    0.92504  9.876E-02
ENDDATA            130
ENDSUBENT          144
ENDENTRY             3
