ENTRY            F1039   20091028   20100128   20100127       F037
SUBENT        F1039001   20091028   20100128   20100127       F037
BIB                 12         24
TITLE      The 27Al(p,a)24Mg reaction with 3 to 12 MeV protons.
AUTHOR     (K.L.Warsh,G.M.Temmer,H.R.Blieden)
INSTITUTE  (1USAFSU)
REFERENCE  (J,NP,44,329,1963)
           #doi:10.1016/0029-5582(63)90031-2
FACILITY   (VDGT)
INC-SOURCE The beam intensity used was of the order of 0.3 to
           0.8 mu-A.
DETECTOR   (SI) The alpha particles were detected with p-type
           silicon junction counters.
MONITOR    (9-F-19(P,A)8-O-16,,DA)
           The absolute cross sections were obtained by using,
           in one case an aluminium foil of measured thickness
           and in another case by using an evaporated Al2F6 target
           and the 19F(p,a)16O cross section which was
           previously measured.
SAMPLE     The targets were either evaporated self-supporting
           aluminium metal foils or aluminium metal evaporated
           onto a carbon backing foil.
METHOD     (BCINT)
ERR-ANALYS (ERR-SYS)    Absolute error of cross section
           (ERR-DIG)    Digitizing error
           (DATA-ERR)   Error from the graphic bars
HISTORY    (20091028C)
ENDBIB              24
COMMON               1          3
ERR-SYS
PER-CENT
  20.
ENDCOMMON            3
ENDSUBENT           31
SUBENT        F1039002   20091028   20100128   20100127       F037
BIB                  3          3
REACTION   (13-AL-27(P,A)12-MG-24,PAR,DA)
ERR-ANALYS (EN-ERR-DIG) Energy digitizing error
STATUS     (CURVE) Fig.2,3
ENDBIB               3
COMMON               3          3
ANG        EN-ERR-DIG ERR-DIG
ADEG       MEV        MB/SR
  90.       0.003      0.001
ENDCOMMON            3
DATA                 4        467
E-LVL      EN         DATA       DATA-ERR
MEV        MEV        MB/SR      MB/SR
         0.     3.4738     1.9526
         0.     3.4799     1.8545
         0.     3.4981     1.5743
         0.     3.5284      1.224
         0.     3.5588     1.3081
         0.     3.5892     2.2328
         0.     3.6136       3.83
         0.     3.6319     6.1277
         0.      3.656     2.9613
         0.     3.6803     2.8912
         0.     3.6863     2.2467
         0.     3.7167     1.1539
         0.     3.7409     1.0558
         0.     3.7531     1.3921
         0.     3.7774      1.336
         0.     3.8078     1.6162
         0.     3.8321     1.8544
         0.     3.8564     2.9752
         0.     3.8929     2.7791
         0.     3.9232     2.5269
         0.     3.9414     1.8964
         0.     3.9535     1.7003
         0.     3.9839     1.7283
         0.     4.0205     4.3903
         0.     4.0326     4.3062
         0.     4.0508     3.7318
         0.     4.0508     3.2134
         0.     4.0811      2.695
         0.     4.1054     3.4235
         0.     4.1298      5.413
         0.     4.1539     1.7843
         0.     4.1844     4.3902
         0.     4.2148     4.4322
         0.     4.2451     3.2554
         0.     4.2572      2.821
         0.     4.2936     1.7562 9.8074E-02
         0.      4.324     1.9944
         0.     4.3604     2.3166
         0.     4.3908     2.1485
         0.     4.4151     1.9523
         0.     4.4394     2.6248
         0.     4.4697     1.9103
         0.     4.5001     1.8682
         0.     4.5123     2.6668
         0.     4.5428     4.8104    0.19615
         0.     4.5608     2.3726
         0.     4.5911    0.56524
         0.     4.6094     1.2798
         0.     4.6398     1.5039
         0.      4.658     2.1064
         0.     4.7005    0.95751
         0.     4.7127     2.7088
         0.     4.7369     1.9242
         0.     4.7612    0.85942
         0.     4.7977      2.975
         0.      4.828    0.91544
         0.     4.8523     1.3217
         0.     4.8887     1.5739
         0.     4.9377     8.7053    0.22417
         0.     4.9982     4.9925
         0.     5.0468     3.8015
         0.     5.0953     3.6054
         0.     5.1438     2.1483
         0.     5.1804     4.3339
         0.     5.2471      3.171
         0.     5.2895     1.1535
         0.     5.3382     3.7594
         0.     5.3928     2.3023
         0.     5.4414     2.9468
         0.     5.4839     2.6105
         0.     5.5386     3.0168
         0.     5.6054     1.7138    0.15412
         0.     5.6357    0.94324
         0.     5.6905     3.7173
         0.      5.733     3.7453
         0.     5.7936     1.5316
         0.     5.8969     2.8206
         0.     5.9394     2.4563
         0.     5.9394     2.1761
         0.      5.988     3.1288
         0.     6.0366     3.5631
         0.     6.0973     2.3862
         0.     6.1337     1.4615
         0.     6.1945     2.7785
         0.     6.2491     1.7557
         0.     6.2917     3.0026
         0.     6.3403     4.2916    0.19615
         0.     6.3767     2.7364
         0.     6.4373      0.915
         0.      6.492     1.2793
         0.     6.5467     2.1759
         0.     6.5892     2.5542
         0.     6.6377     1.8396
         0.     6.6742     1.6855
         0.     6.7349     1.3212
         0.     6.7896     1.6995
         0.     6.8382     2.0497
         0.     6.8624     1.4893
         0.     6.8806     0.6767
         0.     6.9353      1.041
         0.     6.9838    0.38245
         0.     7.0386     2.1478
         0.     7.0811     2.9183
         0.     7.1297     2.2318
         0.      7.245    0.85874
         0.     7.2936      1.223
         0.     7.3422      1.195
         0.     7.3786    0.67657
         0.     7.4333      1.209
         0.     7.4758     2.1617
         0.     7.5244     2.3998
         0.     7.5791     3.0583
         0.     7.5912      2.638
         0.     7.6276     1.1248
         0.     7.6337    0.99874
         0.     7.6762     1.9234    0.18214
         0.     7.7289     1.1388
         0.     7.7308    0.95668
         0.      7.749    0.67646
         0.     7.7733    0.88662
         0.      7.828     1.1528
         0.     7.8766     1.0687
         0.     7.8826     1.1808
         0.     7.9191      1.489
         0.     7.9312     1.0547
         0.     7.9659    0.97062
         0.     7.9698    0.81651
         0.     7.9716    0.70443
         0.     8.0041    0.64837
         0.     8.0284    0.52227
         0.      8.083    0.66236
         0.     8.1377    0.84448
         0.     8.1802    0.67635
         0.     8.2106    0.66233
         0.     8.2227    0.57826
         0.     8.2713    0.85846
         0.     8.3138     1.1387
         0.      8.332     1.2647
         0.     8.3321     1.3628
         0.     8.3585     1.3488
         0.     8.3624     1.4609
         0.     8.4292      1.587
         0.     8.4535     1.7131
         0.     8.4778     1.5169
         0.     8.5385     1.3347
         0.      8.575     1.0265
         0.     8.6357     2.3014
         0.     8.6722     2.6377
         0.     8.7147     2.5816
         0.     8.7268     1.2646
         0.     8.7389     1.1105
         0.     8.7511    0.94239
         0.     8.7936     1.2226
         0.       8.83    0.60612
         0.     8.8847    0.94235
         0.     8.9271       0.48
         0.     8.9818    0.98436
         0.     9.0426     1.5868
         0.     9.0912     1.3766
         0.     9.1337      1.909    0.15412
         0.     9.1762    0.88623
         0.      9.249    0.83017
         0.     9.2733     1.1384
         0.     9.3219     1.2084
         0.     9.3401    0.61999
         0.     9.3887    0.81612
         0.     9.4434     1.0543
         0.     9.4798     1.0963
         0.     9.5344    0.54988
         0.      9.583     0.8581
         0.     9.6316     1.0682
         0.     9.6924    0.99818
         0.     9.7349    0.73197
         0.     9.7834    0.83003
         0.     9.8381    0.87204
         0.     9.8928    0.75994
         0.     9.8988    0.66187
         0.     9.9231    0.61983
         0.     9.9799    0.63382
         0.     9.9825     0.4797
         0.     9.9838    0.40966
         0.     10.038    0.32558
         0.     10.067    0.35359
         0.     10.081    0.43765
         0.     10.136    0.43764
         0.     10.172    0.46565
         0.     10.184    0.63377
         0.     10.191    0.78788
         0.     10.221    0.67578
         0.     10.233    0.63376
         0.     10.281    0.40957
         0.     10.312    0.38155
         0.     10.348    0.42357
         0.     10.391    0.45158
         0.     10.415    0.38152
         0.     10.451    0.42354
         0.     10.464    0.49358
         0.     10.482    0.59166
         0.     10.561    0.60565
         0.     10.591    0.22735
         0.     10.646    0.33942
         0.     10.694    0.36743
         0.     10.755    0.36741
         0.     10.792    0.50751
         0.     10.852    0.56354
         0.     10.895    0.57753
         0.     10.955    0.29731
         0.      11.01    0.25526
         0.     11.053     0.5915
         0.     11.101    0.85769
         0.     11.156    0.46538
         0.     11.211    0.66151
         0.     11.247    0.80161
         0.     11.302     0.5494
         0.      11.35    0.46533
         0.     11.411    0.52135
         0.      11.46     0.6054
         0.     11.502    0.64742
         0.     11.569     0.6474
         0.     11.605    0.54932
         0.      11.66    0.66139
         0.     11.721    0.42319
         0.     11.751    0.29709
         0.       11.8    0.18499
         0.     11.854    0.31107
         0.     11.891    0.18497
         0.     11.958    0.18495
         0.        12.      0.269
         0.     12.061    0.35305
         0.     12.109    0.32501
         0.     12.158    0.28297
      1.368     3.4736     2.5447        0.4
      1.368     3.4979     2.4305
      1.368     3.5162     2.0877
      1.368     3.5406     1.4878
      1.368      3.577     1.8022
      1.368     3.6073     2.3452
      1.368     3.6193     3.2881
      1.368     3.6375     3.5453
      1.368     3.6614     5.4597
      1.368     3.7045     2.3741
      1.368     3.7287     3.0028
      1.368     3.7406     4.6314
      1.368      3.771     4.5458
      1.368     3.7954     4.0316
      1.368     3.8255     5.8317
      1.368     3.8503     3.0318
      1.368     3.8805     3.5748
      1.368     3.8923     5.8034
      1.368     3.9348     6.3464
      1.368     3.9472     4.8322
      1.368     3.9713     5.6323
      1.368     4.0011     9.3467
      1.368     4.0376     9.3182
      1.368      4.056     8.3183
      1.368     4.0862     8.8613
      1.368     4.0989     6.0899
      1.368     4.1291     7.2043
      1.368      4.153     9.3758
      1.368     4.1715     7.9473
      1.368     4.1961     6.0331
      1.368     4.2086     3.8903
      1.368      4.245     4.6333
      1.368     4.2751     6.3192
      1.368      4.305     8.9478
      1.368     4.3419     6.6908
      1.368     4.3538     8.1766
      1.368     4.3662     6.2909
      1.368     4.4024     7.9196
      1.368     4.4327     8.2055
      1.368     4.4512     7.0913
      1.368     4.4762     2.9485
      1.368     4.5067     2.1772
      1.368     4.5185     4.2344
      1.368     4.5484     7.0916
      1.368     4.5792     4.7203
      1.368     4.6039     2.2633
      1.368     4.6282     2.7491
      1.368     4.6582     4.6635
      1.368     4.6762      5.835
      1.368     4.7126     6.4351
      1.368     4.7307     7.1209
      1.368     4.7547     9.0067
      1.368     4.7785     11.721
      1.368     4.8034     8.3212
      1.368     4.8393     11.664
      1.368     4.8634      12.95
      1.368     4.9188     8.7788
      1.368     4.9662     15.693
      1.368     5.0092     13.265
      1.368     5.0645     9.4936
      1.368     5.1073     8.3223
      1.368     5.1504     5.1796
      1.368     5.2042     10.351
      1.368     5.2594     6.9801
      1.368      5.302     6.5231
      1.368     5.3506     6.7233
      1.368     5.4056      4.952
      1.368     5.4541     5.6379
      1.368     5.5088     5.8667
      1.368     5.5686     11.067    0.42857
      1.368     5.6111     11.296
      1.368     5.6489     4.0101    0.42857
      1.368     5.7153     6.5818
      1.368     5.7579     6.1248
      1.368     5.8005     5.7821
      1.368     5.8493     4.8109
      1.368      5.915     11.497
      1.368     5.9631     14.011
      1.368     5.9691     14.526
      1.368     6.0003     9.8686
      1.368     6.0126     9.2972
      1.368     6.0611     9.8403
      1.368     6.1041     7.0404
      1.368     6.1522     10.098
      1.368     6.2177     17.641
      1.368     6.2671     13.555
      1.368     6.3101     10.727
      1.368      6.365     9.6128
      1.368     6.4078     7.9273
      1.368     6.4627     6.8132
      1.368     6.5051     7.6991
      1.368     6.5233     7.9563
      1.368     6.5536     8.4993
      1.368     6.6137     12.014    0.54286
      1.368     6.6571     7.0425
      1.368     6.7174     9.7285
      1.368     6.7478     9.9857
      1.368     6.8137     15.215
      1.368     6.8748     13.358
      1.368     6.9113     13.186
      1.368     6.9544     10.158
      1.368     6.9974      7.501
      1.368     7.0034     7.9581
      1.368      7.058     8.4726
      1.368     7.1068     7.1014
      1.368      7.161     9.9016
      1.368     7.2034     10.559    0.54286
      1.368     7.2522     9.8448
      1.368     7.3136      6.245
      1.368      7.356     6.6738
      1.368     7.4043     8.5025
      1.368     7.4594     6.3599
      1.368     7.4898     6.5314
      1.368     7.5562      8.846
      1.368     7.6053     6.3033
      1.368     7.6054     5.5604
      1.368      7.636     4.3606
      1.368     7.6421     4.1892
      1.368     7.6966     5.4751
      1.368     7.7088      5.218
      1.368     7.7352     5.1038
      1.368      7.745     6.2181
      1.368     7.7997     6.4469
      1.368     7.8118     6.8184
      1.368     7.8602     8.0471
      1.368     7.8926     8.7616
      1.368     7.8965     8.9044
      1.368     7.9351     8.9046
      1.368     7.9394     6.9332
      1.368     7.9454     7.1617
      1.368     7.9575     7.8761
      1.368     7.9757     7.9333
      1.368     7.9999     8.2762
      1.368     8.0182     7.8763
      1.368     8.0489     6.1621    0.42857
      1.368     8.0977     4.9052
      1.368     8.1219     5.4481
      1.368     8.1343     4.3339
      1.368     8.2068      6.477
      1.368     8.2494     6.5629
      1.368     8.2556     5.4201
      1.368     8.2982      5.506
      1.368     8.3161     7.1917
      1.368     8.3587     7.1062
      1.368      8.377     6.6205
      1.368     8.3954     5.6206
      1.368     8.4441     5.1637
      1.368     8.4743     5.9352
      1.368     8.4985     6.6496
      1.368     8.5533     5.9641
      1.368      8.584     4.5642
      1.368      8.639     2.6787
      1.368     8.6873     4.3074
      1.368     8.7096      5.679
      1.368     8.7113     5.9361
      1.368     8.7843     5.9364
      1.368     8.7905      5.165
      1.368     8.8394     3.1366
      1.368     8.8819     3.3082
      1.368     8.9547     4.4227
      1.368     8.9971     4.7943
      1.368     9.0579     4.6231
      1.368     9.0945     4.0519
      1.368      9.155     5.3664
      1.368     9.1976     5.2237
      1.368     9.2461      5.681
      1.368     9.2952     2.9383
      1.368     9.3437     3.7671
      1.368     9.3922      4.453
      1.368     9.4532     3.4247
      1.368     9.4957      3.682
      1.368     9.5565     3.2536
      1.368     9.6052     2.7395
      1.368     9.6416     2.9682
      1.368     9.7022     3.8542
      1.368     9.7508     4.3972    0.31429
      1.368     9.7935      3.026
      1.368     9.8482     3.2833
      1.368     9.8908     2.9406
      1.368      9.903     2.5692
      1.368     9.9272     3.4836
      1.368     9.9515     3.4266
      1.368     9.9759     2.5409
      1.368     10.006     3.3982
      1.368     10.012     3.6839
      1.368     10.037     2.7126
      1.368     10.061     2.5698
      1.368     10.103     3.4557
      1.368     10.103     3.6843
      1.368     10.152     3.2845
      1.368     10.188     3.5989
      1.368     10.194     4.1132
      1.368     10.231     3.5705
      1.368     10.255     3.1134
      1.368      10.31     2.9422
      1.368     10.328     3.4851
      1.368     10.365     4.2281
      1.368     10.383     3.6568
      1.368     10.407     3.0854
      1.368     10.432     3.4284
      1.368      10.48        3.4
      1.368     10.498     3.8858
      1.368     10.504     4.1715
      1.368     10.559      3.886
      1.368     10.608     2.1434
      1.368     10.656     2.9721
      1.368     10.705      2.658
      1.368      10.76     2.3725
      1.368     10.802     2.6869
      1.368     10.863       2.23
      1.368     10.906     1.5731
      1.368     10.954      2.059
      1.368     11.003     2.6877
      1.368     11.058     3.0594
      1.368     11.106     2.5453
      1.368     11.149     2.3168
      1.368     11.198     1.9742
      1.368      11.24     1.9172
      1.368     11.289     1.9745
      1.368     11.349     2.1748
      1.368      11.41      2.575
      1.368     11.471     1.7752
      1.368     11.507     1.6896
      1.368     11.544     1.7469
      1.368     11.593     1.9185
      1.368     11.653     1.9473
      1.368     11.696     1.4047
      1.368     11.769     1.1478
      1.368     11.805     1.1479
      1.368     11.854     1.3195
      1.368     11.909     1.4912
      1.368     11.957     1.1199
      1.368     11.994     1.3201
      1.368     12.061     1.4632    0.22857
      1.368     12.103     1.2633
      1.368     12.152     1.3207
ENDDATA            469
ENDSUBENT          481
SUBENT        F1039003   20091028   20100128   20100127       F037
BIB                  3          3
REACTION   (13-AL-27(P,A)12-MG-24,PAR,DA)
ERR-ANALYS (ANG-ERR-D)  Angle digitizing error
STATUS     (CURVE) Fig.5-21
ENDBIB               3
COMMON               2          3
ANG-ERR-D  ERR-DIG
ADEG       MB/SR
 0.135      0.004
ENDCOMMON            3
DATA                 5        571
E-LVL      EN         ANG-CM     DATA-CM    DATA-ERR
MEV        MEV        ADEG       MB/SR      MB/SR
         0.        10.     21.358     2.2661  8.198E-02
         0.        10.     26.177     1.9751  8.197E-02
         0.        10.     31.913     1.8398  7.787E-02
         0.        10.      35.82      1.475  7.377E-02
         0.        10.     43.064     1.2782  5.328E-02
         0.        10.     48.203     1.2535  5.732E-02
         0.        10.     53.939     1.1141  5.738E-02
         0.        10.     58.775     1.0854  4.918E-02
         0.        10.     64.213     1.0156  6.146E-02
         0.        10.     69.042    0.87212  6.148E-02
         0.        10.     73.875    0.80239  5.738E-02
         0.        10.     78.707    0.71216  5.735E-02
         0.        10.     84.443    0.56046  5.328E-02
         0.        10.     89.277    0.50302  5.738E-02
         0.        10.      95.31    0.44147  4.918E-02
         0.        10.     95.318    0.40049  4.919E-02
         0.        10.     99.855    0.42912  4.098E-02
         0.        10.     104.38    0.33481  4.508E-02
         0.        10.     108.92    0.35114  4.098E-02
         0.        10.     113.76    0.38797  4.917E-02
         0.        10.      118.6    0.37562  5.327E-02
         0.        10.     123.74    0.44523  4.508E-02
         0.        10.     128.89    0.57631  4.912E-02
         0.        10.     134.34    0.56805  4.508E-02
         0.        10.     138.27    0.61718  4.920E-02
         0.        10.     142.81     0.6868  4.918E-02
         0.        10.     147.35    0.72773  4.914E-02
         0.        10.     151.88      0.658  4.578E-02
         0.        10.     157.01    0.57597  4.919E-02
         0.        10.     160.95    0.60052  4.916E-02
         0.        10.     166.07    0.40783  4.097E-02
         0.        10.      169.3     0.3627  3.279E-02
         0.        10.       170.    0.33401  2.869E-02
         0.       10.5     21.184    0.72725  4.129E-02
         0.       10.5     26.329    0.58372  3.934E-02
         0.       10.5     31.774    0.52473  3.938E-02
         0.       10.5     36.914    0.55718  3.937E-02
         0.       10.5     42.961    0.56701  3.631E-02
         0.       10.5     47.799    0.57094  3.736E-02
         0.       10.5     53.543    0.59651  3.539E-02
         0.       10.5     58.382    0.56407  3.637E-02
         0.       10.5     63.221    0.53064  3.734E-02
         0.       10.5     67.458    0.43233  3.537E-02
         0.       10.5     72.899    0.46772  3.834E-02
         0.       10.5     78.042    0.39399  3.146E-02
         0.       10.5     83.786    0.43725  3.441E-02
         0.       10.5     88.625    0.41956  3.534E-02
         0.       10.5     93.764    0.43824  3.343E-02
         0.       10.5     93.765    0.43037  3.244E-02
         0.       10.5     98.605    0.36942  3.443E-02
         0.       10.5     103.44    0.47167  3.539E-02
         0.       10.5     108.58    0.40973  3.638E-02
         0.       10.5     113.42    0.35074  3.445E-02
         0.       10.5     117.66    0.26521  3.048E-02
         0.       10.5      123.4    0.29471  3.046E-02
         0.       10.5     127.64    0.30356  2.949E-02
         0.       10.5     132.78    0.25244  2.655E-02
         0.       10.5     137.01    0.26325   2.36E-02
         0.       10.5     142.15    0.23868  2.657E-02
         0.       10.5     146.69    0.19837  2.261E-02
         0.       10.5     151.53    0.18756  2.065E-02
         0.       10.5     156.37    0.13054  1.868E-02
         0.       10.5      160.6     0.1266  1.475E-02
         0.       10.5      160.6    0.10006  1.478E-02
         0.       10.5     165.14 8.8263E-02  1.473E-02
         0.       10.5     169.07 6.8602E-02  1.671E-02
         0.       10.5     169.07 5.8771E-02  1.572E-02
         0.        11.      22.05     3.2428    0.11951
         0.        11.     22.355     1.9901    0.11951
         0.        11.     26.501     1.7758  8.242E-02
         0.        11.     31.637     1.4213  9.478E-02
         0.        11.     37.085     1.1781  8.654E-02
         0.        11.     42.255     1.2975  8.244E-02
         0.        11.     47.401     1.0914   7.83E-02
         0.        11.     53.166     1.0295  8.242E-02
         0.        11.     58.321    0.94293  6.593E-02
         0.        11.     63.172     0.8522  6.595E-02
         0.        11.     68.626    0.69142  4.947E-02
         0.        11.     73.471    0.51004  4.945E-02
         0.        11.     78.928    0.41107  4.533E-02
         0.        11.     83.778    0.29974  4.121E-02
         0.        11.     88.938    0.27083  3.709E-02
         0.        11.     94.092    0.17598  4.121E-02
         0.        11.     99.259    0.25009  4.535E-02
         0.        11.     104.11    0.19233  3.297E-02
         0.        11.     109.27    0.20463  3.297E-02
         0.        11.     113.84    0.36528  4.121E-02
         0.        11.      118.4    0.48473  5.357E-02
         0.        11.     123.57    0.54236  6.593E-02
         0.        11.     128.73    0.58762  6.181E-02
         0.        11.     133.29    0.65349  6.593E-02
         0.        11.     138.15    0.62458  6.593E-02
         0.        11.     142.69    0.53387  5.769E-02
         0.        11.     147.86    0.58325  6.181E-02
         0.        11.     152.11    0.53374  5.769E-02
         0.        11.     156.66    0.55841  5.357E-02
         0.        11.     161.53    0.68197  6.181E-02
         0.        11.     166.09    0.79318  5.357E-02
         0.        11.     171.25    0.83432  6.181E-02
         0.       11.5     18.329    0.66966  4.405E-02
         0.       11.5     21.061    0.65095  4.626E-02
         0.       11.5     26.509     0.6785  4.846E-02
         0.       11.5     31.975    0.63226  4.736E-02
         0.       11.5     37.173    0.42963  4.295E-02
         0.       11.5     42.656     0.3085  2.863E-02
         0.       11.5     47.246    0.11909  2.093E-02
         0.       11.5      53.31    0.10369  1.872E-02
         0.       11.5     58.434    0.22154  2.974E-02
         0.       11.5     63.264    0.30085  3.414E-02
         0.       11.5     68.683    0.45396  3.855E-02
         0.       11.5     73.513    0.53216  4.405E-02
         0.       11.5     78.347    0.59385  4.846E-02
         0.       11.5     84.096    0.63132  4.956E-02
         0.       11.5     88.974    0.50358  4.295E-02
         0.       11.5     93.617    0.53884  4.295E-02
         0.       11.5     93.835    0.45183  4.405E-02
         0.       11.5     98.686    0.43753  3.965E-02
         0.       11.5     103.54     0.4056  3.524E-02
         0.       11.5     103.54    0.43314  4.295E-02
         0.       11.5     108.68    0.45628  4.075E-02
         0.       11.5     113.22    0.50585  4.515E-02
         0.       11.5     118.37    0.49706  4.405E-02
         0.       11.5     123.53    0.45412  4.295E-02
         0.       11.5     128.07    0.49819  4.626E-02
         0.       11.5     132.93    0.41891  4.185E-02
         0.       11.5     137.48    0.41892  4.075E-02
         0.       11.5     142.65    0.35506  3.524E-02
         0.       11.5     147.21    0.26367  2.974E-02
         0.       11.5     152.06    0.28461  3.634E-02
         0.       11.5     156.02    0.16788  2.643E-02
         0.       11.5     161.18    0.14146  2.313E-02
         0.       11.5     165.74 9.7425E-02  1.982E-02
         0.       11.5     170.59 9.0832E-02  1.983E-02
         0.        12.     21.303     1.6282    0.11304
         0.        12.     26.376     1.0107  8.478E-02
         0.        12.     32.091    0.78027  7.174E-02
         0.        12.     37.213     0.6585  6.737E-02
         0.        12.     42.645      0.615  6.739E-02
         0.        12.     47.766    0.48019  5.435E-02
         0.        12.     53.489    0.33233  5.217E-02
         0.        12.     58.309    0.20839  3.261E-02
         0.        12.     63.442    0.19532  3.478E-02
         0.        12.     63.444    0.21706  3.696E-02
         0.        12.     68.582    0.24747  4.565E-02
         0.        12.     73.712    0.20614  3.478E-02
         0.        12.     78.865    0.40177   5.87E-02
         0.        12.     84.004    0.44739  5.435E-02
         0.        12.     88.828    0.36476  5.652E-02
         0.        12.     93.943    0.26691  4.568E-02
         0.        12.     93.949     0.2256  4.565E-02
         0.        12.     98.691    0.20601  3.478E-02
         0.        12.     98.776     0.1821  3.696E-02
         0.        12.      103.9 7.5551E-02  2.174E-02
         0.        12.     108.43 7.3354E-02  2.609E-02
         0.        12.     113.88    0.19289   4.13E-02
         0.        12.     118.72    0.31243  4.783E-02
         0.        12.     123.48    0.52762  5.435E-02
         0.        12.     123.59    0.67545  6.304E-02
         0.        12.     129.34    0.83194  7.391E-02
         0.        12.      133.6     1.0732  8.696E-02
         0.        12.     139.05     1.2493  9.783E-02
         0.        12.      143.9     1.3819    0.10652
         0.        12.     148.71     1.2231     1.E-01
         0.        12.     149.01     1.1471  9.565E-02
         0.        12.     152.58     1.1253  9.348E-02
         0.        12.     152.61    0.95139  9.564E-02
         0.        12.     157.13    0.81441  7.826E-02
         0.        12.     161.96    0.79264  7.394E-02
         0.        12.     166.47    0.64697  7.391E-02
         0.        12.     170.99    0.48607  6.087E-02
       1.37        10.     21.798     2.7919    0.10746
       1.37        10.     27.252     2.8166    0.10621
       1.37        10.     32.708       2.66  8.247E-02
       1.37        10.     38.161     2.8992    0.10752
       1.37        10.     43.314     2.7425  9.893E-02
       1.37        10.     48.768     2.7425  9.897E-02
       1.37        10.     54.224     2.5529    0.10736
       1.37        10.     58.768     2.7096    0.10712
       1.37        10.     63.922      2.421  9.897E-02
       1.37        10.     69.982     2.4787    0.10741
       1.37        10.     75.132     2.6767  8.247E-02
       1.37        10.     80.284     2.6685  9.072E-02
       1.37        10.     85.436     2.6273  9.897E-02
       1.37        10.     90.588     2.5283    0.10722
       1.37        10.     95.437     2.4294  9.895E-02
       1.37        10.     95.438     2.2809  9.898E-02
       1.37        10.     99.378     2.2315  9.072E-02
       1.37        10.     104.83     2.0913  9.897E-02
       1.37        10.     109.99     1.9676  8.247E-02
       1.37        10.     114.53     2.0996    0.10732
       1.37        10.     119.38     2.1738    0.10756
       1.37        10.     124.22      2.611    0.11546
       1.37        10.     129.37     3.3285  9.894E-02
       1.37        10.     134.52     3.6914    0.11546
       1.37        10.     139.97     4.2111    0.13196
       1.37        10.      143.9     4.8049    0.13276
       1.37        10.     148.45     5.4565    0.14021
       1.37        10.     153.29     5.7287    0.12371
       1.37        10.     156.92     6.1988     0.1732
       1.37        10.     162.08     6.2153     0.1567
       1.37        10.     166.62     6.4133    0.14845
       1.37        10.     170.86     6.1659    0.16495
       1.37        10.     170.87     6.0009    0.14852
       1.37       10.5     21.908     5.7277    0.10714
       1.37       10.5     26.726     5.0354    0.11538
       1.37       10.5     32.751     4.3018    0.10779
       1.37       10.5     37.578      4.071    0.10743
       1.37       10.5     42.401     3.6506    0.11538
       1.37       10.5     48.744     3.8648    0.12363
       1.37       10.5      53.87     3.5103    0.13187
       1.37       10.5     57.793     3.4278   9.89E-02
       1.37       10.5     63.831     3.4195    0.11522
       1.37       10.5     69.566     3.3865    0.11538
       1.37       10.5     75.001     3.4194    0.10718
       1.37       10.5     79.827     3.2133    0.10714
       1.37       10.5      84.66     3.3616    0.11527
       1.37       10.5     89.498     3.8066    0.12363
       1.37       10.5     94.628     3.6911    0.13187
       1.37       10.5     99.456     3.5921    0.11532
       1.37       10.5     104.89     3.4355    0.10711
       1.37       10.5     109.41      3.147    0.11533
       1.37       10.5     114.84      2.842   9.89E-02
       1.37       10.5     119.37     2.7183   9.85E-02
       1.37       10.5     123.89     2.7594    0.11528
       1.37       10.5     128.42     2.7182   9.87E-02
       1.37       10.5     134.16     2.8664  9.066E-02
       1.37       10.5       139.     3.1466    0.11631
       1.37       10.5     143.23     3.5504    0.10514
       1.37       10.5     148.07     3.8882    0.11612
       1.37       10.5      153.2     4.0283    0.10634
       1.37       10.5     157.13     4.1024    0.11225
       1.37       10.5     161.96     4.1848  9.049E-02
       1.37       10.5     162.26     4.1353  9.066E-02
       1.37       10.5     167.09       4.16    0.13187
       1.37       10.5     172.57     4.1929  9.062E-02
       1.37       10.5     172.62     4.0445    0.11529
       1.37        11.     20.911     10.865    0.21703
       1.37        11.     21.139     6.3072    0.16694
       1.37        11.     25.009     5.4891    0.21703
       1.37        11.      28.88      4.788    0.18364
       1.37        11.     33.207     3.7195    0.16694
       1.37        11.     37.306     3.4357    0.16672
       1.37        11.     40.949     2.9015    0.13356
       1.37        11.     45.275     2.8848    0.13365
       1.37        11.     49.146     2.7846    0.13356
       1.37        11.     53.017      2.601    0.11629
       1.37        11.     56.888     3.5025    0.11658
       1.37        11.     60.531     3.5025    0.11674
       1.37        11.     64.402     3.8865    0.11686
       1.37        11.     68.729     4.1536    0.13356
       1.37        11.     72.144     3.9366    0.16694
       1.37        11.     76.015      4.187    0.13336
       1.37        11.     76.015     4.0534    0.16694
       1.37        11.     79.658     4.4374    0.16681
       1.37        11.     79.681     4.2371    0.13345
       1.37        11.     83.302     3.6361    0.13356
       1.37        11.     86.945     3.9032    0.11682
       1.37        11.     91.044     3.5359    0.11679
       1.37        11.     94.231     3.1018    0.11681
       1.37        11.     98.102      2.985    0.13356
       1.37        11.     101.52     3.4524    0.15025
       1.37        11.     105.16     3.3856    0.11686
       1.37        11.     108.58     3.5025    0.13361
       1.37        11.     112.22     3.6194    0.15025
       1.37        11.     115.64     3.3856    0.13456
       1.37        11.     119.05     2.9516    0.15025
       1.37        11.     122.69     3.0518    0.13386
       1.37        11.     126.11     2.7846    0.15025
       1.37        11.     129.75     2.2504    0.13354
       1.37        11.     133.17     2.4508    0.11686
       1.37       11.5     17.607     4.9499    0.16667
       1.37       11.5     21.554     5.0166       0.15
       1.37       11.5     26.715     4.9249    0.15833
       1.37       11.5     32.484     5.0165    0.14167
       1.37       11.5     37.643     4.6581      0.175
       1.37       11.5      43.41     4.4498    0.18321
       1.37       11.5     48.263     3.7581       0.15
       1.37       11.5     54.939     3.3164    0.13353
       1.37       11.5     58.881     2.7413        0.1
       1.37       11.5     64.041     2.5163    0.10827
       1.37       11.5     69.808     2.2996    0.10831
       1.37       11.5      74.36     1.9496    0.13329
       1.37       11.5     80.434     2.2829      0.125
       1.37       11.5     84.989     2.3995       0.15
       1.37       11.5     90.152     2.6412    0.14167
       1.37       11.5     95.009     2.5328    0.19167
       1.37       11.5     95.011     2.8328    0.16667
       1.37       11.5      99.87     3.0578    0.15833
       1.37       11.5     104.73     3.1411    0.13318
       1.37       11.5     104.73     3.1911       0.15
       1.37       11.5     109.59     3.5077    0.14152
       1.37       11.5     115.06     3.9077      0.155
       1.37       11.5     119.61      3.841    0.14127
       1.37       11.5     119.61     3.9827    0.13234
       1.37       11.5     123.56      4.266    0.13387
       1.37       11.5     130.55     4.6493      0.125
       1.37       11.5     133.58     3.9159    0.15733
       1.37       11.5     137.22     4.1743    0.13634
       1.37       11.5     142.38     4.1409    0.14147
       1.37       11.5     147.85     4.1325      0.158
       1.37       11.5     153.01     4.1575    0.15841
       1.37       11.5     156.96     4.5408    0.14167
       1.37       11.5     161.82     4.8325    0.14158
       1.37       11.5     165.93     5.6741    0.15848
       1.37       11.5     166.38     6.1991      0.175
       1.37        12.     20.879     5.9332    0.25137
       1.37        12.     26.298     4.4575    0.19672
       1.37        12.     32.357     3.6593    0.18579
       1.37        12.      37.52     3.2656    0.18562
       1.37        12.     42.682     2.8609    0.17486
       1.37        12.     48.167     2.8278    0.15324
       1.37        12.     53.345     2.7728    0.15301
       1.37        12.     58.219     2.7288    0.16373
       1.37        12.     63.702     2.6629    0.16393
       1.37        12.     63.747     2.5537    0.14208
       1.37        12.     68.871     2.4003    0.17482
       1.37        12.     73.437     2.2908    0.16397
       1.37        12.     78.934       2.52    0.17483
       1.37        12.     83.803     2.3667    0.14208
       1.37        12.       89.6     2.5084    0.17468
       1.37        12.     94.165     2.3661    0.18579
       1.37        12.      99.04     2.3549    0.15301
       1.37        12.     104.22     2.4201    0.19672
       1.37        12.     109.39     2.1685    0.13115
       1.37        12.     113.99     2.7256    0.17486
       1.37        12.     119.16     2.5613    0.18581
       1.37        12.     124.06     2.9108    0.14208
       1.37        12.     124.06     3.0419    0.10929
       1.37        12.     128.93     2.9651    0.17586
       1.37        12.     134.12     3.1506    0.18579
       1.37        12.     138.07     2.8444    0.16393
       1.37        12.     142.96     3.1611    0.16388
       1.37        12.     148.13     2.9094    0.18579
       1.37        12.     148.15     3.1935    0.18571
       1.37        12.     152.41     3.0949    0.18574
       1.37        12.     152.42     3.4009    0.16393
       1.37        12.     156.69     3.4444    0.17486
       1.37        12.     161.57     3.5534    0.18561
       1.37        12.     166.46     3.8591    0.15301
       1.37        12.     171.37     4.6457    0.19662
       5.24        10.     21.326      2.168  8.781E-02
       5.24        10.     27.097     2.2118  8.293E-02
       5.24        10.     32.262     2.2947  7.317E-02
       5.24        10.     37.724      2.241  8.294E-02
       5.24        10.     43.792     2.1628  8.297E-02
       5.24        10.     49.258     2.1676  7.805E-02
       5.24        10.     54.729     2.2895  7.808E-02
       5.24        10.     59.882     2.1431  9.268E-02
       5.24        10.     64.441      2.226  8.293E-02
       5.24        10.      71.12     2.2308  8.781E-02
       5.24        10.     75.978     2.2258  8.293E-02
       5.24        10.     81.133     2.0989  9.756E-02
       5.24        10.     85.979     1.8745  8.781E-02
       5.24        10.     91.146     1.9817  8.789E-02
       5.24        10.     95.672     1.7573    0.10244
       5.24        10.     95.681     1.6207    0.10732
       5.24        10.     102.36     1.6791    0.10248
       5.24        10.       106.     1.5815  8.781E-02
       5.24        10.     111.77     1.5034  9.756E-02
       5.24        10.     116.02     1.6546  8.771E-02
       5.24        10.     121.18     1.5618  9.752E-02
       5.24        10.     125.14     1.7471  7.805E-02
       5.24        10.     129.69     1.7812  7.801E-02
       5.24        10.     134.55      1.786  8.779E-02
       5.24        10.     139.11     1.8542  8.787E-02
       5.24        10.     143.37     2.0493  9.268E-02
       5.24        10.     149.14     2.0883  8.293E-02
       5.24        10.      152.8      2.415  8.295E-02
       5.24        10.     157.68     2.7808  9.268E-02
       5.24        10.     161.64     3.1905    0.11219
       5.24        10.      166.2     3.1563    0.11208
       5.24        10.     170.07     3.4685    0.10732
       5.24        10.     170.77     3.5026    0.11707
       5.24       10.5     21.453     2.4599  8.247E-02
       5.24       10.5     26.905     2.5506  7.835E-02
       5.24       10.5     32.363     2.4146  7.837E-02
       5.24       10.5     38.114      2.662  8.247E-02
       5.24       10.5     43.574     2.4353   8.66E-02
       5.24       10.5     49.331     2.4724  8.249E-02
       5.24       10.5     53.578     2.2827   8.66E-02
       5.24       10.5     59.337     2.2498  9.072E-02
       5.24       10.5     63.888     2.0147   8.66E-02
       5.24       10.5     69.652     1.7632  8.247E-02
       5.24       10.5     75.113     1.5158  7.835E-02
       5.24       10.5      80.57     1.4128  6.598E-02
       5.24       10.5      86.03     1.1901  5.361E-02
       5.24       10.5      90.27     1.3097  6.186E-02
       5.24       10.5     95.724     1.3056  6.592E-02
       5.24       10.5     95.727     1.1943  6.186E-02
       5.24       10.5     100.57     1.2396  5.773E-02
       5.24       10.5     106.03     1.2479  5.362E-02
       5.24       10.5     110.27     1.3593  7.835E-02
       5.24       10.5     115.72     1.4789   7.01E-02
       5.24       10.5     120.57     1.5037  7.838E-02
       5.24       10.5      124.2     1.7635  8.247E-02
       5.24       10.5     129.35      1.813  7.015E-02
       5.24       10.5     134.19     1.8996  8.247E-02
       5.24       10.5     139.04     1.9739  6.598E-02
       5.24       10.5     143.29     1.7801  6.592E-02
       5.24       10.5     148.44     1.7842  7.019E-02
       5.24       10.5     152.98     1.7883   7.03E-02
       5.24       10.5     157.53     1.7595   8.66E-02
       5.24       10.5     161.48     1.5575  7.423E-02
       5.24       10.5     161.48     1.5327  8.247E-02
       5.24       10.5     166.33     1.4379  8.245E-02
       5.24       10.5     171.18     1.1163  6.181E-02
       5.24       10.5     171.49      1.075  6.598E-02
       5.24       11.5     20.525     5.0421    0.17598
       5.24       11.5     26.269      4.531    0.15922
       5.24       11.5     31.405     4.2965    0.17583
       5.24       11.5     36.841     4.1373    0.18436
       5.24       11.5      41.98       3.71    0.15912
       5.24       11.5     47.113     3.6514     0.1676
       5.24       11.5     53.149     3.7688    0.19274
       5.24       11.5     57.984     3.4588    0.14246
       5.24       11.5     63.417     3.5175    0.15084
       5.24       11.5     68.548     3.5762    0.14239
       5.24       11.5     74.586     3.5344    0.15927
       5.24       11.5     79.721     3.3501    0.15074
       5.24       11.5     83.951     3.1155     0.1676
       5.24       11.5     89.684     3.3251    0.15081
       5.24       11.5     94.219     2.9145    0.15934
       5.24       11.5     94.521      2.881    0.15078
       5.24       11.5     99.353      2.747    0.15044
       5.24       11.5     104.49     2.7638    0.13408
       5.24       11.5     104.52     2.6214    0.15082
       5.24       11.5     109.02     2.6047     0.1257
       5.24       11.5     114.15     2.4874    0.13408
       5.24       11.5     118.68     2.4372    0.15077
       5.24       11.5     118.68     2.3617     0.1251
       5.24       11.5     123.21     2.3115     0.1257
       5.24       11.5     128.04      2.387     0.1249
       5.24       11.5     133.47     2.2111    0.13412
       5.24       11.5      137.7     2.4374    0.14246
       5.24       11.5     142.52     2.7224    0.15922
       5.24       11.5     147.35     3.1163    0.14248
       5.24       11.5     151.27     3.3342    0.15084
       5.24       11.5      156.7     3.8119    0.15092
       5.24       11.5     160.61     4.2393    0.14237
       5.24       11.5     164.96     4.6752    0.14239
       5.24       11.5     165.13     5.1779    0.17598
       6.01        10.      21.76     2.0985  9.524E-02
       6.01        10.     27.529     2.0819  7.453E-02
       6.01        10.     32.691     2.0778  7.039E-02
       6.01        10.     38.462     1.9909  7.455E-02
       6.01        10.     44.228     2.0696   9.17E-02
       6.01        10.     49.092     1.8626  8.282E-02
       6.01        10.     54.256     1.7508  8.696E-02
       6.01        10.     60.021     1.8875   9.11E-02
       6.01        10.     65.483     1.9662  7.039E-02
       6.01        10.     70.341     1.9538  7.451E-02
       6.01        10.     75.806     1.9538  7.039E-02
       6.01        10.     81.265     2.1443  7.453E-02
       6.01        10.     86.731     2.1154  7.041E-02
       6.01        10.     90.374     2.1444  7.453E-02
       6.01        10.     95.841     2.0575  7.044E-02
       6.01        10.     95.843     1.9912  7.453E-02
       6.01        10.     101.61     2.1362  8.699E-02
       6.01        10.     106.17     1.8091   9.16E-02
       6.01        10.     111.33     1.7884  7.852E-02
       6.01        10.     115.59     1.6932  7.039E-02
       6.01        10.     120.45     1.5276  7.868E-02
       6.01        10.       125.     1.4738  7.038E-02
       6.01        10.     130.17     1.4407  7.034E-02
       6.01        10.     134.12     1.2005  6.629E-02
       6.01        10.     138.98     1.2709  6.625E-02
       6.01        10.     143.84     1.0846  4.969E-02
       6.01        10.     148.09    0.93973  6.214E-02
       6.01        10.     152.65    0.89421  6.211E-02
       6.01        10.      157.2    0.85697  5.797E-02
       6.01        10.     161.46    0.74105  5.383E-02
       6.01        10.     166.01    0.71623  4.969E-02
       6.01        10.     170.49    0.60445  4.555E-02
       6.01        10.     170.57    0.58375  4.971E-02
       6.01       10.5     22.262     1.6788  7.357E-02
       6.01       10.5     27.992     1.7403  6.948E-02
       6.01       10.5     33.402     2.0019  7.766E-02
       6.01       10.5     38.829     2.0715  8.174E-02
       6.01       10.5      43.96     2.0838  6.948E-02
       6.01       10.5     49.112     1.8714  7.768E-02
       6.01       10.5     54.848     1.8674  6.942E-02
       6.01       10.5     59.697     1.6631  7.358E-02
       6.01       10.5     65.447     1.5079   6.54E-02
       6.01       10.5     70.882     1.5039  6.948E-02
       6.01       10.5     75.726     1.3487  7.352E-02
       6.01       10.5     80.848     1.4591  7.357E-02
       6.01       10.5      85.68      1.447  6.948E-02
       6.01       10.5     90.503     1.5165  7.359E-02
       6.01       10.5     96.256     1.3368  7.766E-02
       6.01       10.5     96.262     1.2714  6.946E-02
       6.01       10.5     101.39     1.2633   6.54E-02
       6.01       10.5     106.24     1.1367  7.357E-02
       6.01       10.5     110.46     1.1735  6.944E-02
       6.01       10.5     115.58     1.2758  7.357E-02
       6.01       10.5     121.02     1.1819  7.766E-02
       6.01       10.5     125.54     1.2842  6.941E-02
       6.01       10.5     129.17     1.2842  6.948E-02
       6.01       10.5     134.59     1.4151  5.722E-02
       6.01       10.5     139.42     1.3457  6.952E-02
       6.01       10.5     143.33     1.5542  7.347E-02
       6.01       10.5     148.48     1.3785  7.357E-02
       6.01       10.5       153.     1.4563  6.948E-02
       6.01       10.5     158.14      1.346  6.953E-02
       6.01       10.5     162.06      1.436  6.948E-02
       6.01       10.5     162.67     1.3747  7.776E-02
       6.01       10.5      166.6     1.2808   6.54E-02
       6.01       10.5     171.43     1.3095  7.712E-02
       6.01       10.5     171.43     1.2727  7.357E-02
       6.43        10.     34.838     0.3007  2.833E-02
       6.43        10.     40.868    0.37151  3.083E-02
       6.43        10.     45.972    0.39149  3.417E-02
       6.43        10.     51.397    0.45313  3.583E-02
       6.43        10.     57.145    0.55728  4.085E-02
       6.43        10.      62.52    0.52309  3.917E-02
       6.43        10.     68.209    0.51473   3.75E-02
       6.43        10.     73.276    0.46554  3.667E-02
       6.43        10.     77.765    0.45386    3.5E-02
       6.43        10.     83.158    0.45384  3.583E-02
       6.43        10.     88.515    0.38465   3.25E-02
       6.43        10.      93.62    0.40546  3.255E-02
       6.43        10.     98.412    0.40211    3.8E-02
       6.43        10.     98.421    0.38128  2.917E-02
       6.43        10.     103.51    0.42042  3.583E-02
       6.43        10.     108.29    0.38624  3.257E-02
       6.43        10.     113.05    0.32705   3.25E-02
       6.43        10.     117.53    0.28453  3.339E-02
       6.43        10.     122.01    0.25451  2.593E-02
       6.43        10.     127.12    0.28866  1.833E-02
       6.43        10.     132.23    0.31864  2.917E-02
       6.43        10.     135.18    0.23529  2.667E-02
       6.43        10.     144.78    0.26859  2.917E-02
       6.43        10.     145.02    0.32527   2.75E-02
       6.43        10.     154.09    0.30105  2.757E-02
       6.43        10.     155.02    0.34607  3.167E-02
       6.43        10.     158.35    0.42187  3.333E-02
       6.43        10.     163.15    0.43351   3.75E-02
       6.43        10.     167.65      0.456  3.412E-02
       6.43        10.     172.18    0.51431  3.667E-02
       6.43        10.      172.2    0.55931  4.167E-02
       6.43       10.5      33.88    0.16193  2.255E-02
       6.43       10.5     39.354    0.14442  1.754E-02
       6.43       10.5      44.49    0.19287  2.171E-02
       6.43       10.5     49.968    0.16784  2.255E-02
       6.43       10.5     55.404    0.22214  2.589E-02
       6.43       10.5      60.95    0.20549  2.258E-02
       6.43       10.5     61.756     0.2681  2.587E-02
       6.43       10.5     72.076    0.27148  2.756E-02
       6.43       10.5     77.251    0.24561  2.672E-02
       6.43       10.5     82.385    0.29741  2.751E-02
       6.43       10.5     87.801    0.39096  3.257E-02
       6.43       10.5     92.935    0.44275  3.507E-02
       6.43       10.5     97.764    0.49705  4.092E-02
       6.43       10.5     98.087    0.46114  3.503E-02
       6.43       10.5     103.28    0.40104  3.257E-02
       6.43       10.5     108.41    0.46536  3.507E-02
       6.43       10.5     112.68    0.43114  3.173E-02
       6.43       10.5     117.85    0.40778   3.34E-02
       6.43       10.5     122.14     0.3318  3.006E-02
       6.43       10.5     127.29    0.34351  3.026E-02
       6.43       10.5     131.56    0.31096  2.923E-02
       6.43       10.5     135.55    0.22831  2.672E-02
       6.43       10.5     140.43     0.1824  2.505E-02
       6.43       10.5     145.29    0.18576  2.589E-02
       6.43       10.5     149.56    0.14402  1.921E-02
       6.43       10.5     155.02    0.16575  2.509E-02
       6.43       10.5     158.08      0.119  1.837E-02
       6.43       10.5     162.94    0.10983   1.67E-02
       6.43       10.5     162.95 8.6453E-02  1.587E-02
       6.43       10.5     167.51  7.979E-02   1.42E-02
       6.43       10.5     172.37 7.0624E-02  1.253E-02
       6.43       10.5     172.38 6.4778E-02  1.086E-02
ENDDATA            573
ENDSUBENT          585
ENDENTRY             3
