ENTRY            F1094   20111222   20120328   20120328       F044
SUBENT        F1094001   20111222   20120328   20120328       F044
BIB                  9         25
TITLE      Determination of inverse electric field strength of
           Ta218O5 film produced in biological electrolytes using
           O-18(p,a)N-15 nuclear reaction analysis.
AUTHOR     (S.N.Wosu)
INSTITUTE  (1USAPUP)
REFERENCE  (J,NIM/B,237,631,2005)
           #doi:10.1016/j.nimb.2005.02.030
FACILITY   (VDG,1USAPUP) The 2.0 MeV Van de Graaff generator.
DETECTOR   (SIBAR) The emitted alpha particles were detected by a
           50 mm2 surface barrier detector placed at a distance of
           40 mm from the target and at a detection angle between
           150 and 165 adeg. with respect to the beam direction.
SAMPLE     The Ta218O2 nuclear reaction analysis targets were
           prepared at a constant voltage of 100 V and current
           density of 10 mA/cm2 in pure water, ammonium citrate
           solutions (pH of 6.0-6.4), and enriched and natural
           biological solutions (pH of 6.4-8.0). The target
           chamber was evacuated to a pressure on the order of
           10**(-5) Torr. The tantalum film (enriched in O-18
           to 23.3%) of 0.12 mu-m thickness with 13 mu-m Kapton
           absorber placed in front of the detector at 150 degree
           detection angle was used.
ERR-ANALYS (EN-ERR-DIG) Energy digitizing error
           (ERR-DIG)    Data digitizing error
HISTORY    (20111222C)
ENDBIB              25
COMMON               3          3
ANG        EN-ERR-DIG ERR-DIG
ADEG       MEV        ARB-UNITS
  150.       0.002      11.186
ENDCOMMON            3
ENDSUBENT           32
SUBENT        F1094002   20111222   20120328   20120328       F044
BIB                  3          3
REACTION   (8-O-18(P,A)7-N-15,,DA,,REL)
COMMENT    No explanation of relative units is given.
STATUS     (CURVE) Fig.12
ENDBIB               3
NOCOMMON             0          0
DATA                 2         20
EN         DATA
KEV        ARB-UNITS
     637.95  3.518E+03
     645.18 5.2715E+03
     648.96 6.1271E+03
     650.21  6.618E+03
     651.15 6.9126E+03
     652.73 7.0389E+03
     654.68 6.2539E+03
     664.34  3.857E+03
     675.77 4.2647E+03
     682.45 4.3214E+03
      686.9 4.5462E+03
     689.12 4.6586E+03
      690.7  4.841E+03
     760.01 5.9552E+03
     764.77 6.1379E+03
     776.21 6.4615E+03
     797.77 8.1882E+03
     801.23 8.8756E+03
     811.33 1.0587E+04
     814.46 1.1625E+04
ENDDATA             22
ENDSUBENT           30
ENDENTRY             2
