ENTRY            11251   19800820              20050926       0000
SUBENT        11251001   19800820              20050926       0000
BIB                  6          9
INSTITUTE  (1USAANL)
REFERENCE  (P,ANL-5554,22,5608)
           (J,BAP,1,187(K1),56)
AUTHOR     (R.O.LANE,J.E.MONAHAN)
TITLE      DIFFERENTIAL CROSS SECTIONS FOR NEUTRON RESONANCE
            SCATTERING.
STATUS     (SCSRS)
HISTORY    (760929T) TRANSLATED FROM SCISRS
           (800820A) CONVERTED TO REACTION FORMALISM
ENDBIB               9
NOCOMMON             0          0
ENDSUBENT           12
SUBENT        11251002   19800820              20050926       0000
BIB                  2          2
REACTION   (4-BE-9(N,EL)4-BE-9,,DA)
DETECTOR   (LONGC)    LONG COUNTER
ENDBIB               2
COMMON               1          3
EN-ERR
MEV
 8.     -03
ENDCOMMON            3
DATA                 3        190
EN         COS-CM     DATA
MEV        NO-DIM     MB/SR
 5.46   -01 0.91000    2.951  +02
 5.46   -01 0.51500    3.061  +02
 5.46   -01-0.1942     2.915  +02
 5.46   -01-0.4802     2.715  +02
 5.46   -01-0.8599     2.366  +02
 6.00   -01 0.91000    3.569  +02
 6.00   -01 0.91000    3.277  +02
 6.00   -01 0.51500    3.568  +02
 6.00   -01 0.51500    3.444  +02
 6.00   -01-0.1942     3.403  +02
 6.00   -01-0.1942     3.390  +02
 6.00   -01-0.4802     3.271  +02
 6.00   -01-0.4802     3.227  +02
 6.00   -01-0.8599     3.056  +02
 6.00   -01-0.8599     2.928  +02
 6.07   -01 0.91000    4.347  +02
 6.07   -01 0.51500    4.144  +02
 6.07   -01-0.1942     3.897  +02
 6.07   -01-0.4802     3.845  +02
 6.07   -01-0.8599     3.802  +02
 6.10   -01 0.91000    5.279  +02
 6.10   -01 0.51500    4.631  +02
 6.10   -01-0.1942     4.232  +02
 6.10   -01-0.4802     4.378  +02
 6.10   -01-0.8599     4.750  +02
 6.11   -01 0.91000    6.008  +02
 6.11   -01 0.51500    4.803  +02
 6.11   -01-0.1942     4.130  +02
 6.11   -01-0.4802     4.377  +02
 6.11   -01-0.8599     5.008  +02
 6.15   -01 0.91000    6.928  +02
 6.15   -01 0.51500    5.285  +02
 6.15   -01-0.1942     4.441  +02
 6.15   -01-0.4802     4.944  +02
 6.15   -01-0.8599     6.106  +02
 6.21   -01 0.91000    8.368  +02
 6.21   -01 0.51500    5.711  +02
 6.21   -01-0.1942     4.458  +02
 6.21   -01-0.4802     5.362  +02
 6.21   -01-0.8599     7.387  +02
 6.215  -01 0.91000    9.013  +02
 6.215  -01 0.51500    6.020  +02
 6.215  -01-0.1942     4.680  +02
 6.215  -01-0.4802     5.757  +02
 6.215  -01-0.8599     7.926  +02
 6.22   -01 0.91000    8.676  +02
 6.22   -01 0.51500    5.864  +02
 6.22   -01-0.1942     4.449  +02
 6.22   -01-0.4802     5.335  +02
 6.22   -01-0.8599     7.363  +02
 6.25   -01 0.91000    9.041  +02
 6.25   -01 0.51500    5.929  +02
 6.25   -01-0.1942     4.469  +02
 6.25   -01-0.4802     5.536  +02
 6.25   -01-0.8599     7.919  +02
 6.27   -01 0.91000    8.028  +02
 6.27   -01 0.51500    5.152  +02
 6.27   -01-0.1942     3.881  +02
 6.27   -01-0.4802     4.929  +02
 6.27   -01-0.8599     7.233  +02
 6.31   -01 0.91000    7.328  +02
 6.31   -01 0.51500    4.574  +02
 6.31   -01-0.1942     3.287  +02
 6.31   -01-0.4802     4.234  +02
 6.31   -01-0.8599     6.348  +02
 6.38   -01 0.91000    6.701  +02
 6.38   -01 0.51500    4.369  +02
 6.38   -01-0.1942     3.180  +02
 6.38   -01-0.4802     3.903  +02
 6.38   -01-0.8599     5.565  +02
 6.40   -01 0.91000    6.177  +02
 6.40   -01 0.51500    4.012  +02
 6.40   -01-0.1942     2.996  +02
 6.40   -01-0.4802     3.736  +02
 6.40   -01-0.8599     5.392  +02
 6.41   -01 0.91000    5.670  +02
 6.41   -01 0.51500    3.673  +02
 6.41   -01-0.1942     2.675  +02
 6.41   -01-0.4802     3.310  +02
 6.41   -01-0.8599     4.758  +02
 6.51   -01 0.91000    5.210  +02
 6.51   -01 0.51500    3.656  +02
 6.51   -01-0.1942     2.760  +02
 6.51   -01-0.4802     3.157  +02
 6.51   -01-0.8599     4.129  +02
 6.55   -01 0.91000    4.468  +02
 6.55   -01 0.51500    3.316  +02
 6.55   -01-0.1942     2.659  +02
 6.55   -01-0.4802     2.960  +02
 6.55   -01-0.8599     3.689  +02
 6.61   -01 0.91000    4.771  +02
 6.61   -01 0.51500    3.422  +02
 6.61   -01-0.1942     3.646  +02
 6.61   -01-0.4802     2.994  +02
 6.61   -01-0.8599     3.232  +02
 6.695  -01 0.91000    4.197  +02
 6.695  -01 0.51500    3.165  +02
 6.695  -01-0.1942     2.523  +02
 6.695  -01-0.4802     2.749  +02
 6.695  -01-0.8599     3.334  +02
 6.71   -01 0.91000    4.222  +02
 6.71   -01 0.51500    3.180  +02
 6.71   -01-0.1942     2.567  +02
 6.71   -01-0.4802     2.824  +02
 6.71   -01-0.8599     3.460  +02
 7.49   -01 0.91000    3.302  +02
 7.49   -01 0.51500    3.016  +02
 7.49   -01-0.1942     2.714  +02
 7.49   -01-0.4802     2.677  +02
 7.49   -01-0.8599     2.677  +02
 8.015  -01 0.91000    3.269  +02
 8.015  -01 0.51500    2.934  +02
 8.015  -01-0.1942     2.579  +02
 8.015  -01-0.4802     2.534  +02
 8.015  -01-0.8599     2.533  +02
 8.06   -01 0.91000    3.565  +02
 8.06   -01 0.51500    3.210  +02
 8.06   -01-0.1942     2.819  +02
 8.06   -01-0.4802     3.760  +02
 8.06   -01-0.8599     2.740  +02
 8.11   -01 0.91000    6.164  +02
 8.11   -01 0.51500    4.850  +02
 8.11   -01-0.1942     3.489  +02
 8.11   -01-0.4802     3.341  +02
 8.11   -01-0.8599     3.379  +02
 8.175  -01 0.91000    5.703  +02
 8.175  -01 0.51500    4.311  +02
 8.175  -01-0.1942     2.694  +02
 8.175  -01-0.4802     2.395  +02
 8.175  -01-0.8599     2.205  +02
 8.20   -01 0.91000    4.985  +02
 8.20   -01 0.51500    3.846  +02
 8.20   -01-0.1942     2.425  +02
 8.20   -01-0.4802     2.101  +02
 8.20   -01-0.8599     1.817  +02
 8.235  -01 0.91000    4.690  +02
 8.235  -01 0.51500    3.695  +02
 8.235  -01-0.1942     2.496  +02
 8.235  -01-0.4802     2.249  +02
 8.235  -01-0.8599     2.057  +02
 8.275  -01 0.91000    4.008  +02
 8.275  -01 0.51500    3.092  +02
 8.275  -01-0.1942     2.035  +02
 8.275  -01-0.4802     1.845  +02
 8.275  -01-0.8599     1.729  +02
 8.305  -01 0.91000    3.849  +02
 8.305  -01 0.51500    3.245  +02
 8.305  -01-0.1942     2.397  +02
 8.305  -01-0.4802     2.150  +02
 8.305  -01-0.8599     1.875  +02
 8.335  -01 0.91000    3.842  +02
 8.335  -01 0.51500    3.227  +02
 8.335  -01-0.1942     2.264  +02
 8.335  -01-0.4802     1.932  +02
 8.335  -01-0.8599     1.525  +02
 8.365  -01 0.91000    3.936  +02
 8.365  -01 0.51500    3.169  +02
 8.365  -01-0.1942     2.310  +02
 8.365  -01-0.4802     2.171  +02
 8.365  -01-0.8599     2.107  +02
 8.39   -01 0.91000    3.684  +02
 8.39   -01 0.51500    3.054  +02
 8.39   -01-0.1942     2.310  +02
 8.39   -01-0.4802     2.166  +02
 8.39   -01-0.8599     2.065  +02
 8.455  -01 0.91000    3.705  +02
 8.455  -01 0.51500    3.099  +02
 8.455  -01-0.1942     2.305  +02
 8.455  -01-0.4802     2.102  +02
 8.455  -01-0.8599     1.902  +02
 8.56   -01 0.91000    3.629  +02
 8.56   -01 0.51500    3.082  +02
 8.56   -01-0.1942     2.394  +02
 8.56   -01-0.4802     2.234  +02
 8.56   -01-0.8599     2.091  +02
 8.655  -01 0.91000    3.499  +02
 8.655  -01 0.51500    2.986  +02
 8.655  -01-0.1942     2.311  +02
 8.655  -01-0.4802     2.138  +02
 8.655  -01-0.8599     1.966  +02
 8.755  -01 0.91000    3.778  +02
 8.755  -01 0.51500    3.218  +02
 8.755  -01-0.1942     2.532  +02
 8.755  -01-0.4802     2.369  +02
 8.755  -01-0.8599     2.222  +02
 8.95   -01 0.91000    3.543  +02
 8.95   -01 0.51500    2.881  +02
 8.95   -01-0.1942     2.163  +02
 8.95   -01-0.4802     2.062  +02
 8.95   -01-0.8599     2.038  +02
ENDDATA            192
ENDSUBENT          203
SUBENT        11251003   19800820              20050926       0000
BIB                  2          2
REACTION   (4-BE-9(N,EL)4-BE-9,,DA,,LEG)
DETECTOR   (MTANK)    MODERATING TANK DETECTOR
ENDBIB               2
NOCOMMON             0          0
DATA                 3         76
EN         NUMBER     DATA
MEV        NO-DIM     MB/SR
 5.460  -01 1.         3.5    +01
 5.460  -01 2.        -3.0    +01
 6.000  -01 1.         2.2    +01
 6.000  -01 1.         3.0    +01
 6.000  -01 2.        -3.0    +01
 6.000  -01 2.        -1.4    +01
 6.070  -01 1.         3.0    +01
 6.070  -01 2.         1.0    +01
 6.100  -01 1.         2.5    +01
 6.100  -01 2.         6.5    +01
 6.110  -01 1.         4.2    +01
 6.110  -01 2.         1.10   +02
 6.150  -01 1.         3.3    +01
 6.150  -01 2.         1.79   +02
 6.210  -01 1.         3.3    +01
 6.210  -01 2.         2.99   +02
 6.215  -01 1.         2.4    +01
 6.215  -01 2.         3.43   +02
 6.220  -01 1.         5.1    +01
 6.220  -01 2.         3.09   +02
 6.250  -01 1.         3.7    +01
 6.250  -01 2.         3.51   +02
 6.270  -01 1.         2.0    +01
 6.270  -01 2.         3.31   +02
 6.310  -01 1.         3.2    +01
 6.310  -01 2.         3.11   +02
 6.380  -01 1.         4.5    +01
 6.380  -01 2.         2.55   +02
 6.400  -01 1.         2.6    +01
 6.400  -01 2.         2.44   +02
 6.410  -01 1.         3.5    +01
 6.410  -01 2.         2.20   +02
 6.510  -01 1.         4.9    +01
 6.510  -01 2.         1.61   +02
 6.550  -01 1.         3.5    +01
 6.550  -01 2.         1.20   +02
 6.610  -01 1.         4.2    +01
 6.610  -01 2.         1.40   +02
 6.695  -01 1.         4.1    +01
 6.695  -01 2.         1.03   +02
 6.710  -01 1.         3.5    +01
 6.710  -01 2.         1.07   +02
 7.490  -01 1.         3.4    +01
 7.490  -01 2.         1.8    +01
 8.015  -01 1.         4.0    +01
 8.015  -01 2.         2.1    +01
 8.060  -01 1.         4.5    +01
 8.060  -01 2.         2.1    +01
 8.110  -01 1.         1.51   +02
 8.110  -01 2.         8.5    +01
 8.175  -01 1.         1.92   +02
 8.175  -01 2.         7.5    +01
 8.200  -01 1.         1.75   +02
 8.200  -01 2.         5.3    +01
 8.235  -01 1.         1.45   +02
 8.235  -01 2.         5.0    +01
 8.275  -01 1.         1.25   +02
 8.275  -01 2.         5.0    +01
 8.305  -01 1.         1.10   +02
 8.305  -01 2.         2.0    +01
 8.335  -01 1.         1.30   +02
 8.335  -01 2.         1.2    +01
 8.365  -01 1.         1.00   +02
 8.365  -01 2.         4.4    +01
 8.390  -01 1.         8.9    +01
 8.390  -01 2.         3.3    +01
 8.455  -01 1.         1.00   +02
 8.455  -01 2.         2.5    +01
 8.560  -01 1.         8.5    +01
 8.560  -01 2.         2.5    +01
 8.655  -01 1.         8.5    +01
 8.655  -01 2.         2.1    +01
 8.755  -01 1.         8.6    +01
 8.755  -01 2.         2.5    +01
 8.950  -01 1.         8.2    +01
 8.950  -01 2.         4.0    +01
ENDDATA             78
ENDSUBENT           85
SUBENT        11251004   19800820              20050926       0000
BIB                  2          2
REACTION   (4-BE-9(N,EL)4-BE-9,,SIG)
STATUS     (DEP)       INTEGRATED ANGULAR DISTRIBUTION.
ENDBIB               2
NOCOMMON             0          0
DATA                 2         38
EN         DATA
MEV        B
 5.460  -01 3.58   +00
 6.000  -01 4.27   +00
 6.000  -01 4.14   +00
 6.070  -01 5.02   +00
 6.100  -01 5.74   +00
 6.110  -01 5.91   +00
 6.150  -01 6.66   +00
 6.210  -01 7.35   +00
 6.215  -01 7.85   +00
 6.220  -01 7.44   +00
 6.250  -01 7.67   +00
 6.270  -01 6.77   +00
 6.310  -01 5.94   +00
 6.380  -01 5.53   +00
 6.400  -01 5.19   +00
 6.410  -01 4.67   +00
 6.510  -01 4.49   +00
 6.550  -01 4.10   +00
 6.610  -01 4.21   +00
 6.695  -01 3.85   +00
 6.710  -01 3.91   +00
 7.490  -01 3.59   +00
 8.015  -01 3.46   +00
 8.060  -01 3.77   +00
 8.110  -01 5.23   +00
 8.175  -01 4.27   +00
 8.200  -01 3.77   +00
 8.235  -01 3.77   +00
 8.275  -01 3.14   +00
 8.305  -01 3.39   +00
 8.335  -01 3.23   +00
 8.365  -01 3.39   +00
 8.390  -01 3.30   +00
 8.455  -01 3.28   +00
 8.560  -01 3.36   +00
 8.655  -01 3.23   +00
 8.755  -01 3.53   +00
 8.950  -01 3.14   +00
ENDDATA             40
ENDSUBENT           47
ENDENTRY             4
