ENTRY            11282     810428              20050926       0000
SUBENT        11282001     810428              20050926       0000
BIB                  6          8
INSTITUTE  (1USARIC)
REFERENCE  (J,NP,14,295,5912)
AUTHOR     (H.E.HALL,T.W.BONNER)
TITLE      GAMMA RADIATIONS FROM INELASTIC SCATTERING OF FAST
           NEUTRONS IN C12, N14 AND O16.
STATUS     (SCSRS)
HISTORY    (760714T) TRANSLATED FROM SCISRS
           (810428A) CONVERTED TO REACTION FORMALISM
ENDBIB               8
NOCOMMON             0          0
ENDSUBENT           11
SUBENT        11282002     810428              20050926       0000
BIB                  1          1
REACTION   (6-C-12(N,TOT),,SIG)
ENDBIB               1
COMMON               1          3
EN-RSL
MEV
 0.055
ENDCOMMON            3
DATA                 2         13
EN         DATA
MEV        B
 7.000  +00 7.0    -01
 7.090  +00 7.0    -01
 7.180  +00 7.3    -01
 7.290  +00 1.00   +00
 7.380  +00 1.71   +00
 7.480  +00 1.74   +00
 7.580  +00 1.69   +00
 7.670  +00 1.72   +00
 7.770  +00 2.27   +00
 7.830  +00 2.30   +00
 7.870  +00 2.01   +00
 7.960  +00 1.90   +00
 8.060  +00 1.88   +00
ENDDATA             15
ENDSUBENT           25
SUBENT        11282003     840606              20050926       0000
BIB                  7          9
REACTION   (6-C-12(N,INL)6-C-12,PAR,DA,G)
INC-SPECT  ENERGY RESOLUTION = 66 KEV AT 4.8 MEV, 31 KEV FROM
            6.1-6.7 MEV, 55 KEV ABOVE 6.7 MEV.
INC-SOURCE (D-D)
DETECTOR   (NAICR)
METHOD                RING GEOMETRY
MONITOR    (6-C-12(N,INL)6-C-12,PAR,DA,G)
           NORMALIZED AT 6.94 MEV WITH CALIBRATED RA-BE SOURCE.
HISTORY    (840607A) BIB CORRECTIONS.
ENDBIB               9
COMMON               7          6
ANG        E          EN-ERR     DATA-ERR   EN-NRM     MONIT
MONIT-ERR
ADEG       MEV        KEV        PER-CENT   MEV        MB/SR
MB/SR
 90.        4.43       25.        20.        6.94       15.8
 2.6
ENDCOMMON            6
DATA                 2         68
EN         DATA
MEV        MB/SR
 4.90   +00 8.     -01
 4.95   +00 3.0    +00
 5.10   +00 2.8    +00
 5.25   +00 3.8    +00
 5.35   +00 6.0    +00
 5.42   +00 8.0    +00
 5.52   +00 8.0    +00
 5.59   +00 9.0    +00
 5.70   +00 1.08   +01
 5.77   +00 1.23   +01
 5.89   +00 1.53   +01
 5.95   +00 1.68   +01
 6.00   +00 1.78   +01
 6.13   +00 1.90   +01
 6.20   +00 2.03   +01
 6.23   +00 2.23   +01
 6.26   +00 2.52   +01
 6.28   +00 2.78   +01
 6.30   +00 2.98   +01
 6.32   +00 3.25   +01
 6.35   +00 3.56   +01
 6.40   +00 2.68   +01
 6.41   +00 2.50   +01
 6.44   +00 2.35   +01
 6.52   +00 2.43   +01
 6.55   +00 2.75   +01
 6.60   +00 2.60   +01
 6.61   +00 2.40   +01
 6.62   +00 2.20   +01
 6.68   +00 2.00   +01
 6.73   +00 1.80   +01
 6.78   +00 1.58   +01
 6.88   +00 1.51   +01
 6.98   +00 1.51   +01
 7.14   +00 1.48   +01
 7.23   +00 1.63   +01
 7.28   +00 1.83   +01
 7.33   +00 2.13   +01
 7.37   +00 2.50   +01
 7.42   +00 2.75   +01
 7.52   +00 2.85   +01
 7.58   +00 2.74   +01
 7.62   +00 2.65   +01
 7.67   +00 2.93   +01
 7.72   +00 3.15   +01
 7.77   +00 3.63   +01
 7.79   +00 3.95   +01
 7.80   +00 4.10   +01
 7.86   +00 3.90   +01
 7.95   +00 3.78   +01
 7.98   +00 3.60   +01
 8.02   +00 3.70   +01
 8.06   +00 3.95   +01
 8.10   +00 4.33   +01
 8.14   +00 4.45   +01
 8.20   +00 4.25   +01
 8.26   +00 3.38   +01
 8.30   +00 2.98   +01
 8.33   +00 2.63   +01
 8.36   +00 2.42   +01
 8.52   +00 2.34   +01
 8.64   +00 2.23   +01
 8.67   +00 2.35   +01
 8.75   +00 2.23   +01
 8.90   +00 2.35   +01
 9.02   +00 2.52   +01
 9.10   +00 2.68   +01
 9.20   +00 2.71   +01
ENDDATA             70
ENDSUBENT           91
SUBENT        11282004     840606              20050926       0000
BIB                  7         11
REACTION   (7-N-14(N,X)0-G-0,PAR,DA,,4PI)
INC-SOURCE (D-D)
SAMPLE     BE(3)N(2)
DETECTOR   (CSICR)
MONITOR    (6-C-12(N,INL)6-C-12,PAR,SIG,G)
FLAG       (1.) ATTRIBUTED TO INELASTIC SCATTERING
           (2.) ATTRIBUTED TO (N,ALPHA)
           (3.) ATTRIBUTED TO INELASTIC SCATTERING (5.10-MEV
                GAMMA) AND (N,ALPHA) (5.03-MEV GAMMA).
HISTORY    (800822A) SUBENTRIES 4-8 COMBINED
           (840607A) BIB CORRECTION.
ENDBIB              11
COMMON               3          3
ANG        EN-RSL     E-NRM
ADEG       PER-CENT   MEV
 90.        1.0        4.433
ENDCOMMON            3
DATA                 6        258
E          E          EN         DATA       DATA-ERR   FLAG
MEV        MEV        MEV        B          PER-CENT   NO-DIM
 1.64                  5.80   +00 2.200  -02   30.      1.
 1.64                  5.83   +00 2.490  -02   30.      1.
 1.64                  5.88   +00 2.300  -02   30.      1.
 1.64                  5.95   +00 2.610  -02   30.      1.
 1.64                  5.96   +00 2.490  -02   30.      1.
 1.64                  6.00   +00 2.630  -02   30.      1.
 1.64                  6.04   +00 3.320  -02   30.      1.
 1.64                  6.08   +00 3.500  -02   31.      1.
 1.64                  6.13   +00 3.540  -02   31.      1.
 1.64                  6.17   +00 3.230  -02   30.      1.
 1.64                  6.21   +00 3.570  -02   31.      1.
 1.64                  6.25   +00 3.350  -02   30.      1.
 1.64                  6.29   +00 3.080  -02   30.      1.
 1.64                  6.33   +00 3.230  -02   30.      1.
 1.64                  6.37   +00 3.930  -02   31.      1.
 1.64                  6.42   +00 5.540  -02   31.      1.
 1.64                  6.46   +00 4.630  -02   30.      1.
 1.64                  6.50   +00 5.220  -02   31.      1.
 1.64                  6.54   +00 4.820  -02   29.      1.
 1.64                  6.59   +00 5.290  -02   30.      1.
 1.64                  6.63   +00 3.710  -02   30.      1.
 1.64                  6.68   +00 4.920  -02   30.      1.
 1.64                  6.72   +00 5.120  -02   29.      1.
 1.64                  6.77   +00 4.890  -02   31.      1.
 1.64                  6.81   +00 5.160  -02   29.      1.
 1.64                  6.86   +00 5.600  -02   30.      1.
 1.64                  6.90   +00 5.440  -02   29.      1.
 1.64                  6.95   +00 5.250  -02   30.      1.
 1.64                  6.99   +00 5.680  -02   30.      1.
 1.64                  7.04   +00 5.310  -02   30.      1.
 1.64                  7.08   +00 5.100  -02   29.      1.
 1.64                  7.13   +00 5.070  -02   30.      1.
 1.64                  7.27   +00 5.220  -02   31.      1.
 1.64                  7.31   +00 5.610  -02   30.      1.
 1.64                  7.36   +00 5.250  -02   30.      1.
 1.64                  7.41   +00 4.580  -02   31.      1.
 1.64                  7.46   +00 5.000  -02   30.      1.
 1.64                  7.51   +00 3.430  -02   29.      1.
 1.64                  7.56   +00 3.140  -02   30.      1.
 1.64                  7.61   +00 4.330  -02   30.      1.
 1.64                  7.65   +00 3.200  -02   30.      1.
 1.64                  7.70   +00 3.590  -02   31.      1.
 1.64                  7.75   +00 4.060  -02   30.      1.
 1.64                  7.80   +00 3.400  -02   29.      1.
 1.64                  7.85   +00 3.570  -02   31.      1.
 1.64                  7.90   +00 3.440  -02   29.      1.
 1.64                  8.00   +00 3.640  -02   30.      1.
 1.64                  8.10   +00 4.220  -02   31.      1.
 2.14                  5.80   +00 2.740  -02   30.      2.
 2.14                  5.83   +00 4.200  -02   31.      2.
 2.14                  5.88   +00 4.040  -02   30.      2.
 2.14                  5.95   +00 3.870  -02   31.      2.
 2.14                  5.96   +00 4.120  -02   29.      2.
 2.14                  6.00   +00 3.450  -02   29.      2.
 2.14                  6.04   +00 3.230  -02   30.      2.
 2.14                  6.08   +00 3.240  -02   30.      2.
 2.14                  6.13   +00 3.760  -02   29.      2.
 2.14                  6.17   +00 4.720  -02   30.      2.
 2.14                  6.21   +00 6.090  -02   30.      2.
 2.14                  6.25   +00 6.790  -02   29.      2.
 2.14                  6.29   +00 3.580  -02   31.      2.
 2.14                  6.33   +00 1.760  -02   30.      2.
 2.14                  6.37   +00 1.680  -02   30.      2.
 2.14                  6.42   +00 1.170  -02   30.      2.
 2.14                  6.46   +00 2.150  -02   30.      2.
 2.14                  6.50   +00 2.010  -02   30.      2.
 2.14                  6.54   +00 1.440  -02   30.      2.
 2.14                  6.59   +00 1.820  -02   30.      2.
 2.14                  6.63   +00 2.640  -02   30.      2.
 2.14                  6.67   +00 1.900  -02   30.      2.
 2.14                  6.72   +00 9.600  -03   30.      2.
 2.14                  6.77   +00 1.720  -02   30.      2.
 2.14                  6.81   +00 1.340  -02   30.      2.
 2.14                  6.86   +00 1.190  -02   30.      2.
 2.14                  6.90   +00 1.210  -02   30.      2.
 2.14                  6.95   +00 1.770  -02   30.      2.
 2.14                  6.99   +00 2.640  -02   30.      2.
 2.14                  7.04   +00 3.200  -02   30.      2.
 2.14                  7.08   +00 3.940  -02   30.      2.
 2.14                  7.13   +00 4.040  -02   30.      2.
 2.14                  7.17   +00 3.370  -02   30.      2.
 2.14                  7.22   +00 3.400  -02   29.      2.
 2.14                  7.27   +00 3.600  -02   31.      2.
 2.14                  7.31   +00 3.480  -02   29.      2.
 2.14                  7.36   +00 2.740  -02   30.      2.
 2.14                  7.41   +00 2.080  -02   30.      2.
 2.14                  7.46   +00 3.220  -02   30.      2.
 2.14                  7.51   +00 3.140  -02   30.      2.
 2.14                  7.56   +00 2.250  -02   30.      2.
 2.14                  7.61   +00 2.680  -02   30.      2.
 2.14                  7.65   +00 2.030  -02   30.      2.
 2.14                  7.70   +00 1.730  -02   30.      2.
 2.14                  7.75   +00 1.270  -02   30.      2.
 2.14                  7.80   +00 2.200  -02   30.      2.
 2.14                  7.85   +00 1.970  -02   30.      2.
 2.14                  7.90   +00 3.540  -02   31.      2.
 2.14                  7.95   +00 3.650  -02   30.      2.
 2.14                  8.00   +00 1.850  -02   30.      2.
 2.14                  8.05   +00 1.910  -02   30.      2.
 2.14                  8.10   +00 7.300  -03   30.      2.
 2.31                  4.72   +00 7.500  -03   31.      1.
 2.31                  4.94   +00 7.800  -03   29.      1.
 2.31                  5.18   +00 2.010  -02   30.      1.
 2.31                  5.25   +00 2.760  -02   30.      1.
 2.31                  5.32   +00 2.890  -02   30.      1.
 2.31                  5.40   +00 3.140  -02   30.      1.
 2.31                  5.48   +00 3.390  -02   30.      1.
 2.31                  5.55   +00 3.390  -02   30.      1.
 2.31                  5.63   +00 3.520  -02   31.      1.
 2.31                  5.72   +00 3.520  -02   31.      1.
 2.31                  5.80   +00 3.500  -02   31.      1.
 2.31                  5.83   +00 3.470  -02   29.      1.
 2.31                  5.88   +00 3.690  -02   30.      1.
 2.31                  5.95   +00 3.150  -02   30.      1.
 2.31                  5.96   +00 3.230  -02   30.      1.
 2.31                  6.00   +00 3.930  -02   31.      1.
 2.31                  6.04   +00 4.120  -02   29.      1.
 2.31                  6.08   +00 3.690  -02   30.      1.
 2.31                  6.13   +00 4.360  -02   30.      1.
 2.31                  6.21   +00 6.030  -02   30.      1.
 2.31                  6.25   +00 5.530  -02   31.      1.
 2.31                  6.25   +00 5.020  -02   30.      1.
 2.31                  6.33   +00 5.920  -02   30.      1.
 2.31                  6.37   +00 5.840  -02   31.      1.
 2.31                  6.42   +00 7.030  -02   30.      1.
 2.31                  6.46   +00 7.110  -02   30.      1.
 2.31                  6.50   +00 7.550  -02   30.      1.
 2.31                  6.54   +00 6.970  -02   30.      1.
 2.31                  6.59   +00 6.660  -02   30.      1.
 2.31                  6.63   +00 7.150  -02   29.      1.
 2.31                  6.68   +00 6.880  -02   31.      1.
 2.31                  6.72   +00 6.180  -02   31.      1.
 2.31                  6.77   +00 6.460  -02   29.      1.
 2.31                  6.81   +00 5.740  -02   30.      1.
 2.31                  6.86   +00 6.850  -02   31.      1.
 2.31                  6.90   +00 7.050  -02   30.      1.
 2.31                  6.95   +00 7.470  -02   29.      1.
 2.31                  6.99   +00 8.250  -02   30.      1.
 2.31                  7.04   +00 9.420  -02   30.      1.
 2.31                  7.08   +00 8.000  -02   30.      1.
 2.31                  7.13   +00 9.040  -02   30.      1.
 2.31                  7.17   +00 8.290  -02   30.      1.
 2.31                  7.22   +00 9.420  -02   30.      1.
 2.31                  7.27   +00 8.890  -02   30.      1.
 2.31                  7.31   +00 9.060  -02   30.      1.
 2.31                  7.36   +00 8.790  -02   30.      1.
 2.31                  7.41   +00 8.870  -02   30.      1.
 2.31                  7.46   +00 8.650  -02   30.      1.
 2.31                  7.51   +00 7.860  -02   31.      1.
 2.31                  7.56   +00 6.460  -02   39.      1.
 2.31                  7.61   +00 5.930  -02   42.      1.
 2.31                  7.65   +00 6.540  -02   38.      1.
 2.31                  7.70   +00 6.670  -02   37.      1.
 2.31                  7.75   +00 7.980  -02   31.      1.
 2.31                  7.80   +00 6.520  -02   38.      1.
 2.31                  7.85   +00 7.610  -02   99.      1.
 2.31                  7.90   +00 7.070  -02   99.      1.
 2.31                  7.95   +00 6.680  -02   99.      1.
 2.31                  8.00   +00 7.910  -02   99.      1.
 2.31                  8.05   +00 7.490  -02   99.      1.
 2.31                  8.10   +00 6.720  -02   99.      1.
 4.46                  5.79   +00 4.900  -03   31.      2.
 4.46                  5.84   +00 4.900  -03   31.      2.
 4.46                  5.87   +00 5.000  -03   30.      2.
 4.46                  5.92   +00 5.000  -03   30.      2.
 4.46                  5.96   +00 5.000  -03   30.      2.
 4.46                  6.00   +00 5.000  -03   30.      2.
 4.46                  6.02   +00 6.300  -03   30.      2.
 4.46                  6.08   +00 8.800  -03   30.      2.
 4.46                  6.12   +00 8.800  -03   30.      2.
 4.46                  6.18   +00 1.000  -02   30.      2.
 4.46                  6.24   +00 8.800  -03   30.      2.
 4.46                  6.28   +00 1.380  -02   30.      2.
 4.46                  6.31   +00 1.320  -02   30.      2.
 4.46                  6.35   +00 1.320  -02   30.      2.
 4.46                  6.39   +00 8.800  -03   30.      2.
 4.46                  6.42   +00 1.510  -02   30.      2.
 4.46                  6.48   +00 1.880  -02   30.      2.
 4.46                  6.53   +00 2.320  -02   30.      2.
 4.46                  6.58   +00 1.760  -02   30.      2.
 4.46                  6.62   +00 1.260  -02   30.      2.
 4.46                  6.67   +00 1.260  -02   30.      2.
 4.46                  6.71   +00 1.880  -02   30.      2.
 4.46                  6.76   +00 1.630  -02   30.      2.
 4.46                  6.84   +00 2.510  -02   30.      2.
 4.46                  6.90   +00 3.270  -02   30.      2.
 4.46                  6.94   +00 3.710  -02   30.      2.
 4.46                  6.99   +00 4.770  -02   29.      2.
 4.46                  7.02   +00 5.020  -02   30.      2.
 4.46                  7.04   +00 5.780  -02   29.      2.
 4.46                  7.07   +00 6.410  -02   30.      2.
 4.46                  7.11   +00 5.900  -02   31.      2.
 4.46                  7.17   +00 5.780  -02   29.      2.
 4.46                  7.22   +00 5.650  -02   30.      2.
 4.46                  7.27   +00 5.460  -02   29.      2.
 4.46                  7.32   +00 4.700  -02   30.      2.
 4.46                  7.39   +00 4.140  -02   29.      2.
 4.46                  7.46   +00 3.330  -02   30.      2.
 4.46                  7.50   +00 2.950  -02   30.      2.
 4.46                  7.55   +00 2.510  -02   30.      2.
 4.46                  7.60   +00 1.820  -02   30.      2.
 4.46                  7.66   +00 1.950  -02   30.      2.
 4.46                  7.70   +00 2.010  -02   30.      2.
 4.46                  7.80   +00 2.320  -02   30.      2.
 4.46                  7.84   +00 1.510  -02   30.      2.
 4.46                  7.89   +00 3.520  -02   31.      2.
 4.46                  7.96   +00 5.090  -02   29.      2.
 4.46                  8.04   +00 5.090  -02   29.      2.
 4.46                  8.09   +00 3.450  -02   29.      2.
 5.04       5.10       5.79   +00 8.8    -03
 5.04       5.10       5.82   +00 7.5    -03
 5.04       5.10       5.87   +00 1.256  -02
 5.04       5.10       5.92   +00 1.193  -02
 5.04       5.10       5.96   +00 1.44   -02
 5.04       5.10       5.99   +00 2.07   -02
 5.04       5.10       6.03   +00 1.82   -02
 5.04       5.10       6.06   +00 2.45   -02
 5.04       5.10       6.11   +00 2.70   -02
 5.04       5.10       6.19   +00 3.01   -02
 5.04       5.10       6.25   +00 2.76   -02
 5.04       5.10       6.29   +00 2.64   -02
 5.04       5.10       6.32   +00 3.01   -02
 5.04       5.10       6.36   +00 3.39   -02
 5.04       5.10       6.40   +00 3.83   -02
 5.04       5.10       6.44   +00 5.28   -02
 5.04       5.10       6.50   +00 6.53   -02
 5.04       5.10       6.54   +00 6.28   -02
 5.04       5.10       6.58   +00 5.09   -02
 5.04       5.10       6.62   +00 4.40   -02
 5.04       5.10       6.66   +00 3.27   -02
 5.04       5.10       6.71   +00 2.45   -02
 5.04       5.10       6.76   +00 2.45   -02
 5.04       5.10       6.80   +00 1.57   -02
 5.04       5.10       6.84   +00 3.01   -02
 5.04       5.10       6.89   +00 3.39   -02
 5.04       5.10       6.94   +00 4.21   -02
 5.04       5.10       6.98   +00 3.89   -02
 5.04       5.10       7.02   +00 4.40   -02
 5.04       5.10       7.07   +00 4.14   -02
 5.04       5.10       7.11   +00 5.02   -02
 5.04       5.10       7.16   +00 4.71   -02
 5.04       5.10       7.21   +00 5.15   -02
 5.04       5.10       7.26   +00 6.41   -02
 5.04       5.10       7.31   +00 6.03   -02
 5.04       5.10       7.36   +00 7.28   -02
 5.04       5.10       7.41   +00 8.92   -02
 5.04       5.10       7.46   +00 8.92   -02
 5.04       5.10       7.51   +00 8.16   -02
 5.04       5.10       7.55   +00 7.03   -02
 5.04       5.10       7.60   +00 7.54   -02
 5.04       5.10       7.65   +00 7.41   -02
 5.04       5.10       7.70   +00 8.54   -02
 5.04       5.10       7.81   +00 8.54   -02
 5.04       5.10       7.85   +00 1.042  -01
 5.04       5.10       7.90   +00 8.42   -02
 5.04       5.10       7.95   +00 8.92   -02
 5.04       5.10       8.05   +00 8.67   -02
 5.04       5.10       8.11   +00 8.98   -02
ENDDATA            260
ENDSUBENT          280
NOSUBENT      11282005     810428              20050926       0000
NOSUBENT      11282006     810428              20050926       0000
NOSUBENT      11282007     810428              20050926       0000
NOSUBENT      11282008     810428              20050926       0000
SUBENT        11282009     840606              20050926       0000
BIB                  6          8
REACTION   (8-O-16(N,X)0-G-0,PAR,DA,,4PI)
INC-SOURCE (D-D) BELOW 9.3 MEV
           (A-BE) ABOVE 9.3 MEV
SAMPLE     WATER
DETECTOR   (NAICR)
MONITOR    (6-C-12(N,INL)6-C-12,PAR,DA,G)
HISTORY    (800822A) SUBENTRIES 9,10 COMBINED
           (840607A) BIB CORRECTION.
ENDBIB               8
COMMON               3          3
ANG        E-NRM      EN-NRM
ADEG       MEV        MEV
 90.        4.433      7.88
ENDCOMMON            3
DATA                 4        126
E          E          EN         DATA
MEV        MEV        MEV        B
 6.14                  6.50   +00 0.     +00
 6.14                  6.53   +00 6.30   -04
 6.14                  6.57   +00 1.88   -03
 6.14                  6.60   +00 4.40   -03
 6.14                  6.62   +00 5.03   -03
 6.14                  6.66   +00 1.13   -03
 6.14                  6.70   +00 1.76   -02
 6.14                  6.74   +00 2.39   -02
 6.14                  6.78   +00 3.77   -02
 6.14                  6.79   +00 8.55   -02
 6.14                  6.83   +00 1.17   -01
 6.14                  6.87   +00 1.12   -01
 6.14                  6.90   +00 6.91   -02
 6.14                  6.93   +00 3.14   -02
 6.14                  6.96   +00 2.76   -02
 6.14                  6.99   +00 4.65   -02
 6.14                  7.02   +00 6.41   -02
 6.14                  7.06   +00 7.79   -02
 6.14                  7.09   +00 7.79   -02
 6.14                  7.13   +00 6.66   -02
 6.14                  7.16   +00 8.61   -02
 6.14                  7.19   +00 1.23   -01
 6.14                  7.23   +00 1.19   -01
 6.14                  7.27   +00 1.23   -01
 6.14                  7.30   +00 1.58   -01
 6.14                  7.34   +00 1.78   -01
 6.14                  7.37   +00 2.06   -01
 6.14                  7.40   +00 2.16   -01
 6.14                  7.44   +00 2.05   -01
 6.14                  7.45   +00 1.96   -01
 6.14                  7.49   +00 1.82   -01
 6.14                  7.53   +00 1.77   -01
 6.14                  7.56   +00 1.68   -01
 6.14                  7.60   +00 1.82   -01
 6.14                  7.63   +00 1.71   -01
 6.14                  7.67   +00 1.71   -01
 6.14                  7.70   +00 1.73   -01
 6.14                  7.74   +00 2.15   -01
 6.14                  7.78   +00 2.43   -01
 6.14                  7.82   +00 2.74   -01
 6.14                  7.86   +00 2.92   -01
 6.14                  7.90   +00 2.94   -01
 6.14                  7.93   +00 2.78   -01
 6.14                  7.98   +00 2.24   -01
 6.14                  8.00   +00 1.53   -01
 6.14                  8.05   +00 1.26   -01
 6.14                  8.08   +00 1.31   -01
 6.14                  8.12   +00 1.51   -01
 6.14                  8.15   +00 1.83   -01
 6.14                  8.20   +00 2.26   -01
 6.14                  8.23   +00 2.48   -01
 6.14                  8.27   +00 2.76   -01
 6.14                  8.31   +00 2.84   -01
 6.14                  8.35   +00 2.95   -01
 6.14                  8.39   +00 2.89   -01
 6.14                  8.43   +00 2.87   -01
 6.14                  8.47   +00 2.89   -01
 6.14                  8.50   +00 2.87   -01
 6.14                  8.56   +00 2.87   -01
 6.14                  8.59   +00 2.71   -01
 6.14                  8.62   +00 2.66   -01
 6.14                  8.66   +00 2.65   -01
 6.14                  8.70   +00 2.50   -01
 6.14                  8.73   +00 2.55   -01
 6.14                  8.78   +00 2.61   -01
 6.14                  8.81   +00 2.73   -01
 6.14                  8.85   +00 2.88   -01
 6.14                  8.89   +00 2.79   -01
 6.14                  8.93   +00 2.60   -01
 6.14                  8.97   +00 2.59   -01
 6.14                  9.00   +00 2.64   -01
 6.14                  9.04   +00 2.86   -01
 6.14                  9.08   +00 3.24   -01
 6.14                  9.12   +00 3.09   -01
 6.14                  9.16   +00 3.00   -01
 6.14                  9.20   +00 2.92   -01
 6.14                  9.24   +00 2.78   -01
 6.14                  9.29   +00 2.63   -01
 6.14                  9.33   +00 2.63   -01
 6.14                  9.37   +00 2.64   -01
 6.14                  9.43   +00 2.19   -01
 6.14                  9.56   +00 2.17   -01
 6.14                  9.71   +00 2.31   -01
 6.14                  9.85   +00 2.68   -01
 6.14                  9.94   +00 2.84   -01
 6.91       7.12       7.72   +00 2.76   -02
 6.91       7.12       7.76   +00 2.39   -02
 6.91       7.12       7.80   +00 2.76   -02
 6.91       7.12       7.85   +00 3.46   -02
 6.91       7.12       7.90   +00 4.00   -02
 6.91       7.12       7.95   +00 3.39   -02
 6.91       7.12       8.00   +00 2.64   -02
 6.91       7.12       8.04   +00 2.51   -02
 6.91       7.12       8.08   +00 3.14   -02
 6.91       7.12       8.10   +00 3.02   -02
 6.91       7.12       8.15   +00 3.64   -02
 6.91       7.12       8.19   +00 3.64   -02
 6.91       7.12       8.23   +00 3.64   -02
 6.91       7.12       8.28   +00 3.64   -02
 6.91       7.12       8.30   +00 4.15   -02
 6.91       7.12       8.35   +00 4.78   -02
 6.91       7.12       8.38   +00 4.84   -02
 6.91       7.12       8.42   +00 5.03   -02
 6.91       7.12       8.46   +00 5.28   -02
 6.91       7.12       8.49   +00 6.03   -02
 6.91       7.12       8.54   +00 6.03   -02
 6.91       7.12       8.57   +00 5.91   -02
 6.91       7.12       8.62   +00 5.65   -02
 6.91       7.12       8.65   +00 5.78   -02
 6.91       7.12       8.69   +00 5.03   -02
 6.91       7.12       8.73   +00 4.40   -02
 6.91       7.12       8.77   +00 4.40   -02
 6.91       7.12       8.81   +00 5.03   -02
 6.91       7.12       8.85   +00 5.40   -02
 6.91       7.12       8.93   +00 4.90   -02
 6.91       7.12       8.97   +00 4.52   -02
 6.91       7.12       9.00   +00 5.15   -02
 6.91       7.12       9.04   +00 5.91   -02
 6.91       7.12       9.08   +00 6.91   -02
 6.91       7.12       9.12   +00 6.03   -02
 6.91       7.12       9.16   +00 4.90   -02
 6.91       7.12       9.20   +00 5.03   -02
 6.91       7.12       9.24   +00 5.28   -02
 6.91       7.12       9.28   +00 5.03   -02
 6.91       7.12       9.32   +00 5.65   -02
 6.91       7.12       9.35   +00 6.28   -02
ENDDATA            128
ENDSUBENT          145
NOSUBENT      11282010     810428              20050926       0000
SUBENT        11282011     810428              20050926       0000
BIB                  1          2
REACTION  1(6-C-12(N,0),,EN)
          2(6-C-12(N,TOT),,WID)
ENDBIB               2
NOCOMMON             0          0
DATA                 3         10
DATA      1DATA      2DATA-MAX  2
MEV        KEV        KEV
 4.96                  80.
 5.42                  80.
 5.98       200.
 6.35       120.
 6.57                  80.
 6.65                  80.
 7.50       260.
 7.81       180.
 8.14       220.
 9.31       500.
ENDDATA             12
ENDSUBENT           19
SUBENT        11282012     820108              20050926       0000
BIB                  2          3
REACTION  1(7-N-14(N,0),,EN)
          2(7-N-14(N,TOT),,WID)
HISTORY    (820108U) DATA SORTED
ENDBIB               3
NOCOMMON             0          0
DATA                 2          6
DATA      1DATA      2
MEV        KEV
 6.26       120.
 6.48       200.
 6.52       170.
 7.10       200.
 7.92       170.
 8.00       120.
ENDDATA              8
ENDSUBENT           16
SUBENT        11282013     810428              20050926       0000
BIB                  1          1
REACTION   (8-O-16(N,0),,EN)
ENDBIB               1
NOCOMMON             0          0
DATA                 1         10
DATA
MEV
 6.83
 7.07
 7.24
 7.40
 7.87
 8.35
 8.50
 8.84
 9.10
 9.34
ENDDATA             12
ENDSUBENT           18
SUBENT        11282014     840606              20050926       0000
BIB                  5          5
REACTION   (7-N-14(N,X)0-G-0,PAR,DA)
INC-SOURCE (D-D)
SAMPLE     BE(3)N(2)
DETECTOR   (CSICR)
HISTORY    (840607A) BIB CORRECTION.
ENDBIB               5
COMMON               2          3
E          ANG
MEV        ADEG
 7.3        90.
ENDCOMMON            3
DATA                 4         18
EN         DATA       DATA-ERR   DATA-MAX
MEV        MB/SR      MB/SR      MB/SR
 1.64       4.4        1.0
 2.14       2.5        0.5
 2.31       6.9        1.0
 2.82       1.5        0.4
 3.37                             1.2
 3.93       1.3        0.4
 4.46       4.5        1.0
 4.91                             1.0
 5.06       5.3        0.8
 5.68                             1.0
 5.83                             1.0
 6.09                             1.0
 6.23                             1.0
 6.44                             1.0
 6.59                             1.0
 6.72                             1.0
 6.89                             1.0
 7.35                             1.0
ENDDATA             20
ENDSUBENT           34
SUBENT        11282015     810428              20050926       0000
BIB                  2          2
REACTION   (7-N-14(N,X)0-G-0,PAR,DA)
HISTORY    (800822A) MISSING DATA INSERTED
ENDBIB               2
NOCOMMON             0          0
DATA                 6          1
EN         ANG        E-MIN      E-MAX      DATA       DATA-ERR
MEV        ADEG       MEV        MEV        MB/SR      MB/SR
 7.3        90.        5.6        7.0        1.5        0.8
ENDDATA              3
ENDSUBENT           10
ENDENTRY            15
