ENTRY            10679   19771104   20050707                  1335
SUBENT        10679001   19771104   20050707                  1335
BIB                 11         20
INSTITUTE  (1USALAS)
REFERENCE  (R,LA-6239-MS,1976)
AUTHOR     (M.G.Silbert)
TITLE      Fission cross section of 243-Cm.
SAMPLE     Isotopic composition - Cm-243 (89 percent),
                                  Cm-244 (11 percent),
           Traces of Cm-242,Cm-245,Cm-246,Pu-239,Pu-240.
METHOD     (TOF) Time-Of-Flight over 240 meter flight path
DETECTOR   (SOLST) Silicon semiconductor detectors
MONITOR    (3-LI-6(N,T)2-HE-4,,SIG) Flux monitored By Li-6(F)
           (92-U-235(N,F),,SIG)     or U-235 samples.
           Cross section normalized to area or fission resonances
           at 22.85 eV and 34.99 eV (14.0 and 23.7 B*eV)
ERR-ANALYS Data errors given are statistical errors only. They do
           not include a 10. percent systematic error which is
           dominated by normalization error.
STATUS     (APRVD) Approved by M.G.Silbert, 77/9/22.
HISTORY    (19771104C)
           (20050524A) DR Units of uncertainties corrected and
                        format updated
ENDBIB              20
NOCOMMON             0          0
ENDSUBENT           23
SUBENT        10679002   19770914   20050707                  1335
BIB                  1          1
REACTION   (96-CM-243(N,F),,SIG)
ENDBIB               1
NOCOMMON             0          0
DATA                 3       2972
EN         DATA       DATA-ERR
EV         B          PER-CENT
 1.4697E+01 108.900        101.6
 1.4718E+01 225.710         43.7
 1.4760E+01 120.690         52.1
 1.4781E+01 118.160         63.2
 1.4803E+01 163.140         53.3
 1.4824E+01 185.450         44.5
 1.4845E+01 120.890         50.0
 1.4888E+01 122.210         55.1
 1.4909E+01 116.550         66.0
 1.4930E+01 177.440         46.3
 1.4952E+01 150.170         41.9
 1.4995E+01 101.410         52.1
 1.5016E+01 108.360         51.8
 1.5037E+01 120.180         53.2
 1.5059E+01 111.390         62.5
 1.5080E+01 106.270         50.8
 1.5123E+01  99.106         48.0
 1.5145E+01  86.654         63.3
 1.5166E+01  25.467        236.3
 1.5188E+01  15.616        330.4
 1.5209E+01  63.401         75.6
 1.5252E+01  22.246        177.9
 1.5274E+01  23.051        211.1
 1.5296E+01  48.926        110.1
 1.5317E+01  42.557        105.
 1.5339E+01  36.762        116.8
 1.5382E+01  32.493        151.3
 1.5404E+01  62.120         89.7
 1.5425E+01  72.761         69.1
 1.5447E+01  88.907         47.3
 1.5490E+01  93.682         41.9
 1.5512E+01  94.703         51.6
 1.5534E+01 152.970         67.1
 1.5556E+01 162.250         35.1
 1.5578E+01 135.510         32.4
 1.5621E+01 165.530         27.
 1.5643E+01 164.380         38.
 1.5665E+01 193.350         29.3
 1.5687E+01 230.270         23.
 1.5731E+01 257.740         33.4
 1.5752E+01 310.120         42.
 1.5774E+01 344.930         22.8
 1.5796E+01 270.680         26.2
 1.5818E+01 291.030         21.5
 1.5862E+01 396.950         15.5
 1.5884E+01 378.740         15.6
 1.5906E+01 383.300         17.8
 1.5928E+01 518.290         13.4
 1.5950E+01 439.050         13.3
 1.5995E+01 407.150         31.7
 1.6017E+01 390.400         25.3
 1.6039E+01 205.440         32.4
 1.6061E+01 282.570         34.
 1.6083E+01 303.680         20.8
 1.6127E+01 283.880         18.9
 1.6150E+01 292.640         21.
 1.6172E+01 254.790         19.3
 1.6194E+01 221.060         16.3
 1.6239E+01 164.920         23.6
 1.6261E+01 179.120         20.8
 1.6283E+01 151.550         26.4
 1.6305E+01 156.120         32.7
 1.6328E+01 120.560         24.9
 1.6350E+01 103.230         24.4
 1.6395E+01 121.210         28.3
 1.6417E+01 113.580         30.5
 1.6439E+01  73.184         38.
 1.6484E+01 122.920         21.7
 1.6507E+01  95.743         29.7
 1.6529E+01  58.102         56.1
 1.6552E+01  96.296         31.4
 1.6574E+01  89.734         25.2
 1.6619E+01  49.980         47.5
 1.6642E+01  40.044         64.1
 1.6664E+01  64.452         41.8
 1.6687E+01  59.568         35.7
 1.6709E+01  48.904         37.2
 1.6754E+01  28.040         62.7
 1.6777E+01  39.821         62.1
 1.6800E+01  80.251         35.7
 1.6822E+01  68.771         32.4
 1.6845E+01  57.396         30.8
 1.6890E+01  39.396         47.7
 1.6913E+01  40.188         54.0
 1.6936E+01  39.789         52.8
 1.6958E+01  17.938         89.0
 1.6981E+01  29.304         50.9
 1.7027E+01  36.481         57.3
 1.7050E+01  20.907        105.5
 1.7072E+01  50.150         59.8
 1.7095E+01  43.190         38.4
 1.7141E+01  57.639         29.3
 1.7164E+01  60.506         32.6
 1.7187E+01  51.169         38.8
 1.7210E+01  69.479         26.6
 1.7233E+01  74.204         21.5
 1.7279E+01  90.891         23.1
 1.7301E+01 120.990         37.9
 1.7324E+01  77.192         27.4
 1.7347E+01  83.539         28.8
 1.7394E+01  90.900         19.9
 1.7417E+01 105.700         29.9
 1.7440E+01  68.209         30.2
 1.7463E+01  70.750         28.8
 1.7486E+01  92.648         28.
 1.7532E+01  90.532         24.8
 1.7555E+01  75.178         46.3
 1.7578E+01  85.069         39.2
 1.7601E+01  85.335         21.3
 1.7625E+01  87.235         17.3
 1.7671E+01 103.070         16.5
 1.7694E+01 103.150         18.3
 1.7717E+01 136.830         17.5
 1.7741E+01  91.900         25.7
 1.7787E+01 111.490         15.
 1.7811E+01 121.380         17.5
 1.7834E+01 103.500         27.
 1.7857E+01 110.280         21.7
 1.7904E+01 109.600         20.
 1.7927E+01 116.350         18.2
 1.7951E+01 121.910         16.
 1.7974E+01  71.243         24.2
 1.7997E+01  72.973         21.2
 1.8021E+01  88.963         15.5
 1.8068E+01  79.028         18.7
 1.8091E+01  71.656         22.1
 1.8115E+01  58.392         25.8
 1.8138E+01  60.287         21.8
 1.8186E+01  50.691         56.6
 1.8209E+01  55.833         30.6
 1.8233E+01  66.996         25.9
 1.8256E+01  49.630         23.2
 1.8280E+01  41.560         22.
 1.8327E+01  32.419         26.
 1.8351E+01  28.943         33.7
 1.8374E+01  28.864         35.8
 1.8398E+01  27.641         30.3
 1.8446E+01  20.270         35.9
 1.8469E+01  20.346         39.1
 1.8493E+01  13.900         57.9
 1.8517E+01  22.028         41.2
 1.8540E+01  17.233         64.5
 1.8588E+01  24.110         30.8
 1.8612E+01  18.524         41.8
 1.8636E+01  17.801         46.3
 1.8660E+01  16.201         46.2
 1.8683E+01  21.425         31.3
 1.8731E+01  14.117         43.4
 1.8755E+01   9.344         96.8
 1.8779E+01   7.277         99.6
 1.8803E+01  11.332         50.1
 1.8827E+01  12.410         40.6
 1.8875E+01   4.953         99.1
 1.8899E+01  10.177         64.9
 1.8923E+01  10.021         57.5
 1.8947E+01   6.836         66.8
 1.8971E+01   5.039         99.4
 1.9019E+01  12.294         52.4
 1.9043E+01   5.643        111.6
 1.9067E+01   3.590        126.8
 1.9091E+01   6.851         70.1
 1.9140E+01   9.999         55.7
 1.9164E+01   5.557        134.7
 1.9188E+01   4.873        107.9
 1.9212E+01   3.991        102.2
 1.9261E+01   3.295        116.5
 1.9285E+01   4.183         95.7
 1.9309E+01   4.647        106.8
 1.9334E+01   4.566        105.4
 1.9382E+01   2.737        121.7
 1.9407E+01   2.264        164.9
 1.9431E+01   1.599        273.2
 1.9455E+01   0.300      11348.2
 1.9480E+01   0.367        920.9
 1.9504E+01   1.956        163.
 1.9553E+01   1.558        216.2
 1.9577E+01   6.573         71.2
 1.9602E+01   5.506         78.8
 1.9651E+01   4.864         63.8
 1.9675E+01   5.280         59.8
 1.9700E+01   5.745         61.8
 1.9724E+01   5.695         76.2
 1.9749E+01   5.012         75.7
 1.9773E+01   4.305         69.5
 1.9822E+01   4.276         76.8
 1.9847E+01   9.534         47.8
 1.9872E+01  13.615         43.6
 1.9896E+01  10.605         36.
 1.9921E+01  12.126         29.1
 1.9970E+01  12.635         34.4
 1.9995E+01  16.406         30.7
 2.0020E+01  20.297         27.7
 2.0044E+01  23.260         20.3
 2.0069E+01  26.411         22.1
 2.0119E+01  35.916         16.4
 2.0143E+01  42.628         28.5
 2.0168E+01  50.553         15.6
 2.0193E+01  41.589         12.9
 2.0243E+01  54.666         13.6
 2.0268E+01  68.469         21.9
 2.0292E+01  60.101         14.6
 2.0317E+01  56.858         11.9
 2.0367E+01  53.335         12.3
 2.0392E+01  49.576         14.3
 2.0417E+01  49.442         15.2
 2.0442E+01  47.811         13.6
 2.0467E+01  44.800         12.
 2.0517E+01  50.289         12.1
 2.0542E+01  48.674         15.1
 2.0567E+01  46.491         19.7
 2.0592E+01  39.056         13.8
 2.0642E+01  51.241         12.8
 2.0667E+01  40.568         12.8
 2.0692E+01  39.958         15.
 2.0718E+01  44.465         15.1
 2.0743E+01  41.936         15.5
 2.0768E+01  36.107         13.2
 2.0818E+01  36.689         13.7
 2.0843E+01  41.424         14.9
 2.0869E+01  37.705         15.7
 2.0894E+01  36.516         13.2
 2.0944E+01  34.979         14.1
 2.0970E+01  36.192         15.8
 2.0995E+01  43.879         14.4
 2.1020E+01  34.003         13.2
 2.1046E+01  32.601         12.7
 2.1096E+01  33.004         13.4
 2.1122E+01  34.432         15.7
 2.1147E+01  46.252         14.3
 2.1198E+01  48.836         11.
 2.1223E+01  46.808         11.8
 2.1249E+01  48.696         13.7
 2.1274E+01  41.497         14.6
 2.1300E+01  54.453         12.6
 2.1325E+01  55.062         10.5
 2.1376E+01  61.570         10.8
 2.1402E+01  65.090         13.
 2.1428E+01  75.682         12.5
 2.1453E+01  84.779         13.9
 2.1479E+01 117.340         14.7
 2.1530E+01 178.380         11.4
 2.1556E+01 248.550         14.5
 2.1581E+01 341.360         12.
 2.1607E+01 397.680          9.9
 2.1658E+01 443.670          8.6
 2.1684E+01 409.300          9.9
 2.1710E+01 358.940         11.3
 2.1735E+01 282.170         11.
 2.1761E+01 228.750         11.2
 2.1813E+01 108.120         15.1
 2.1838E+01  63.709         21.6
 2.1864E+01  39.933         14.4
 2.1890E+01  31.670         12.6
 2.1916E+01  27.184         15.7
 2.1968E+01  17.203         16.8
 2.1994E+01  17.310         30.4
 2.2019E+01   9.952         25.6
 2.2045E+01   7.811         22.2
 2.2097E+01   7.250         23.1
 2.2123E+01   8.276         24.4
 2.2149E+01   8.629         27.3
 2.2175E+01   8.626         26.2
 2.2227E+01   9.445         19.2
 2.2253E+01   7.040         24.6
 2.2279E+01   7.041         28.3
 2.2306E+01   9.734         24.7
 2.2332E+01   7.603         23.
 2.2384E+01   6.842         21.7
 2.2410E+01   8.354         23.4
 2.2436E+01   6.865         29.7
 2.2462E+01   6.443         28.
 2.2489E+01   6.250         25.2
 2.2515E+01   5.375         25.
 2.2567E+01   6.063         29.7
 2.2593E+01   5.515         33.1
 2.2620E+01   6.529         25.6
 2.2646E+01   7.962         20.8
 2.2698E+01   8.346         21.6
 2.2725E+01   9.686         34.5
 2.2751E+01   9.790         22.6
 2.2778E+01  14.208         18.
 2.2804E+01  13.700         15.1
 2.2857E+01  14.952         15.2
 2.2883E+01  12.412         25.8
 2.2909E+01  12.482         18.5
 2.2936E+01  14.681         14.7
 2.2989E+01  16.105         13.7
 2.3015E+01  18.019         14.9
 2.3042E+01  25.108         19.3
 2.3068E+01  30.846         12.9
 2.3095E+01  36.245         10.6
 2.3148E+01  42.258         11.
 2.3175E+01  42.267         12.9
 2.3201E+01  44.457         12.8
 2.3228E+01  38.193         11.5
 2.3281E+01  27.443         15.4
 2.3308E+01  21.427         14.2
 2.3334E+01  18.624         15.7
 2.3361E+01  14.708         17.7
 2.3388E+01  11.505         15.
 2.3441E+01  12.138         15.4
 2.3468E+01  12.834         24.3
 2.3495E+01  10.949         19.3
 2.3522E+01  14.948         13.9
 2.3548E+01  15.113         12.4
 2.3602E+01  18.593         12.
 2.3629E+01  21.869         13.7
 2.3656E+01  24.246         14.3
 2.3683E+01  28.662         12.6
 2.3709E+01  31.012         10.7
 2.3763E+01  30.239         11.7
 2.3790E+01  26.977         13.8
 2.3817E+01  23.813         12.9
 2.3844E+01  21.551         11.5
 2.3898E+01  21.062         12.3
 2.3925E+01  20.582         14.3
 2.3952E+01  22.030         14.3
 2.3979E+01  20.959         12.3
 2.4006E+01  21.982         10.9
 2.4060E+01  28.052         12.
 2.4087E+01  29.128         13.3
 2.4115E+01  33.615         12.1
 2.4142E+01  35.030         10.6
 2.4169E+01  39.564          9.9
 2.4223E+01  54.529         11.2
 2.4250E+01  64.107         11.5
 2.4278E+01  76.901         11.1
 2.4305E+01  98.003         12.4
 2.4359E+01 162.460         11.7
 2.4386E+01 204.950         10.7
 2.4414E+01 258.560         10.9
 2.4441E+01 308.010         12.2
 2.4496E+01 405.190          8.9
 2.4523E+01 444.320         10.
 2.4550E+01 496.410         10.
 2.4578E+01 488.360          9.7
 2.4605E+01 441.800          9.8
 2.4660E+01 332.360          8.5
 2.4687E+01 283.770          9.2
 2.4715E+01 237.190         11.9
 2.4742E+01 183.910         10.1
 2.4770E+01 156.670          9.4
 2.4825E+01 100.550         10.
 2.4852E+01  79.341         10.8
 2.4880E+01  67.733         11.1
 2.4908E+01  61.343          9.6
 2.4963E+01  52.696          9.1
 2.4990E+01  47.452          9.9
 2.5018E+01  45.244         11.6
 2.5045E+01  39.699         10.3
 2.5101E+01  41.758         10.4
 2.5129E+01  37.362         14.1
 2.5156E+01  33.522         12.2
 2.5184E+01  32.609         12.2
 2.5212E+01  32.081          9.9
 2.5267E+01  36.173          9.7
 2.5295E+01  40.592         10.7
 2.5323E+01  45.536         11.5
 2.5350E+01  44.075         11.
 2.5378E+01  44.626          9.7
 2.5434E+01  57.694          9.1
 2.5462E+01  64.763         11.1
 2.5490E+01  72.694         11.
 2.5518E+01  83.964         10.1
 2.5573E+01 123.370          9.9
 2.5601E+01 152.320         11.8
 2.5629E+01 178.800          9.5
 2.5657E+01 236.740         13.4
 2.5685E+01 305.740         10.8
 2.5713E+01 365.710          9.
 2.5769E+01 457.250          9.8
 2.5797E+01 485.930         10.1
 2.5825E+01 473.570          9.4
 2.5881E+01 377.990          8.3
 2.5910E+01 324.120          9.2
 2.5938E+01 263.500         16.7
 2.5966E+01 173.880         11.3
 2.5994E+01 155.030          9.4
 2.6022E+01 119.390         12.8
 2.6079E+01  65.751         10.6
 2.6107E+01  53.021         10.4
 2.6135E+01  43.532         11.5
 2.6163E+01  37.083         10.6
 2.6220E+01  32.608         10.6
 2.6248E+01  28.758         11.4
 2.6276E+01  26.203         12.4
 2.6305E+01  23.889         12.7
 2.6333E+01  20.957         10.4
 2.6361E+01  18.547         10.2
 2.6418E+01  15.799         13.
 2.6447E+01  15.161         14.2
 2.6475E+01  14.779         11.6
 2.6503E+01  14.282         10.9
 2.6560E+01  13.763         11.6
 2.6589E+01  13.710         14.6
 2.6617E+01  13.078         14.5
 2.6646E+01  13.815         12.4
 2.6674E+01  13.986         11.6
 2.6731E+01  14.591         13.6
 2.6760E+01  15.210         14.3
 2.6788E+01  15.519         13.1
 2.6817E+01  16.524         11.4
 2.6846E+01  17.251         10.5
 2.6903E+01  16.752         12.7
 2.6932E+01  16.665         13.9
 2.6960E+01  17.143         12.6
 2.7018E+01  17.687         11.
 2.7046E+01  17.476         12.
 2.7075E+01  17.613         13.6
 2.7104E+01  19.118         13.3
 2.7133E+01  20.681         11.
 2.7190E+01  22.614         10.4
 2.7219E+01  22.145         11.5
 2.7248E+01  24.022         12.8
 2.7277E+01  23.710         11.6
 2.7305E+01  23.826         10.
 2.7363E+01  25.778         10.6
 2.7392E+01  24.090         12.5
 2.7421E+01  25.458         12.5
 2.7450E+01  27.270         10.7
 2.7479E+01  28.699          9.5
 2.7537E+01  28.120         10.5
 2.7566E+01  26.627         12.3
 2.7595E+01  27.072         11.7
 2.7624E+01  27.173          9.7
 2.7682E+01  30.098          9.4
 2.7711E+01  30.903         10.3
 2.7740E+01  28.346         12.
 2.7769E+01  31.837         11.5
 2.7827E+01  34.636          9.1
 2.7856E+01  35.749          9.7
 2.7886E+01  34.624         10.
 2.7915E+01  38.850         11.5
 2.7944E+01  40.674         11.1
 2.8002E+01  41.640          9.7
 2.8032E+01  41.510         11.1
 2.8061E+01  41.497         11.4
 2.8090E+01  43.375         11.1
 2.8119E+01  45.091         10.2
 2.8149E+01  46.418          9.1
 2.8207E+01  47.900         10.8
 2.8237E+01  52.785         11.1
 2.8266E+01  55.440         10.
 2.8295E+01  59.050          9.1
 2.8354E+01  64.749         10.2
 2.8384E+01  68.861         10.9
 2.8413E+01  74.844         10.4
 2.8442E+01  80.547          9.5
 2.8472E+01  89.334          9.2
 2.8531E+01 116.240          9.5
 2.8560E+01 134.640         10.
 2.8590E+01 153.640         11.4
 2.8620E+01 163.830          9.2
 2.8649E+01 168.280          8.4
 2.8708E+01 170.000         10.2
 2.8738E+01 157.640         10.7
 2.8767E+01 146.470          9.7
 2.8797E+01 137.340          8.7
 2.8856E+01 116.110         10.2
 2.8886E+01 104.220         10.8
 2.8916E+01  94.164         10.1
 2.8945E+01  84.344          9.
 2.8975E+01  76.381          8.6
 2.9035E+01  68.174         10.5
 2.9064E+01  60.242         11.6
 2.9094E+01  54.735          9.7
 2.9124E+01  50.972          9.1
 2.9184E+01  40.672          9.
 2.9213E+01  37.947         10.5
 2.9243E+01  33.050         11.7
 2.9273E+01  28.924         10.6
 2.9303E+01  25.710          9.4
 2.9363E+01  21.208         10.9
 2.9393E+01  22.239         12.3
 2.9423E+01  20.923         11.4
 2.9453E+01  19.680          9.8
 2.9513E+01  16.918         10.2
 2.9543E+01  16.683         12.3
 2.9573E+01  18.468         12.6
 2.9603E+01  21.269         10.2
 2.9633E+01  24.392          9.2
 2.9693E+01  38.343         10.6
 2.9723E+01  48.573         12.4
 2.9753E+01  70.463         13.8
 2.9783E+01  86.906          9.2
 2.9844E+01 119.690          9.8
 2.9874E+01 130.880          9.2
 2.9904E+01 142.140         10.3
 2.9934E+01 157.540         11.
 2.9964E+01 165.620          9.1
 2.9995E+01 164.040          8.2
 3.0055E+01 136.640          9.1
 3.0086E+01 121.320         10.8
 3.0116E+01 102.000         11.2
 3.0176E+01  74.845          9.4
 3.0207E+01  64.159          9.3
 3.0237E+01  56.556         10.2
 3.0268E+01  48.727         11.5
 3.0298E+01  42.820          9.8
 3.0328E+01  38.602          8.8
 3.0389E+01  36.889          9.4
 3.0420E+01  38.356         11.1
 3.0450E+01  35.287         10.3
 3.0511E+01  35.157          8.7
 3.0542E+01  36.038          9.
 3.0572E+01  36.373          9.7
 3.0603E+01  38.067         10.9
 3.0633E+01  39.693         10.7
 3.0664E+01  43.937          9.1
 3.0725E+01  46.083         10.4
 3.0756E+01  45.752         10.2
 3.0786E+01  48.686         10.5
 3.0817E+01  57.501         10.4
 3.0847E+01  63.464          8.7
 3.0909E+01  72.074          8.9
 3.0940E+01  75.228         10.3
 3.0970E+01  81.984          9.
 3.1032E+01  94.674          8.3
 3.1063E+01  99.837          8.4
 3.1093E+01 101.410          9.1
 3.1124E+01 106.250         10.2
 3.1155E+01 108.980          9.
 3.1217E+01 119.340          8.3
 3.1247E+01 119.950          8.3
 3.1278E+01 120.890          9.4
 3.1309E+01 127.430         11.4
 3.1340E+01 144.420          9.2
 3.1402E+01 150.200          8.8
 3.1433E+01 145.780         10.1
 3.1464E+01 144.350          9.9
 3.1495E+01 139.050          8.6
 3.1526E+01 135.740          8.1
 3.1588E+01 121.210          8.6
 3.1619E+01 109.050         10.4
 3.1650E+01 110.250         10.1
 3.1681E+01 103.170          9.3
 3.1743E+01  77.950          8.8
 3.1774E+01  67.653          9.
 3.1806E+01  61.758         10.4
 3.1837E+01  57.775         10.4
 3.1868E+01  51.666          8.6
 3.1930E+01  41.594          9.1
 3.1962E+01  37.716         11.1
 3.1993E+01  31.296         10.8
 3.2024E+01  27.743          9.2
 3.2087E+01  23.125          9.6
 3.2118E+01  21.695         10.9
 3.2149E+01  21.597         10.7
 3.2180E+01  20.085         11.6
 3.2212E+01  19.033         10.3
 3.2243E+01  18.754          9.
 3.2274E+01  19.057          9.
 3.2337E+01  19.856         11.6
 3.2369E+01  20.883         11.1
 3.2400E+01  21.405          9.5
 3.2432E+01  23.304          9.4
 3.2495E+01  28.859         11.7
 3.2526E+01  34.211         11.5
 3.2557E+01  42.319         10.1
 3.2621E+01  54.460          8.4
 3.2652E+01  64.495          9.2
 3.2684E+01  80.789         12.3
 3.2715E+01  97.205         10.1
 3.2747E+01 112.030         12.3
 3.2810E+01 152.380          8.2
 3.2842E+01 167.520          9.5
 3.2873E+01 172.920          9.9
 3.2905E+01 167.450          9.7
 3.2937E+01 160.610          8.4
 3.3000E+01 133.100          8.7
 3.3032E+01 117.720          9.8
 3.3064E+01  99.701         10.1
 3.3095E+01  86.416         10.3
 3.3127E+01  76.385          8.6
 3.3191E+01  57.498          9.5
 3.3223E+01  49.693          9.8
 3.3254E+01  42.874         10.7
 3.3286E+01  38.103          9.3
 3.3350E+01  30.418          9.1
 3.3382E+01  27.164         10.8
 3.3414E+01  24.004         11.4
 3.3478E+01  21.760          8.9
 3.3542E+01  18.402         10.8
 3.3574E+01  16.522         12.
 3.3606E+01  15.171         11.3
 3.3638E+01  15.018         10.1
 3.3702E+01  14.851         10.1
 3.3734E+01  14.303         10.7
 3.3766E+01  12.238         15.4
 3.3798E+01  11.914         15.5
 3.3830E+01  12.417         10.9
 3.3862E+01  12.190          9.9
 3.3927E+01  10.385         11.9
 3.3959E+01   9.759         13.3
 3.3991E+01  10.071         11.6
 3.4055E+01  10.904         10.
 3.4088E+01  10.822         10.3
 3.4120E+01  10.799         12.2
 3.4152E+01  11.012         13.1
 3.4184E+01  11.684         11.1
 3.4249E+01  14.802         10.
 3.4281E+01  18.396         10.8
 3.4314E+01  22.875         12.8
 3.4346E+01  30.165         12.7
 3.4378E+01  35.685         10.3
 3.4443E+01  47.593          9.6
 3.4476E+01  56.020         12.3
 3.4508E+01  63.119         10.9
 3.4540E+01  62.952          9.1
 3.4573E+01  60.225          9.1
 3.4638E+01  46.706          9.5
 3.4670E+01  37.928         12.6
 3.4703E+01  27.859         14.1
 3.4735E+01  23.107         10.2
 3.4801E+01  23.407          9.1
 3.4833E+01  24.610          9.8
 3.4866E+01  22.847         10.9
 3.4898E+01  22.426         11.5
 3.4931E+01  22.163          9.9
 3.4996E+01  19.693          9.4
 3.5029E+01  18.263         10.6
 3.5062E+01  18.454         11.7
 3.5127E+01  15.676          9.7
 3.5160E+01  14.419         10.4
 3.5193E+01  13.124         10.8
 3.5225E+01  12.236         12.3
 3.5258E+01  11.774         11.7
 3.5291E+01  12.919         10.4
 3.5357E+01  14.077         10.
 3.5389E+01  14.104         11.7
 3.5422E+01  13.949         12.1
 3.5455E+01  14.320         10.9
 3.5488E+01  15.815         10.2
 3.5521E+01  17.436          9.4
 3.5587E+01  19.545         11.6
 3.5620E+01  22.866         11.5
 3.5653E+01  23.038          9.8
 3.5719E+01  28.204          8.9
 3.5752E+01  30.242         11.1
 3.5785E+01  31.041         11.2
 3.5818E+01  31.988          9.7
 3.5851E+01  35.631          8.9
 3.5917E+01  43.447          9.4
 3.5950E+01  47.897         10.7
 3.5983E+01  48.251         10.3
 3.6016E+01  55.546         10.6
 3.6083E+01  68.983          8.4
 3.6116E+01  77.295         10.4
 3.6149E+01  84.462         10.2
 3.6182E+01  89.338          9.
 3.6215E+01 100.980          9.7
 3.6249E+01 120.330          8.9
 3.6315E+01 152.870          9.5
 3.6348E+01 165.070          9.9
 3.6382E+01 173.980          9.6
 3.6448E+01 182.740          8.
 3.6482E+01 186.870          8.4
 3.6515E+01 190.070          9.3
 3.6549E+01 188.660          9.7
 3.6582E+01 179.290          9.1
 3.6615E+01 165.920          8.
 3.6682E+01 139.810          8.2
 3.6716E+01 130.810         10.
 3.6749E+01 120.740          9.7
 3.6783E+01 115.250          8.5
 3.6816E+01 106.620          8.3
 3.6883E+01  88.219          9.1
 3.6917E+01  82.253          9.6
 3.6950E+01  76.229         10.
 3.6984E+01  74.416          9.4
 3.7051E+01  73.486          8.3
 3.7085E+01  74.508          9.2
 3.7118E+01  75.656         10.2
 3.7186E+01  74.405          8.2
 3.7219E+01  71.910          9.2
 3.7253E+01  69.042         10.3
 3.7287E+01  70.188          9.6
 3.7320E+01  72.322          8.9
 3.7354E+01  73.039          8.7
 3.7422E+01  77.772         10.2
 3.7455E+01  79.610         10.3
 3.7489E+01  78.772          9.7
 3.7523E+01  80.526         10.3
 3.7557E+01  79.537          9.3
 3.7591E+01  78.187          8.2
 3.7658E+01  75.443         10.3
 3.7692E+01  73.555          9.
 3.7726E+01  70.975          8.2
 3.7760E+01  66.132          8.4
 3.7828E+01  53.428         10.4
 3.7862E+01  46.681         10.5
 3.7896E+01  43.490          9.4
 3.7930E+01  42.465          8.9
 3.7964E+01  42.224          8.5
 3.8032E+01  40.666          9.3
 3.8066E+01  38.428         10.6
 3.8100E+01  34.095         10.5
 3.8168E+01  31.885          8.8
 3.8203E+01  30.074          8.8
 3.8237E+01  31.270         10.3
 3.8271E+01  29.977         10.8
 3.8305E+01  29.245          8.9
 3.8339E+01  28.538          8.6
 3.8408E+01  26.297         10.8
 3.8442E+01  24.287         10.9
 3.8476E+01  23.338          9.
 3.8545E+01  20.811          9.1
 3.8579E+01  20.613          9.4
 3.8613E+01  19.651         10.6
 3.8648E+01  19.007         11.1
 3.8682E+01  18.881          9.7
 3.8716E+01  19.471          8.9
 3.8785E+01  17.492          9.1
 3.8819E+01  17.271         11.1
 3.8854E+01  17.389         11.1
 3.8888E+01  17.068          9.5
 3.8957E+01  14.866          9.
 3.8992E+01  14.606         10.8
 3.9026E+01  14.397         11.3
 3.9061E+01  14.089         10.2
 3.9095E+01  14.691          9.6
 3.9164E+01  13.925         10.8
 3.9199E+01  13.573         11.4
 3.9233E+01  14.018         10.3
 3.9268E+01  13.835         10.5
 3.9303E+01  13.649          9.5
 3.9372E+01  14.226          9.1
 3.9406E+01  14.946         10.5
 3.9441E+01  16.223         11.1
 3.9476E+01  15.842          9.5
 3.9545E+01  17.429         10.
 3.9580E+01  18.803         10.9
 3.9615E+01  21.134         10.4
 3.9649E+01  21.930          8.9
 3.9719E+01  24.492          8.4
 3.9789E+01  25.339          9.8
 3.9823E+01  27.552         10.5
 3.9858E+01  29.122          9.6
 3.9928E+01  29.761          8.4
 3.9963E+01  28.761          9.1
 3.9998E+01  26.970         10.4
 4.0033E+01  25.604         10.
 4.0103E+01  24.905          9.3
 4.0138E+01  22.505          8.8
 4.0173E+01  20.127          9.5
 4.0208E+01  20.648         10.3
 4.0244E+01  20.457         10.5
 4.0279E+01  21.008          9.
 4.0350E+01  25.097          9.4
 4.0385E+01  29.477         10.1
 4.0420E+01  31.623         10.4
 4.0456E+01  29.149          8.8
 4.0492E+01  28.967          8.3
 4.0563E+01  31.006          8.6
 4.0599E+01  33.839         10.
 4.0634E+01  39.581         10.8
 4.0670E+01  41.631          9.
 4.0706E+01  46.306          8.2
 4.0742E+01  53.774          8.3
 4.0814E+01  64.476         10.1
 4.0850E+01  75.406          9.9
 4.0886E+01  82.177          8.4
 4.0922E+01  85.525          8.3
 4.0958E+01  88.445          8.1
 4.0994E+01  89.446          8.
 4.1067E+01  76.190         11.9
 4.1103E+01  57.920         11.1
 4.1140E+01  49.703          8.4
 4.1176E+01  39.827          9.
 4.1213E+01  31.486          9.
 4.1286E+01  23.621          9.7
 4.1322E+01  21.408         10.6
 4.1359E+01  19.643          9.3
 4.1433E+01  17.401          8.6
 4.1470E+01  16.320          9.2
 4.1507E+01  15.029         10.2
 4.1543E+01  14.794         11.1
 4.1581E+01  13.797         11.2
 4.1655E+01  14.050          8.7
 4.1729E+01  16.305         10.
 4.1766E+01  16.479          9.1
 4.1804E+01  15.575         10.6
 4.1841E+01  17.334         10.9
 4.1878E+01  18.894          9.2
 4.1953E+01  21.249          8.4
 4.1991E+01  21.606          8.7
 4.2028E+01  21.565          9.4
 4.2066E+01  21.519         10.5
 4.2104E+01  21.697         10.6
 4.2142E+01  21.432         10.4
 4.2179E+01  20.996          9.6
 4.2255E+01  19.793          8.4
 4.2293E+01  18.460          8.8
 4.2331E+01  17.516         10.
 4.2369E+01  15.956         10.9
 4.2407E+01  13.854         10.1
 4.2446E+01  12.549          9.2
 4.2484E+01  11.565          9.4
 4.2522E+01  10.677          9.1
 4.2599E+01   9.482         10.3
 4.2637E+01   8.809         11.5
 4.2676E+01   7.895         12.1
 4.2714E+01   7.649         10.2
 4.2753E+01   7.479          9.7
 4.2791E+01   7.981          9.4
 4.2869E+01   9.073          9.2
 4.2908E+01  10.321          9.1
 4.2946E+01  11.787          9.5
 4.2985E+01  12.960         11.2
 4.3024E+01  16.128         10.8
 4.3063E+01  17.954          9.1
 4.3102E+01  20.206          8.5
 4.3141E+01  22.684          8.5
 4.3220E+01  26.516          8.6
 4.3259E+01  29.574          9.9
 4.3298E+01  32.502         10.2
 4.3338E+01  32.745         10.1
 4.3377E+01  32.351          9.5
 4.3417E+01  31.135          9.1
 4.3456E+01  29.965          8.7
 4.3496E+01  27.708          8.6
 4.3535E+01  24.446          9.1
 4.3615E+01  19.749          9.3
 4.3655E+01  16.873         11.3
 4.3695E+01  13.256         10.6
 4.3735E+01  12.111         10.1
 4.3774E+01  11.731         10.4
 4.3814E+01  11.616         10.1
 4.3855E+01  10.634          9.8
 4.3895E+01  10.242          9.2
 4.3935E+01  10.737          8.8
 4.3975E+01  11.735          8.8
 4.4056E+01  15.098          8.5
 4.4096E+01  16.952          9.3
 4.4137E+01  19.131         10.6
 4.4177E+01  22.260         10.
 4.4218E+01  25.818          9.2
 4.4258E+01  29.483          9.1
 4.4299E+01  31.424          8.4
 4.4381E+01  34.514          8.2
 4.4422E+01  33.604          8.4
 4.4463E+01  30.619          8.6
 4.4504E+01  26.633          8.9
 4.4544E+01  23.029          9.1
 4.4586E+01  19.897         11.5
 4.4627E+01  15.165         14.8
 4.4668E+01  12.315         11.1
 4.4709E+01  13.640         10.9
 4.4751E+01  14.395          9.9
 4.4792E+01  15.249          9.1
 4.4833E+01  16.282          9.
 4.4916E+01  19.072          8.4
 4.4958E+01  20.202          8.5
 4.5041E+01  24.055          8.9
 4.5083E+01  26.668          9.2
 4.5125E+01  29.859         11.
 4.5167E+01  34.076         10.4
 4.5209E+01  38.347         10.
 4.5251E+01  43.125          9.4
 4.5293E+01  46.056          8.7
 4.5335E+01  48.068          8.8
 4.5377E+01  51.151          9.2
 4.5419E+01  53.116          8.8
 4.5462E+01  52.698          8.3
 4.5504E+01  49.862          8.1
 4.5547E+01  45.507          8.1
 4.5632E+01  36.758          8.3
 4.5674E+01  32.880          9.1
 4.5717E+01  28.580          9.1
 4.5760E+01  24.052          9.8
 4.5802E+01  20.514          9.7
 4.5845E+01  18.839          9.8
 4.5888E+01  18.522         10.8
 4.5931E+01  18.659         10.5
 4.5974E+01  19.412          8.9
 4.6017E+01  20.335          8.8
 4.6060E+01  21.591          8.8
 4.6147E+01  24.880          8.3
 4.6190E+01  27.620          8.2
 4.6277E+01  33.505          8.3
 4.6321E+01  37.615          8.1
 4.6408E+01  46.021          8.1
 4.6451E+01  50.496          8.3
 4.6495E+01  56.102          9.
 4.6539E+01  64.939          9.2
 4.6583E+01  72.200          8.7
 4.6627E+01  76.748          9.1
 4.6671E+01  82.130          9.9
 4.6715E+01  87.111          9.7
 4.6759E+01  88.746         10.2
 4.6803E+01  95.794          9.8
 4.6848E+01  95.652          9.5
 4.6892E+01  97.026         10.2
 4.6936E+01  98.493         10.1
 4.6981E+01  96.961          9.4
 4.7025E+01  90.632          8.8
 4.7070E+01  81.217          9.1
 4.7159E+01  57.581          9.
 4.7204E+01  46.419          9.
 4.7249E+01  38.728          9.4
 4.7339E+01  30.138          8.4
 4.7429E+01  29.315          8.4
 4.7474E+01  29.768          8.4
 4.7564E+01  32.116          8.4
 4.7610E+01  34.185          8.7
 4.7655E+01  38.473          8.7
 4.7700E+01  44.470          8.5
 4.7746E+01  50.880          9.1
 4.7792E+01  59.078          8.7
 4.7837E+01  68.644          8.6
 4.7883E+01  80.107          9.3
 4.7929E+01  91.273          8.4
 4.7975E+01 100.480          8.2
 4.8021E+01 108.310          8.1
 4.8113E+01 119.200          8.3
 4.8159E+01 119.070          8.9
 4.8205E+01 108.980          9.7
 4.8251E+01  90.861          9.9
 4.8297E+01  74.988          9.5
 4.8344E+01  61.710          9.8
 4.8390E+01  50.842         11.9
 4.8437E+01  39.028         11.1
 4.8484E+01  34.907          8.7
 4.8577E+01  28.671          9.
 4.8624E+01  25.105          9.1
 4.8671E+01  22.885          9.5
 4.8717E+01  20.615          9.7
 4.8764E+01  18.786          9.7
 4.8812E+01  17.161          9.8
 4.8859E+01  16.418          9.5
 4.8906E+01  16.267          9.4
 4.8953E+01  15.975          9.6
 4.9001E+01  15.346          9.6
 4.9048E+01  14.867         10.
 4.9095E+01  14.125         10.1
 4.9143E+01  13.859          9.8
 4.9191E+01  14.057          9.4
 4.9238E+01  15.144          9.
 4.9286E+01  16.202          9.6
 4.9334E+01  16.565         10.
 4.9382E+01  17.338          9.3
 4.9430E+01  18.969          9.
 4.9478E+01  21.196          9.1
 4.9526E+01  23.086          9.1
 4.9574E+01  26.282          8.8
 4.9622E+01  30.678          8.8
 4.9671E+01  36.736          8.6
 4.9719E+01  43.572          8.4
 4.9767E+01  51.118          9.
 4.9816E+01  62.049          9.3
 4.9865E+01  74.047          8.9
 4.9962E+01  83.098          8.3
 5.0011E+01  67.904         10.4
 5.0060E+01  50.390         10.1
 5.0109E+01  36.692         10.
 5.0158E+01  26.458         10.2
 5.0207E+01  18.807         11.1
 5.0256E+01  13.075         11.3
 5.0305E+01   9.190         11.
 5.0354E+01   7.549         11.6
 5.0404E+01   6.809         11.7
 5.0453E+01   5.767         12.7
 5.0503E+01   5.174         13.1
 5.0553E+01   5.113         12.2
 5.0602E+01   5.093         11.6
 5.0652E+01   4.872         12.6
 5.0702E+01   4.870         13.2
 5.0752E+01   5.007         12.3
 5.0802E+01   5.003         10.9
 5.0852E+01   4.998         10.5
 5.0902E+01   4.920         10.7
 5.0952E+01   4.765         10.4
 5.1002E+01   4.826         10.2
 5.1053E+01   4.828         10.5
 5.1103E+01   4.804         10.8
 5.1154E+01   4.852         10.
 5.1204E+01   4.989         10.6
 5.1255E+01   5.036         10.5
 5.1306E+01   5.319         10.7
 5.1356E+01   5.914         11.
 5.1407E+01   6.222         10.
 5.1458E+01   6.616          9.8
 5.1509E+01   7.309         10.
 5.1560E+01   7.713         10.2
 5.1611E+01   8.027         10.5
 5.1663E+01   8.626         10.6
 5.1714E+01   9.811          9.7
 5.1765E+01  11.347          9.2
 5.1817E+01  13.026          9.
 5.1869E+01  14.869          8.9
 5.1920E+01  16.917          8.5
 5.1972E+01  19.765          8.6
 5.2024E+01  22.400          8.6
 5.2075E+01  26.445          9.6
 5.2128E+01  31.239          9.1
 5.2179E+01  36.444          9.6
 5.2232E+01  42.289          8.8
 5.2284E+01  47.406          8.3
 5.2336E+01  57.120          9.
 5.2388E+01  67.226          8.9
 5.2441E+01  70.497          8.4
 5.2493E+01  74.403          8.1
 5.2599E+01  71.560          8.4
 5.2651E+01  67.158          8.1
 5.2704E+01  57.172          8.5
 5.2757E+01  47.439          8.7
 5.2810E+01  40.178          8.5
 5.2863E+01  35.557          8.5
 5.2916E+01  31.262          9.6
 5.2969E+01  27.321          9.2
 5.3023E+01  23.752          9.6
 5.3076E+01  19.066          9.1
 5.3130E+01  16.247          9.1
 5.3183E+01  13.951          9.4
 5.3237E+01  11.863          8.9
 5.3290E+01  10.183          9.6
 5.3344E+01   9.594          9.5
 5.3398E+01   9.319          9.6
 5.3452E+01   8.297         10.7
 5.3506E+01   7.458         11.8
 5.3560E+01   7.758         12.2
 5.3614E+01   7.023         10.9
 5.3668E+01   6.948          9.6
 5.3723E+01   6.816          9.5
 5.3777E+01   6.535          9.7
 5.3832E+01   5.969          9.8
 5.3886E+01   5.763          9.8
 5.3941E+01   6.165         10.2
 5.3996E+01   6.221         11.
 5.4051E+01   6.057         11.9
 5.4106E+01   5.870         12.1
 5.4161E+01   5.917         10.7
 5.4216E+01   6.037          9.8
 5.4271E+01   6.244          9.9
 5.4326E+01   6.590         10.3
 5.4381E+01   7.337          9.7
 5.4437E+01   8.523         10.
 5.4493E+01   8.981         10.9
 5.4548E+01   8.916         10.5
 5.4604E+01   8.963          9.5
 5.4660E+01   9.265          9.1
 5.4715E+01   9.492          9.2
 5.4771E+01  11.141          9.
 5.4827E+01  12.695          8.8
 5.4883E+01  13.194          9.4
 5.4940E+01  14.940         10.9
 5.4996E+01  17.284          9.9
 5.5052E+01  16.755          9.2
 5.5109E+01  18.734          9.5
 5.5165E+01  21.227          8.8
 5.5222E+01  23.928          8.6
 5.5279E+01  25.925          9.9
 5.5336E+01  30.876         10.3
 5.5392E+01  36.173          8.9
 5.5449E+01  43.218          8.3
 5.5507E+01  49.269          8.3
 5.5621E+01  63.525          8.2
 5.5678E+01  76.464          8.1
 5.5736E+01  89.413          8.4
 5.5793E+01 103.020          8.3
 5.5851E+01 114.690          8.6
 5.5909E+01 126.790          9.7
 5.5966E+01 147.700          8.2
 5.6024E+01 152.800          8.1
 5.6082E+01 160.350          9.
 5.6140E+01 161.680         10.5
 5.6198E+01 134.170         11.
 5.6257E+01 109.930          8.6
 5.6315E+01  93.478          8.3
 5.6373E+01  79.660          9.1
 5.6432E+01  65.395         10.6
 5.6491E+01  56.011          8.7
 5.6549E+01  48.562          8.4
 5.6608E+01  42.559          8.4
 5.6667E+01  39.361          8.4
 5.6726E+01  40.845          8.5
 5.6844E+01  42.456         10.7
 5.6903E+01  43.723          9.7
 5.6963E+01  46.945          8.9
 5.7022E+01  49.636          8.6
 5.7082E+01  57.174          8.5
 5.7141E+01  63.807          8.5
 5.7201E+01  71.545          8.9
 5.7261E+01  78.536          8.8
 5.7321E+01  84.415          8.2
 5.7381E+01  95.904          8.2
 5.7441E+01 108.380          8.3
 5.7501E+01 116.270          8.7
 5.7561E+01 120.670          9.4
 5.7622E+01 124.790          9.9
 5.7682E+01 133.300          9.7
 5.7743E+01 136.170          8.5
 5.7803E+01 136.100          8.2
 5.7864E+01 135.330          9.6
 5.7925E+01 133.070          9.2
 5.7986E+01 115.660          8.6
 5.8047E+01 103.200          8.2
 5.8108E+01  92.602          8.1
 5.8169E+01  79.845          8.5
 5.8231E+01  67.859          8.8
 5.8292E+01  59.693          9.
 5.8354E+01  51.789          8.2
 5.8415E+01  47.556          7.9
 5.8477E+01  42.742          9.
 5.8539E+01  36.583         10.2
 5.8601E+01  32.921          9.1
 5.8663E+01  31.325          8.1
 5.8725E+01  30.775          8.4
 5.8787E+01  30.790          8.7
 5.8850E+01  30.919          8.6
 5.8912E+01  31.814          8.3
 5.8974E+01  33.493          8.2
 5.9037E+01  34.299          8.4
 5.9100E+01  34.458          8.5
 5.9162E+01  34.286          8.3
 5.9225E+01  34.120          8.3
 5.9289E+01  35.018          8.5
 5.9352E+01  35.750          8.6
 5.9415E+01  36.335          8.3
 5.9478E+01  37.795          8.5
 5.9542E+01  37.738          8.3
 5.9605E+01  38.595          8.4
 5.9669E+01  40.381          8.9
 5.9732E+01  40.820          8.4
 5.9796E+01  40.560          8.3
 5.9860E+01  41.584          8.7
 5.9924E+01  44.160          9.1
 5.9988E+01  46.415          9.1
 6.0053E+01  48.325          8.8
 6.0117E+01  55.041          8.6
 6.0181E+01  61.729          8.3
 6.0246E+01  63.661          9.2
 6.0311E+01  62.588          9.1
 6.0375E+01  60.361          8.8
 6.0440E+01  53.021          8.6
 6.0505E+01  45.993          8.4
 6.0570E+01  40.020          9.8
 6.0635E+01  33.111          9.1
 6.0701E+01  27.151          9.2
 6.0766E+01  22.505          9.2
 6.0832E+01  19.499          8.8
 6.0897E+01  16.585          9.
 6.0963E+01  14.947          8.9
 6.1029E+01  13.968          8.9
 6.1094E+01  13.171          8.8
 6.1160E+01  12.812          9.1
 6.1227E+01  12.687          9.7
 6.1293E+01  13.064          9.2
 6.1359E+01  14.458          8.7
 6.1426E+01  16.175          8.9
 6.1492E+01  18.367          9.7
 6.1559E+01  21.212          9.4
 6.1626E+01  23.818          8.7
 6.1693E+01  26.110          9.
 6.1760E+01  28.102          9.5
 6.1827E+01  29.116          9.1
 6.1894E+01  28.076          8.8
 6.1961E+01  24.784          8.6
 6.2029E+01  22.721          9.3
 6.2096E+01  20.435          9.5
 6.2164E+01  18.218          9.7
 6.2232E+01  17.312          8.7
 6.2300E+01  17.563          8.9
 6.2368E+01  18.068          9.4
 6.2436E+01  19.363         10.4
 6.2504E+01  19.303         10.
 6.2572E+01  18.459          9.
 6.2640E+01  18.292          8.8
 6.2778E+01  19.997          8.6
 6.2847E+01  21.588          9.1
 6.2915E+01  22.390          8.8
 6.2984E+01  24.628          8.9
 6.3053E+01  27.837         10.2
 6.3123E+01  32.023          9.5
 6.3192E+01  30.600          9.2
 6.3262E+01  26.307          9.1
 6.3331E+01  23.727          8.7
 6.3401E+01  21.665          9.2
 6.3471E+01  19.813          9.6
 6.3541E+01  19.826          9.1
 6.3611E+01  20.884          8.6
 6.3681E+01  22.691          8.6
 6.3751E+01  25.070          8.8
 6.3821E+01  27.505          9.2
 6.3892E+01  30.396          8.6
 6.3962E+01  33.776          8.5
 6.4033E+01  35.977          8.9
 6.4104E+01  38.707          9.
 6.4175E+01  40.276          8.4
 6.4246E+01  40.963          8.6
 6.4317E+01  42.180          8.6
 6.4389E+01  45.682          9.6
 6.4460E+01  50.783          9.1
 6.4532E+01  53.886          8.5
 6.4603E+01  58.943          8.5
 6.4675E+01  66.049          9.7
 6.4747E+01  76.477         10.7
 6.4819E+01  92.648         10.2
 6.4891E+01 112.560          8.8
 6.4963E+01 130.200          8.2
 6.5036E+01 144.790          8.5
 6.5108E+01 170.190          9.2
 6.5181E+01 193.860          8.3
 6.5254E+01 208.700          8.4
 6.5400E+01 212.440         10.6
 6.5473E+01 214.190          9.1
 6.5546E+01 214.080          8.4
 6.5619E+01 207.270          8.6
 6.5693E+01 189.740          8.6
 6.5767E+01 174.640          8.5
 6.5840E+01 152.600          9.1
 6.5914E+01 130.920          8.7
 6.5988E+01 105.510          8.7
 6.6062E+01  83.316          8.9
 6.6136E+01  70.080          9.4
 6.6211E+01  66.135          9.2
 6.6285E+01  69.497          8.9
 6.6360E+01  84.694          9.5
 6.6435E+01 104.780          9.4
 6.6510E+01 123.040          8.7
 6.6584E+01 143.520          8.7
 6.6660E+01 162.770          8.3
 6.6735E+01 170.970          8.8
 6.6810E+01 171.660          8.8
 6.6886E+01 156.910          8.7
 6.6961E+01 128.190          8.5
 6.7037E+01 104.020          8.3
 6.7113E+01  83.320          9.3
 6.7189E+01  64.334         10.1
 6.7265E+01  52.380          9.4
 6.7341E+01  45.121         11.3
 6.7418E+01  35.119         12.4
 6.7494E+01  31.298          8.9
 6.7571E+01  27.260          8.8
 6.7648E+01  25.131          8.6
 6.7725E+01  24.252          8.5
 6.7802E+01  25.557          8.6
 6.7879E+01  28.849          9.7
 6.7956E+01  30.271          9.
 6.8111E+01  34.776          8.6
 6.8189E+01  37.385          8.2
 6.8267E+01  42.196          8.6
 6.8345E+01  46.439          8.5
 6.8423E+01  48.324          8.2
 6.8501E+01  49.668          8.1
 6.8580E+01  49.528          8.4
 6.8658E+01  42.295          8.5
 6.8737E+01  31.377         10.4
 6.8816E+01  22.991          9.5
 6.8895E+01  20.057          8.7
 6.8974E+01  16.957         10.7
 6.9053E+01  14.314          9.4
 6.9132E+01  12.959          8.5
 6.9212E+01  12.817          8.7
 6.9291E+01  12.824          9.1
 6.9371E+01  12.889          9.3
 6.9451E+01  13.451          9.1
 6.9531E+01  13.490          8.7
 6.9611E+01  14.041          9.3
 6.9692E+01  15.746         10.1
 6.9772E+01  16.005          9.2
 6.9853E+01  16.320          8.6
 6.9934E+01  15.919          8.8
 7.0014E+01  16.026          8.6
 7.0095E+01  16.358          8.6
 7.0177E+01  16.521          8.8
 7.0258E+01  16.894          9.3
 7.0339E+01  17.940          8.5
 7.0421E+01  18.901          9.2
 7.0503E+01  19.985          8.8
 7.0584E+01  21.311          8.7
 7.0666E+01  23.900          8.2
 7.0749E+01  26.152          8.9
 7.0831E+01  30.549          9.1
 7.0913E+01  36.826          9.2
 7.0996E+01  38.396          9.2
 7.1079E+01  40.394          8.4
 7.1161E+01  47.336          8.3
 7.1244E+01  56.931          8.7
 7.1327E+01  69.310         12.7
 7.1494E+01  98.611          8.4
 7.1578E+01 120.550          8.2
 7.1662E+01 152.310          9.9
 7.1745E+01 193.850          8.2
 7.1914E+01 251.340          8.4
 7.1998E+01 301.860          7.8
 7.2082E+01 345.020          8.4
 7.2167E+01 378.160          8.3
 7.2252E+01 396.820          8.1
 7.2337E+01 378.860          8.7
 7.2422E+01 325.310          9.1
 7.2507E+01 260.560         10.6
 7.2593E+01 187.350         11.1
 7.2678E+01 140.850          9.1
 7.2764E+01 115.690          8.1
 7.2850E+01  99.192          8.3
 7.2936E+01  90.083          8.8
 7.3022E+01  83.919          8.6
 7.3108E+01  84.365          8.1
 7.3194E+01  85.771          9.2
 7.3281E+01  88.878          9.7
 7.3368E+01  98.650          9.6
 7.3455E+01 110.630          8.
 7.3542E+01 125.810          8.6
 7.3629E+01 141.670          9.2
 7.3716E+01 145.660          9.5
 7.3804E+01 140.570          8.3
 7.3892E+01 124.680          8.1
 7.3979E+01 113.250          8.7
 7.4067E+01 115.170          8.6
 7.4155E+01 117.540          8.8
 7.4244E+01 126.120          8.7
 7.4332E+01 138.300          8.1
 7.4421E+01 150.730          8.4
 7.4510E+01 146.370          8.7
 7.4599E+01 124.470          8.8
 7.4688E+01 109.300          8.2
 7.4777E+01  92.452          9.4
 7.4866E+01  73.095          9.8
 7.4956E+01  59.019          8.9
 7.5046E+01  46.138         11.
 7.5135E+01  38.199          8.4
 7.5226E+01  33.245          8.9
 7.5316E+01  29.074         10.1
 7.5406E+01  25.414          9.4
 7.5497E+01  22.459          8.8
 7.5588E+01  20.510          8.3
 7.5769E+01  17.897          8.8
 7.5861E+01  17.383         10.1
 7.5952E+01  17.358          8.6
 7.6044E+01  18.399          8.6
 7.6135E+01  18.659          8.8
 7.6227E+01  20.740          9.
 7.6319E+01  24.822          9.3
 7.6411E+01  28.635          8.2
 7.6504E+01  31.806          8.8
 7.6596E+01  36.449          9.4
 7.6689E+01  37.531          8.9
 7.6782E+01  39.408          8.2
 7.6968E+01  45.373          8.2
 7.7061E+01  45.042          8.7
 7.7155E+01  45.147          8.7
 7.7249E+01  46.168          8.3
 7.7343E+01  48.972          8.4
 7.7437E+01  50.894          9.
 7.7531E+01  54.523          9.2
 7.7625E+01  62.954          8.8
 7.7720E+01  74.760          9.3
 7.7815E+01  87.830          8.8
 7.7910E+01 100.230          9.5
 7.8005E+01 108.190          9.5
 7.8100E+01 100.740          8.8
 7.8195E+01  80.748          9.1
 7.8291E+01  64.628          9.2
 7.8387E+01  51.640         10.5
 7.8483E+01  42.848          9.7
 7.8579E+01  41.280          8.6
 7.8675E+01  45.172          8.2
 7.8772E+01  51.274          8.7
 7.8869E+01  59.003          9.4
 7.8965E+01  67.213          9.6
 7.9062E+01  79.112          8.6
 7.9160E+01  90.068          8.7
 7.9257E+01 104.600         10.1
 7.9355E+01 115.760          8.7
 7.9452E+01 119.670          8.
 7.9550E+01 112.910          8.5
 7.9648E+01  99.618          9.7
 7.9747E+01  80.598         10.1
 7.9845E+01  71.765          9.4
 7.9944E+01  58.548          8.9
 8.0043E+01  47.872          8.4
 8.0142E+01  40.823          8.8
 8.0241E+01  34.311          9.7
 8.0340E+01  28.907          8.5
 8.0440E+01  25.090          8.6
 8.0540E+01  21.655          8.7
 8.0640E+01  17.727          8.9
 8.0740E+01  14.562          8.5
 8.0840E+01  12.908          8.5
 8.1041E+01  11.822          8.6
 8.1142E+01  12.686          9.
 8.1243E+01  13.694          9.
 8.1345E+01  14.668          8.4
 8.1446E+01  16.016          8.7
 8.1548E+01  17.066          9.3
 8.1650E+01  18.642          9.7
 8.1752E+01  19.179          8.9
 8.1854E+01  20.402          8.4
 8.1956E+01  24.322          9.6
 8.2059E+01  30.282          8.2
 8.2162E+01  35.565          8.6
 8.2265E+01  42.004          8.7
 8.2368E+01  51.865          8.5
 8.2471E+01  55.606          8.6
 8.2575E+01  53.058          9.7
 8.2679E+01  40.128         12.5
 8.2783E+01  31.612          9.3
 8.2887E+01  23.186         10.2
 8.2991E+01  20.160          9.3
 8.3096E+01  21.494          9.5
 8.3200E+01  24.001          8.5
 8.3305E+01  27.201          8.4
 8.3410E+01  30.929          8.4
 8.3516E+01  33.066          8.7
 8.3621E+01  35.297          9.3
 8.3727E+01  44.392          9.
 8.3833E+01  59.215          9.6
 8.3939E+01  76.288          8.8
 8.4046E+01  92.272         10.
 8.4152E+01 116.410          8.6
 8.4259E+01 135.170          8.2
 8.4366E+01 154.150          8.6
 8.4473E+01 154.500          9.2
 8.4581E+01 134.980         10.3
 8.4688E+01  99.298         10.1
 8.4796E+01  70.761          9.5
 8.4904E+01  51.714          9.2
 8.5012E+01  36.657          9.9
 8.5120E+01  27.033          8.6
 8.5229E+01  21.589          8.1
 8.5338E+01  19.259          8.2
 8.5447E+01  18.205          8.5
 8.5556E+01  18.484          8.8
 8.5666E+01  20.076          8.6
 8.5775E+01  22.850          8.2
 8.5885E+01  23.489          8.1
 8.5995E+01  24.007          8.3
 8.6106E+01  23.728          8.8
 8.6216E+01  20.971          8.7
 8.6327E+01  17.128          8.7
 8.6438E+01  14.025          8.5
 8.6549E+01  11.698          8.8
 8.6660E+01  11.168          9.6
 8.6772E+01  11.158          8.9
 8.6884E+01  11.552          8.5
 8.6996E+01  12.601          8.8
 8.7108E+01  12.654          8.7
 8.7220E+01  11.288          9.6
 8.7333E+01   9.545          9.
 8.7446E+01   8.576          8.7
 8.7559E+01   8.970          9.1
 8.7672E+01  10.197          9.8
 8.7786E+01  12.525          8.5
 8.7899E+01  15.774          8.7
 8.8014E+01  18.913          8.7
 8.8128E+01  20.504          8.7
 8.8242E+01  20.258          8.7
 8.8357E+01  17.925          9.1
 8.8472E+01  14.878          9.7
 8.8587E+01  12.622          8.4
 8.8702E+01  12.759         10.1
 8.8818E+01  13.528          8.7
 8.8933E+01  15.683          8.5
 8.9049E+01  18.221          8.4
 8.9166E+01  19.899          9.1
 8.9282E+01  23.758         10.6
 8.9399E+01  28.768          8.6
 8.9516E+01  31.530          8.
 8.9633E+01  36.046          9.4
 8.9750E+01  41.313          8.8
 8.9868E+01  44.401          8.8
 8.9986E+01  49.533          8.2
 9.0104E+01  52.248          7.8
 9.0222E+01  57.472          8.
 9.0340E+01  63.048          8.1
 9.0459E+01  70.247          8.3
 9.0578E+01  75.095          8.
 9.0697E+01  75.265          7.8
 9.0817E+01  67.473          8.
 9.0937E+01  58.393          9.1
 9.1057E+01  47.185         10.3
 9.1177E+01  39.372          9.
 9.1297E+01  35.485          8.1
 9.1418E+01  34.501          8.6
 9.1539E+01  35.263          8.5
 9.1660E+01  37.149          8.3
 9.1781E+01  39.223          8.2
 9.1903E+01  42.255          8.2
 9.2025E+01  46.465          8.7
 9.2147E+01  51.862          8.4
 9.2269E+01  54.541          8.2
 9.2392E+01  57.488          8.2
 9.2515E+01  60.732          8.9
 9.2638E+01  65.257          9.5
 9.2761E+01  70.163          8.6
 9.2885E+01  72.301          7.9
 9.3008E+01  73.600          8.1
 9.3132E+01  72.460          8.8
 9.3257E+01  70.635          9.4
 9.3381E+01  60.636          8.5
 9.3506E+01  54.858          7.9
 9.3631E+01  49.013          8.
 9.3756E+01  48.001          8.3
 9.3882E+01  50.511          8.4
 9.4008E+01  51.113          8.3
 9.4134E+01  48.856          7.8
 9.4260E+01  44.767          8.2
 9.4387E+01  42.106          9.
 9.4514E+01  45.719          8.9
 9.4641E+01  50.640          8.3
 9.4768E+01  55.018          7.8
 9.4896E+01  59.217          8.6
 9.5024E+01  66.015         10.2
 9.5152E+01  75.720          8.5
 9.5280E+01  82.554          8.1
 9.5409E+01  89.139          8.
 9.5538E+01  99.514          8.8
 9.5667E+01 116.830          9.
 9.5796E+01 132.470          8.4
 9.5926E+01 154.050          8.2
 9.6056E+01 182.840          9.3
 9.6186E+01 207.780          9.6
 9.6317E+01 233.520          8.8
 9.6447E+01 232.100          8.4
 9.6710E+01 134.370          9.3
 9.6841E+01  90.700         12.7
 9.6973E+01  58.834          9.2
 9.7105E+01  46.259          8.6
 9.7238E+01  41.272          8.2
 9.7370E+01  39.826          8.3
 9.7503E+01  39.163          9.1
 9.7636E+01  34.029          9.
 9.7770E+01  31.405          7.9
 9.7903E+01  27.537          9.1
 9.8037E+01  24.387          9.1
 9.8172E+01  28.101          9.2
 9.8306E+01  30.074          8.2
 9.8441E+01  32.954          8.
 9.8576E+01  34.352          8.9
 9.8711E+01  43.141         11.9
 9.8847E+01  48.577          9.2
 9.8983E+01  53.736          8.3
 9.9119E+01  57.832          8.7
 9.9256E+01  67.254          9.3
 9.9393E+01  78.323         10.2
 9.9530E+01  88.629          8.4
 9.9667E+01  98.678          8.
 9.9805E+01 105.640          8.1
 9.9943E+01 107.510          8.6
 1.0008E+02 103.330          8.7
 1.0022E+02  71.189         12.2
 1.0036E+02  43.503         10.6
 1.0050E+02  29.290         10.7
 1.0064E+02  21.736          9.1
 1.0078E+02  14.892         12.
 1.0092E+02  11.619          8.7
 1.0106E+02  10.190          8.7
 1.0120E+02   9.500          9.1
 1.0134E+02   9.618          9.2
 1.0148E+02   9.881          9.4
 1.0162E+02  10.013          8.6
 1.0176E+02  11.173          8.9
 1.0190E+02  12.650          9.1
 1.0205E+02  13.779          9.2
 1.0219E+02  15.585          8.5
 1.0233E+02  17.418          8.1
 1.0247E+02  17.845          8.3
 1.0262E+02  17.924          9.2
 1.0276E+02  16.516          9.5
 1.0291E+02  14.370          8.8
 1.0305E+02  14.067          8.1
 1.0320E+02  15.032          9.5
 1.0334E+02  14.597         10.3
 1.0349E+02  14.688          9.4
 1.0363E+02  14.688          8.4
 1.0378E+02  15.686          9.1
 1.0392E+02  17.419          9.7
 1.0407E+02  18.629          9.6
 1.0422E+02  20.058          8.5
 1.0436E+02  20.736          8.6
 1.0451E+02  21.176          9.
 1.0466E+02  23.128          9.2
 1.0481E+02  27.604          9.
 1.0496E+02  33.681          8.7
 1.0511E+02  42.038          9.5
 1.0525E+02  51.677          9.1
 1.0540E+02  57.187          8.7
 1.0555E+02  55.836          8.8
 1.0570E+02  43.951          9.2
 1.0585E+02  30.853         12.5
 1.0600E+02  19.280         13.4
 1.0616E+02  12.987          9.5
 1.0631E+02  10.419          9.
 1.0646E+02   9.906          9.
 1.0661E+02  10.700          9.3
 1.0676E+02  12.004          9.9
 1.0691E+02  13.722         10.2
 1.0707E+02  15.267          9.1
 1.0722E+02  17.242          9.1
 1.0737E+02  21.016          8.9
 1.0753E+02  24.179          9.4
 1.0768E+02  26.624          8.7
 1.0784E+02  25.371          8.2
 1.0799E+02  26.902          9.2
 1.0815E+02  28.991          9.5
 1.0830E+02  30.679          9.3
 1.0846E+02  33.017          8.9
 1.0861E+02  37.984          9.
 1.0877E+02  49.121         10.1
 1.0893E+02  61.209         10.1
 1.0909E+02  73.983          9.6
 1.0924E+02  84.540          8.6
 1.0940E+02  93.377          8.5
 1.0956E+02  99.090          9.
 1.0972E+02  99.866          9.9
 1.0988E+02  88.030          9.3
 1.1004E+02  80.604          8.
 1.1020E+02  85.167          8.3
 1.1036E+02  92.507          8.7
 1.1052E+02  99.530          9.
 1.1068E+02 105.560          8.3
 1.1084E+02 112.100          7.9
 1.1100E+02 115.030          8.7
 1.1116E+02 112.940          9.2
 1.1132E+02  98.652          9.2
 1.1149E+02  77.763          9.9
 1.1165E+02  59.822          9.3
 1.1181E+02  42.609          9.3
 1.1198E+02  31.354         10.1
 1.1214E+02  23.583          9.4
 1.1230E+02  20.095          8.4
 1.1247E+02  18.051          8.7
 1.1263E+02  15.456          9.9
 1.1280E+02  11.254         12.2
 1.1297E+02   8.165         10.1
 1.1313E+02   6.847          8.9
 1.1330E+02   6.890          9.1
 1.1346E+02   7.639          9.7
 1.1363E+02   8.084          9.3
 1.1380E+02   8.647          8.8
 1.1397E+02   9.728          8.3
 1.1414E+02  11.325          8.8
 1.1430E+02  12.995          9.3
 1.1447E+02  15.388          8.7
 1.1464E+02  17.193          7.8
 1.1481E+02  18.589          8.4
 1.1498E+02  19.600          8.8
 1.1515E+02  17.986          9.1
 1.1532E+02  15.927          8.8
 1.1549E+02  14.847          8.2
 1.1567E+02  14.873          9.2
 1.1584E+02  16.561          9.3
 1.1601E+02  20.513          9.5
 1.1618E+02  25.147          8.
 1.1636E+02  30.211          8.2
 1.1653E+02  34.741          9.1
 1.1671E+02  39.348          8.5
 1.1688E+02  37.007          7.9
 1.1705E+02  33.609          8.
 1.1723E+02  31.097          8.1
 1.1741E+02  28.763          8.4
 1.1758E+02  26.641          8.7
 1.1776E+02  27.196          8.1
 1.1793E+02  28.830          7.9
 1.1811E+02  31.670          8.4
 1.1829E+02  35.340          8.9
 1.1847E+02  37.330          8.7
 1.1865E+02  38.476          8.3
 1.1882E+02  37.440          8.
 1.1900E+02  33.532          8.7
 1.1918E+02  27.156          9.4
 1.1936E+02  22.393          8.6
 1.1954E+02  20.533          8.2
 1.1972E+02  20.679          8.4
 1.1991E+02  21.320          8.9
 1.2009E+02  23.200          8.8
 1.2027E+02  25.445          8.1
 1.2045E+02  27.146          8.2
 1.2064E+02  26.712          8.4
 1.2082E+02  24.842          8.5
 1.2100E+02  23.525          8.6
 1.2119E+02  23.895          8.2
 1.2137E+02  25.117          8.2
 1.2156E+02  27.412          8.4
 1.2174E+02  31.530          8.7
 1.2193E+02  35.380          8.8
 1.2211E+02  40.543          8.2
 1.2230E+02  45.818          8.3
 1.2249E+02  48.553          8.9
 1.2268E+02  49.761          8.6
 1.2286E+02  47.722          8.3
 1.2305E+02  42.156          8.3
 1.2324E+02  36.542          9.
 1.2343E+02  29.805          9.5
 1.2362E+02  25.417          9.5
 1.2381E+02  22.326          9.
 1.2400E+02  20.220          8.5
 1.2419E+02  18.889          8.8
 1.2438E+02  18.578          9.6
 1.2457E+02  17.196          9.4
 1.2477E+02  18.439          8.6
 1.2496E+02  21.718          9.7
 1.2515E+02  26.323          9.9
 1.2535E+02  30.835          9.1
 1.2554E+02  33.240          8.4
 1.2574E+02  35.418          8.4
 1.2593E+02  37.927          9.1
 1.2613E+02  37.681         10.2
 1.2632E+02  34.899          9.4
 1.2652E+02  34.089          8.4
 1.2672E+02  35.905          8.4
 1.2711E+02  43.604          9.4
 1.2731E+02  49.980          8.6
 1.2751E+02  54.647          8.
 1.2771E+02  57.006          8.
 1.2791E+02  52.078          8.4
 1.2811E+02  49.831          8.9
 1.2831E+02  52.877          8.9
 1.2851E+02  59.403          8.1
 1.2871E+02  64.817          8.2
 1.2891E+02  68.342          9.2
 1.2911E+02  74.054          9.1
 1.2932E+02  80.913          8.5
 1.2952E+02  91.910          8.2
 1.2973E+02 104.750          8.5
 1.2993E+02 114.100          8.1
 1.3013E+02 107.430          8.7
 1.3034E+02  81.072         11.1
 1.3055E+02  49.665         10.1
 1.3075E+02  39.324          8.8
 1.3096E+02  39.437          8.7
 1.3117E+02  40.400          8.2
 1.3137E+02  39.383          8.2
 1.3158E+02  37.376          9.
 1.3179E+02  36.083          9.4
 1.3200E+02  40.771          8.9
 1.3221E+02  45.140          8.
 1.3242E+02  48.567          8.
 1.3263E+02  51.511          8.2
 1.3284E+02  52.604          8.8
 1.3305E+02  51.307          8.9
 1.3327E+02  42.783          9.1
 1.3348E+02  32.270          8.9
 1.3369E+02  29.636          9.4
 1.3391E+02  30.426          9.5
 1.3412E+02  27.360          8.4
 1.3434E+02  27.935          8.2
 1.3455E+02  30.657          9.1
 1.3477E+02  35.298          8.9
 1.3498E+02  38.752          8.6
 1.3520E+02  39.823          8.3
 1.3542E+02  38.428          8.3
 1.3564E+02  35.688          9.1
 1.3585E+02  32.029         10.3
 1.3607E+02  32.191          9.3
 1.3629E+02  34.943          8.5
 1.3651E+02  37.930          8.8
 1.3673E+02  41.663          9.6
 1.3696E+02  45.549          9.2
 1.3718E+02  46.758          8.6
 1.3740E+02  48.716          8.3
 1.3762E+02  48.775          8.8
 1.3785E+02  43.437          9.5
 1.3807E+02  36.960          8.7
 1.3830E+02  29.167         10.
 1.3852E+02  22.326          9.7
 1.3875E+02  21.027          9.
 1.3897E+02  21.129          9.2
 1.3920E+02  21.197          8.7
 1.3943E+02  21.166          8.4
 1.3965E+02  21.216          8.6
 1.3988E+02  20.814          9.4
 1.4011E+02  20.124          9.1
 1.4034E+02  16.285          8.9
 1.4057E+02  13.436          8.9
 1.4080E+02  11.903          8.6
 1.4103E+02  11.111          9.2
 1.4126E+02  10.014          9.1
 1.4150E+02   9.162          8.8
 1.4173E+02   8.311          9.
 1.4196E+02   7.764          9.6
 1.4220E+02   7.330         10.2
 1.4243E+02   7.133          9.7
 1.4267E+02   6.769          9.4
 1.4290E+02   6.874          9.4
 1.4314E+02   7.884         10.
 1.4338E+02   9.625         10.4
 1.4361E+02  11.552          9.5
 1.4385E+02  13.286          8.9
 1.4409E+02  14.962          9.
 1.4433E+02  16.536          9.6
 1.4457E+02  18.157          9.8
 1.4481E+02  20.037          8.8
 1.4505E+02  20.732          8.5
 1.4529E+02  21.605          9.1
 1.4553E+02  21.863         10.1
 1.4578E+02  21.784          9.9
 1.4602E+02  21.893          8.8
 1.4627E+02  21.777          8.2
 1.4651E+02  20.445          9.5
 1.4676E+02  15.191         10.9
 1.4700E+02  10.807         11.9
 1.4725E+02   9.514          8.7
 1.4750E+02  10.302          8.7
 1.4774E+02  11.477          9.4
 1.4799E+02  12.223          9.6
 1.4824E+02  12.480          8.5
 1.4849E+02  12.751          8.3
 1.4874E+02  11.213          8.9
 1.4899E+02   8.784          9.3
 1.4924E+02   8.142          9.5
 1.4950E+02   8.387          9.
 1.4975E+02   9.130          8.6
 1.5000E+02  10.705          8.7
 1.5026E+02  13.058          9.1
 1.5051E+02  15.381          9.6
 1.5077E+02  19.123          8.8
 1.5102E+02  22.618          8.2
 1.5128E+02  25.634          8.3
 1.5154E+02  29.995          8.8
 1.5180E+02  32.732          8.2
 1.5206E+02  28.836          8.7
 1.5231E+02  22.721          8.6
 1.5257E+02  19.606          9.
 1.5284E+02  19.584          8.5
 1.5310E+02  20.989          8.
 1.5336E+02  22.775          8.1
 1.5362E+02  25.110          8.9
 1.5389E+02  29.520          9.9
 1.5415E+02  29.029          8.2
 1.5441E+02  26.138          8.7
 1.5468E+02  20.057          9.3
 1.5495E+02  14.005         10.9
 1.5521E+02   9.465          9.7
 1.5548E+02   7.890          9.
 1.5575E+02   7.127          8.7
 1.5602E+02   7.122          9.2
 1.5629E+02   7.497          9.5
 1.5656E+02   8.058          9.3
 1.5683E+02   8.818          8.7
 1.5710E+02   9.675          8.7
 1.5737E+02  10.473          9.7
 1.5765E+02  10.771          9.7
 1.5792E+02  11.293          9.2
 1.5819E+02  12.066          8.8
 1.5847E+02  13.919          8.8
 1.5875E+02  16.226          9.5
 1.5902E+02  18.035          9.6
 1.5930E+02  20.627          9.1
 1.5958E+02  24.221          8.5
 1.5986E+02  29.676          8.6
 1.6014E+02  34.543          9.1
 1.6042E+02  40.719          9.3
 1.6070E+02  45.265          8.
 1.6098E+02  50.563          7.9
 1.6126E+02  56.200          8.
 1.6155E+02  56.808          8.
 1.6183E+02  55.247          7.8
 1.6212E+02  58.239          8.1
 1.6240E+02  63.601          8.4
 1.6269E+02  61.516          9.7
 1.6298E+02  51.794          9.1
 1.6326E+02  49.442          8.2
 1.6355E+02  47.876          9.1
 1.6384E+02  28.846         19.2
 1.6413E+02  13.897          9.9
 1.6442E+02  14.291          9.3
 1.6472E+02  15.009          8.8
 1.6530E+02  16.903          9.6
 1.6560E+02  19.141         10.7
 1.6589E+02  21.240         10.4
 1.6619E+02  22.401          9.5
 1.6648E+02  23.390          9.2
 1.6678E+02  23.602         10.
 1.6708E+02  22.651         10.7
 1.6738E+02  21.037         10.6
 1.6768E+02  18.282          9.4
 1.6798E+02  15.427         10.8
 1.6828E+02  11.837         11.6
 1.6858E+02  10.438         11.1
 1.6888E+02  10.659         10.2
 1.6919E+02  11.615          9.9
 1.6949E+02  12.594         10.1
 1.6980E+02  14.104         11.3
 1.7010E+02  15.273         10.3
 1.7041E+02  18.777          9.5
 1.7072E+02  22.439          9.9
 1.7103E+02  26.034         11.1
 1.7134E+02  29.148         10.4
 1.7165E+02  31.865          9.3
 1.7196E+02  30.262         10.6
 1.7227E+02  21.972         10.8
 1.7258E+02  17.754          9.4
 1.7290E+02  18.302          9.3
 1.7321E+02  19.482          8.9
 1.7353E+02  20.643          9.3
 1.7384E+02  21.445          9.6
 1.7416E+02  22.458         10.4
 1.7448E+02  23.905          9.3
 1.7480E+02  23.023          9.
 1.7512E+02  22.283          9.1
 1.7544E+02  22.450          9.6
 1.7576E+02  24.580         10.6
 1.7608E+02  27.075          9.6
 1.7641E+02  28.921          8.7
 1.7673E+02  29.437          9.3
 1.7706E+02  29.991          9.6
 1.7738E+02  32.942          9.7
 1.7771E+02  35.641          8.8
 1.7804E+02  39.322          8.9
 1.7836E+02  43.032          9.6
 1.7869E+02  45.066         10.2
 1.7902E+02  50.327          9.9
 1.7936E+02  51.334          8.6
 1.7969E+02  49.482          9.8
 1.8002E+02  42.137          9.7
 1.8036E+02  39.232         10.1
 1.8069E+02  37.712          9.6
 1.8103E+02  34.014          8.6
 1.8137E+02  29.387          9.3
 1.8170E+02  26.379          9.9
 1.8204E+02  28.223          9.2
 1.8238E+02  28.497          9.1
 1.8272E+02  25.607          9.2
 1.8306E+02  26.176          9.6
 1.8341E+02  27.090          9.8
 1.8375E+02  22.169         10.6
 1.8410E+02  17.812          9.1
 1.8444E+02  15.347          9.
 1.8479E+02  15.415         10.4
 1.8514E+02  17.592         10.4
 1.8549E+02  18.674          8.9
 1.8584E+02  20.822          8.7
 1.8619E+02  23.642          8.9
 1.8654E+02  27.312          9.7
 1.8689E+02  28.267          9.5
 1.8724E+02  25.731          9.3
 1.8760E+02  24.492          9.2
 1.8795E+02  22.001         11.1
 1.8831E+02  15.200         13.
 1.8867E+02  13.003         10.1
 1.8903E+02  13.535          9.3
 1.8939E+02  14.954          9.6
 1.8975E+02  16.504          9.9
 1.9011E+02  17.829          9.9
 1.9047E+02  19.265          9.2
 1.9084E+02  20.920          9.
 1.9120E+02  20.833          9.1
 1.9157E+02  21.759          9.6
 1.9193E+02  23.389          9.6
 1.9230E+02  22.291          9.
 1.9267E+02  20.602          8.7
 1.9304E+02  20.060          9.3
 1.9341E+02  18.948          9.8
 1.9378E+02  16.425          9.9
 1.9416E+02  14.497          9.2
 1.9453E+02  14.235          9.
 1.9491E+02  13.753         10.
 1.9528E+02  13.077          9.8
 1.9566E+02  13.530          9.
 1.9604E+02  15.280          8.8
 1.9642E+02  16.538          9.3
 1.9680E+02  17.897          9.5
 1.9719E+02  19.466          9.2
 1.9757E+02  22.920          8.8
 1.9795E+02  25.916          8.6
 1.9834E+02  26.604          9.2
 1.9873E+02  25.496          9.9
 1.9911E+02  25.146          9.4
 1.9950E+02  25.204          8.6
 1.9989E+02  25.254          8.9
 2.0028E+02  27.957         10.2
 2.0068E+02  30.227         10.6
 2.0107E+02  34.720          9.3
 2.0146E+02  44.370          8.7
 2.0186E+02  45.142         12.6
 2.0226E+02  29.837         11.5
 2.0265E+02  19.728         10.7
 2.0305E+02  19.786          8.6
 2.0345E+02  20.784          8.6
 2.0386E+02  19.870          9.4
 2.0426E+02  20.998          9.9
 2.0466E+02  22.478          9.3
 2.0507E+02  24.269          8.6
 2.0548E+02  26.291          8.7
 2.0588E+02  28.625          9.
 2.0629E+02  30.366          9.1
 2.0670E+02  32.736          8.5
 2.0711E+02  33.878          8.6
 2.0753E+02  37.476          8.6
 2.0794E+02  40.607          8.9
 2.0835E+02  46.201          9.1
 2.0877E+02  53.629          8.1
 2.0919E+02  51.346          9.4
 2.0961E+02  40.060          9.1
 2.1003E+02  34.562          9.8
 2.1045E+02  33.841          9.5
 2.1087E+02  28.194          8.6
 2.1130E+02  26.444          8.5
 2.1172E+02  28.703          8.9
 2.1215E+02  31.412          9.2
 2.1257E+02  35.566          8.8
 2.1300E+02  37.454          8.8
 2.1343E+02  29.802         10.1
 2.1387E+02  19.142         10.1
 2.1430E+02  14.513          9.9
 2.1473E+02  13.364          9.7
 2.1517E+02  12.042          9.3
 2.1560E+02  10.550          9.9
 2.1604E+02   8.977         10.8
 2.1648E+02   8.720         10.8
 2.1692E+02   8.427         10.4
 2.1737E+02   5.858         10.
 2.1781E+02   5.559         10.7
 2.1826E+02   6.115         11.
 2.1870E+02   7.142         10.1
 2.1915E+02   7.853          9.5
 2.1960E+02   8.560          9.9
 2.2005E+02   9.404         10.6
 2.2050E+02  10.525          9.5
 2.2095E+02  12.863          8.7
 2.2141E+02  14.435          8.9
 2.2186E+02  15.153          8.9
 2.2232E+02  15.801          8.9
 2.2278E+02  17.189          8.6
 2.2324E+02  18.644          8.4
 2.2370E+02  17.342          8.9
 2.2417E+02  13.154          9.2
 2.2463E+02  11.140          9.9
 2.2510E+02  12.164          9.1
 2.2556E+02  14.056          8.6
 2.2603E+02  15.015          8.8
 2.2651E+02  17.434          9.3
 2.2698E+02  18.294          9.1
 2.2745E+02  17.256          8.7
 2.2793E+02  16.513          8.7
 2.2840E+02  18.226          9.3
 2.2888E+02  18.962          9.7
 2.2936E+02  19.142          9.2
 2.2984E+02  20.563          8.6
 2.3032E+02  21.896          8.4
 2.3081E+02  22.394          8.6
 2.3129E+02  23.078          9.6
 2.3178E+02  23.796          9.1
 2.3227E+02  24.730          8.4
 2.3276E+02  24.051          8.9
 2.3325E+02  20.419          9.8
 2.3374E+02  18.266          9.9
 2.3424E+02  17.738          9.4
 2.3473E+02  18.032          8.8
 2.3523E+02  20.407          8.7
 2.3573E+02  21.304          9.7
 2.3623E+02  20.317          9.3
 2.3673E+02  21.021          8.3
 2.3724E+02  23.373          8.7
 2.3774E+02  24.249          9.2
 2.3825E+02  23.930          9.9
 2.3876E+02  22.812          9.2
 2.3927E+02  24.394          8.5
 2.3978E+02  25.327          8.7
 2.4030E+02  24.617          9.5
 2.4081E+02  24.574          9.9
 2.4133E+02  24.694          8.5
 2.4185E+02  24.664          8.4
 2.4237E+02  22.273          8.8
 2.4289E+02  16.406          9.3
 2.4342E+02  13.888          9.4
 2.4394E+02  12.086          9.
 2.4447E+02  11.884          8.9
 2.4500E+02  13.010          9.2
 2.4553E+02  14.088          9.2
 2.4606E+02  14.997          8.6
 2.4660E+02  15.352          8.8
 2.4713E+02  14.651          8.8
 2.4767E+02  13.550          9.3
 2.4821E+02  12.414          9.5
 2.4875E+02  13.796          8.9
 2.4930E+02  16.107          8.9
 2.4984E+02  18.508          9.
 2.5039E+02  21.681          8.9
 2.5094E+02  31.222         11.
 2.5149E+02  33.334          9.6
 2.5204E+02  28.202          8.6
 2.5259E+02  33.848          8.9
 2.5315E+02  35.230          9.4
 2.5371E+02  27.876         12.6
 2.5427E+02  21.087          8.7
 2.5483E+02  23.489          8.7
 2.5539E+02  29.904          9.1
 2.5596E+02  32.399          9.1
 2.5652E+02  31.465          8.3
 2.5709E+02  34.916          8.8
 2.5766E+02  40.339          9.8
 2.5824E+02  44.099          9.2
 2.5881E+02  41.978          8.9
 2.5939E+02  33.623          8.3
 2.5997E+02  27.944          9.1
 2.6055E+02  28.660          9.5
 2.6113E+02  32.552          8.7
 2.6171E+02  35.191          8.3
 2.6230E+02  37.923          8.
 2.6289E+02  41.542          8.1
 2.6348E+02  45.096          8.4
 2.6407E+02  47.266          9.
 2.6466E+02  41.065         10.4
 2.6526E+02  27.271          9.9
 2.6586E+02  22.994          8.8
 2.6646E+02  22.615          9.3
 2.6706E+02  25.499          8.8
 2.6767E+02  27.739          9.8
 2.6827E+02  23.507          9.9
 2.6888E+02  19.373          9.3
 2.6949E+02  22.134         10.
 2.7010E+02  27.315          9.
 2.7072E+02  24.933          9.1
 2.7133E+02  25.121          8.7
 2.7195E+02  26.729          9.3
 2.7257E+02  30.462          9.1
 2.7320E+02  41.124          8.7
 2.7382E+02  44.413          9.7
 2.7445E+02  32.825          9.6
 2.7508E+02  28.153          8.7
 2.7571E+02  29.629          8.2
 2.7634E+02  30.667          8.1
 2.7698E+02  29.301          9.2
 2.7762E+02  26.580          9.7
 2.7826E+02  27.756          9.
 2.7890E+02  20.293         10.
 2.7955E+02  15.673          9.7
 2.8019E+02  17.337          8.8
 2.8084E+02  21.171          9.1
 2.8150E+02  23.698          8.9
 2.8215E+02  23.821          8.7
 2.8281E+02  28.460          8.6
 2.8347E+02  34.821          9.5
 2.8413E+02  28.832         10.5
 2.8479E+02  26.802          9.7
 2.8545E+02  19.457         12.3
 2.8612E+02  16.856          9.1
 2.8679E+02  18.334          9.7
 2.8747E+02  16.441          9.6
 2.8814E+02  20.665          9.9
 2.8882E+02  23.164         13.
 2.8950E+02  17.468         11.1
 2.9018E+02  17.471          9.4
 2.9086E+02  21.730          9.3
 2.9155E+02  26.671          8.3
 2.9224E+02  28.754          8.9
 2.9293E+02  21.303         12.2
 2.9363E+02  14.324          9.7
 2.9432E+02  11.906          9.7
 2.9502E+02  14.859          9.4
 2.9643E+02  18.129         13.3
 2.9714E+02  11.060         11.1
 2.9784E+02  14.384          9.7
 2.9856E+02  19.268          9.1
 2.9927E+02  17.346          9.2
 2.9999E+02  18.017         11.6
 3.0071E+02  24.006          8.7
 3.0143E+02  25.739          9.2
 3.0216E+02  18.121         12.5
 3.0288E+02   9.760         11.3
 3.0361E+02   8.340         11.5
 3.0434E+02   9.912         10.5
 3.0508E+02  14.031          9.8
 3.0582E+02  20.021          9.2
 3.0656E+02  17.666         13.2
 3.0730E+02  19.637         10.1
 3.0805E+02  18.033         14.4
 3.0880E+02  13.322          9.3
 3.0955E+02  14.972         10.
 3.1030E+02  16.508         10.7
 3.1106E+02  20.394          9.6
 3.1182E+02  24.259          8.8
 3.1258E+02  26.123          8.4
 3.1335E+02  19.396         15.6
 3.1412E+02  10.863         11.3
 3.1489E+02  10.865         10.4
 3.1566E+02  14.759          9.5
 3.1644E+02  17.147         12.6
 3.1722E+02  14.153         10.4
 3.1800E+02  15.808          9.6
 3.1878E+02  18.086          9.2
 3.1957E+02  15.865          8.9
 3.2036E+02  13.330          9.4
 3.2116E+02  11.608         10.2
 3.2196E+02  13.242         10.1
 3.2276E+02  13.964          9.3
 3.2356E+02  12.015          9.4
 3.2436E+02  10.714         10.7
 3.2517E+02  11.866         11.1
 3.2599E+02  12.445         10.1
 3.2680E+02  13.179          9.3
 3.2762E+02  13.939          9.6
 3.2844E+02  14.297         10.9
 3.2926E+02  16.206         11.
 3.3009E+02  16.485          9.5
 3.3092E+02  16.022          8.9
 3.3176E+02  14.955          9.6
 3.3259E+02  13.934         10.1
 3.3343E+02  15.376          9.8
 3.3428E+02  16.216          9.4
 3.3512E+02  14.149          9.2
 3.3597E+02  13.686          9.7
 3.3683E+02  16.173          9.8
 3.3768E+02  21.696          9.3
 3.3854E+02  23.804          8.7
 3.3941E+02  20.254          8.8
 3.4027E+02  17.579          9.4
 3.4114E+02  15.651          9.9
 3.4201E+02  14.628          9.6
 3.4289E+02  13.941          9.4
 3.4377E+02  13.427          9.8
 3.4465E+02  14.650         10.9
 3.4554E+02  19.362         11.8
 3.4643E+02  17.402         11.3
 3.4732E+02  21.058         10.1
 3.4822E+02  26.840          9.7
 3.4912E+02  27.596          9.4
 3.5002E+02  31.075          8.9
 3.5093E+02  32.912          8.4
 3.5184E+02  28.761          8.7
 3.5275E+02  20.568         10.3
 3.5367E+02  14.491         10.4
 3.5459E+02  13.939          9.5
 3.5552E+02  14.431          9.3
 3.5644E+02  16.480         10.5
 3.5738E+02  19.641         10.6
 3.5831E+02  21.189          9.5
 3.5925E+02  18.985         10.3
 3.6020E+02  10.866         13.4
 3.6114E+02   8.338         11.1
 3.6209E+02   8.575         11.7
 3.6305E+02  10.070         10.7
 3.6401E+02  14.812         11.7
 3.6497E+02  21.199          9.9
 3.6593E+02  20.103          9.1
 3.6690E+02  15.767         10.1
 3.6788E+02  13.215          9.9
 3.6885E+02  12.780          9.4
 3.6984E+02  14.153         10.
 3.7082E+02  16.503         10.2
 3.7181E+02  19.966          9.8
 3.7280E+02  23.842          8.8
 3.7380E+02  26.507          8.6
 3.7480E+02  26.969          9.
 3.7581E+02  19.997         13.8
 3.7682E+02  14.060          9.9
 3.7783E+02  14.229          9.3
 3.7885E+02  14.391          9.3
 3.7987E+02  13.312          9.9
 3.8089E+02  14.645          9.6
 3.8192E+02  17.739          9.2
 3.8296E+02  15.864          9.6
 3.8400E+02  12.661         10.1
 3.8504E+02  11.593         10.6
 3.8608E+02  12.432         10.3
 3.8714E+02  15.239          9.3
 3.8819E+02  17.389          9.1
 3.8925E+02  17.344          9.6
 3.9031E+02  13.054         11.2
 3.9138E+02  10.469         10.8
 3.9245E+02  14.985         13.8
 3.9353E+02  26.961         10.4
 3.9461E+02  36.279         10.
 3.9570E+02  31.774         15.8
 3.9679E+02  16.185         19.
 3.9789E+02  11.076          9.9
 3.9899E+02  12.501         10.
 4.0009E+02  11.354         11.5
 4.0120E+02   9.081         11.8
 4.0231E+02  10.713         10.1
 4.0343E+02  13.970          9.8
 4.0455E+02  16.490         10.4
 4.0568E+02  17.126         10.7
 4.0681E+02  16.704         10.3
 4.0795E+02  14.711         10.
 4.0909E+02  16.340          9.2
 4.1024E+02  18.958          9.6
 4.1139E+02  21.426          9.5
 4.1254E+02  25.840          8.8
 4.1370E+02  26.475         11.6
 4.1487E+02  17.985         11.3
 4.1604E+02  13.143         11.1
 4.1722E+02  14.971         10.7
 4.1840E+02  23.605         11.2
 4.1958E+02  30.363          8.5
 4.2077E+02  27.162          9.8
 4.2197E+02  18.364         11.3
 4.2317E+02  15.371          9.5
 4.2437E+02  17.215          9.3
 4.2559E+02  18.346          9.3
 4.2680E+02  19.681         10.2
 4.2802E+02  23.508          9.6
 4.2925E+02  27.022          8.6
 4.3048E+02  24.760         12.6
 4.3172E+02  11.873         16.7
 4.3296E+02   8.171         12.3
 4.3421E+02   8.684         11.8
 4.3547E+02   7.025         11.7
 4.3673E+02   6.511         11.1
 4.3799E+02   8.550         11.3
 4.3926E+02  12.081         11.1
 4.4053E+02  13.219         10.7
 4.4182E+02   9.721         12.
 4.4310E+02  11.785         13.5
 4.4440E+02  14.014         18.9
 4.4569E+02  10.077         11.3
 4.4700E+02  14.963         11.1
 4.4831E+02  16.797         11.2
 4.4962E+02  12.028         11.
 4.5094E+02  12.552         10.4
 4.5227E+02  18.940         12.8
 4.5360E+02  15.675         15.6
 4.5494E+02  11.093         10.1
 4.5628E+02  10.935         10.6
 4.5764E+02  10.562         11.3
 4.5899E+02  10.046         11.
 4.6035E+02  10.602         10.1
 4.6172E+02  11.034         10.
 4.6310E+02  12.503         10.7
 4.6448E+02  14.616         10.6
 4.6587E+02  17.562          9.2
 4.6726E+02  21.633          8.9
 4.6866E+02  23.417          9.1
 4.7007E+02  18.819         13.
 4.7148E+02  11.480         10.2
 4.7290E+02  10.984          9.8
 4.7432E+02  16.979         16.6
 4.7575E+02  37.092         18.5
 4.7719E+02  30.396         41.4
 4.7863E+02  11.998         10.9
 4.8008E+02  13.608         10.
 4.8154E+02  12.504          9.6
 4.8301E+02  10.303         11.5
 4.8448E+02  10.641         12.2
 4.8596E+02  13.601         10.7
 4.8744E+02  19.123         10.6
 4.8893E+02  17.478         10.2
 4.9043E+02  12.438         11.6
 4.9193E+02  15.014         10.8
 4.9345E+02  15.603         10.7
 4.9497E+02  15.517         13.1
 4.9649E+02  19.828         18.8
 4.9802E+02  13.065         18.2
 4.9957E+02  26.215         14.
 5.0111E+02  28.033         17.8
 5.0267E+02  18.209          9.2
 5.0423E+02  18.132          9.7
 5.0580E+02  15.063         10.2
 5.0737E+02  16.121          9.3
 5.0896E+02  18.725          9.1
 5.1055E+02  20.936          9.2
 5.1215E+02  18.200         11.3
 5.1375E+02  14.179         10.4
 5.1537E+02  16.750         11.3
 5.1699E+02  27.196         11.4
 5.2026E+02  16.871         10.1
 5.2190E+02  16.684          9.6
 5.2355E+02  15.901          9.5
 5.2521E+02  11.683          9.9
 5.2688E+02   8.878         11.9
 5.2856E+02  12.582         10.5
 5.3024E+02  16.267          9.4
 5.3193E+02  18.382         14.
 5.3534E+02   8.868         28.5
 5.3878E+02   7.543         10.7
 5.4052E+02  11.546         12.3
 5.4226E+02  13.562         16.7
 5.4401E+02   8.479         15.5
 5.4577E+02   6.550         11.6
 5.4753E+02   8.994         14.4
 5.4931E+02  14.143         21.
 5.5109E+02  17.153         21.7
 5.5289E+02  11.660         10.6
 5.5469E+02   9.908         10.1
 5.5650E+02   9.740         11.
 5.5832E+02  11.315         13.5
 5.6015E+02  14.981         11.1
 5.6198E+02  12.787         12.4
 5.6383E+02  11.369          9.9
 5.6569E+02  14.270          9.7
 5.6755E+02  14.358          9.9
 5.6942E+02  13.345         11.
 5.7131E+02  12.618         10.4
 5.7320E+02  15.896         10.
 5.7510E+02  22.564          9.5
 5.7701E+02  21.330          9.9
 5.7894E+02  28.068         13.4
 5.8087E+02  33.128         12.3
 5.8281E+02  23.799          9.3
 5.8476E+02  16.321          9.8
 5.8672E+02  10.365         14.8
 5.8869E+02   9.457         11.
 5.9067E+02  12.036         10.5
 5.9266E+02  18.904         10.6
 5.9466E+02  24.632          9.7
 5.9667E+02  17.224         17.8
 5.9869E+02  12.467         10.6
 6.0072E+02  19.594         10.6
 6.0276E+02  20.523         11.2
 6.0481E+02  13.512         10.6
 6.0687E+02  16.482         10.1
 6.0894E+02  19.863          8.7
 6.1103E+02  23.870          8.6
 6.1312E+02  19.272         12.4
 6.1522E+02   9.669         15.5
 6.1734E+02   8.636         11.6
 6.1947E+02  12.487         11.2
 6.2160E+02  16.750         22.8
 6.2375E+02  12.356         18.9
 6.2591E+02  12.688         10.1
 6.2808E+02  15.791         10.
 6.3026E+02  17.249          9.1
 6.3246E+02  14.445          9.2
 6.3466E+02  11.099         10.3
 6.3688E+02  11.167         10.5
 6.3911E+02  13.449          9.4
 6.4135E+02  15.526          9.1
 6.4360E+02  11.452         16.4
 6.4586E+02   9.846         11.2
 6.4814E+02  11.797         10.2
 6.5043E+02  15.060          9.2
 6.5272E+02  17.940          9.2
 6.5504E+02  18.432          9.8
 6.5736E+02  15.528         10.
 6.5970E+02  13.771          9.6
 6.6205E+02  14.598          9.5
 6.6441E+02  16.652          9.4
 6.6678E+02  21.261         11.4
 6.6917E+02  24.009         14.4
 6.7157E+02  21.377          9.
 6.7398E+02  23.420          8.7
 6.7641E+02  25.917          9.
 6.7885E+02  22.652         12.
 6.8130E+02  16.035          9.3
 6.8376E+02  14.588          9.3
 6.8624E+02  16.461          9.6
 6.8874E+02  21.322         11.1
 6.9124E+02  26.856         10.7
 6.9376E+02  16.761         10.7
 6.9629E+02  16.331          9.2
 6.9884E+02  14.643          9.3
 7.0140E+02  12.264         10.3
 7.0398E+02  10.402         11.
 7.0657E+02  12.506          9.9
 7.0917E+02  17.144         10.
 7.1179E+02  19.793         13.5
 7.1442E+02  14.178         10.1
 7.1707E+02  13.457          9.5
 7.1974E+02  16.873          8.8
 7.2241E+02  21.274          9.3
 7.2510E+02  23.133          8.9
 7.2781E+02  18.859         10.1
 7.3053E+02  13.831         11.
 7.3327E+02  13.392          9.5
 7.3603E+02  15.692          9.7
 7.3879E+02  14.034         10.1
 7.4158E+02  14.072         13.9
 7.4438E+02  18.421          8.9
 7.4719E+02  18.101          8.7
 7.5003E+02  14.104          9.5
 7.5287E+02  13.698          9.6
 7.5574E+02  15.322          9.4
 7.5862E+02  14.349          9.1
 7.6152E+02  12.597          9.2
 7.6443E+02   9.819         12.3
 7.6736E+02   9.611         10.5
 7.7031E+02  12.883          9.8
 7.7327E+02  14.107          9.1
 7.7626E+02  12.715         11.1
 7.7926E+02  11.362         12.3
 7.8227E+02  10.563         10.6
 7.8531E+02  15.022         11.5
 7.8836E+02  22.475         15.8
 7.9143E+02  16.912         12.6
 7.9451E+02  13.967         10.9
 7.9762E+02  12.716         10.5
 8.0074E+02  13.798          9.4
 8.0389E+02  14.279          9.4
 8.0705E+02   9.851         12.6
 8.1023E+02  10.171         10.4
 8.1342E+02  13.904          9.3
 8.1664E+02  14.051          9.3
 8.1988E+02  12.489         10.2
 8.2313E+02  12.813         10.8
 8.2641E+02  11.295         10.6
 8.2970E+02  10.828          9.9
 8.3302E+02  11.859          9.5
 8.3635E+02  13.719         10.4
 8.3971E+02  14.881         11.
 8.4308E+02  14.488         10.2
 8.4648E+02  12.523         11.4
 8.4989E+02   9.467         16.1
 8.5333E+02  10.189         11.6
 8.5679E+02  14.977         10.3
 8.6026E+02  19.740          9.4
 8.6376E+02  21.661         13.1
 8.6728E+02  16.464         14.7
 8.7083E+02  16.151         11.5
 8.7439E+02  19.064          9.5
 8.7798E+02  15.885         10.4
 8.8159E+02  17.592         10.5
 8.8522E+02  17.867          8.9
 8.8887E+02  15.464         10.4
 8.9254E+02  17.730         10.3
 8.9624E+02  16.233          9.2
 8.9997E+02  16.968          9.6
 9.0371E+02  16.660          9.7
 9.0748E+02  15.217         10.3
 9.1127E+02  12.220         10.
 9.1508E+02  10.380          9.5
 9.1892E+02  11.699         10.
 9.2279E+02  14.010         10.7
 9.2668E+02  13.353         10.6
 9.3059E+02  13.316          9.5
 9.3453E+02  14.423          9.2
 9.3849E+02  13.254         10.1
 9.4248E+02  13.328         10.7
 9.4649E+02  14.816         10.7
 9.5053E+02  16.335         10.2
 9.5460E+02  16.513          9.3
 9.5869E+02  14.880          9.8
 9.6281E+02  14.786         10.3
 9.6695E+02  14.243          9.7
 9.7112E+02  13.921          9.4
 9.7532E+02  13.250          9.5
 9.7954E+02  13.147         10.3
 9.8380E+02  13.261         10.
 9.8808E+02  14.235          9.3
 9.9239E+02  16.810          9.1
 9.9672E+02  20.335          9.4
 1.0011E+03  13.880         10.8
 1.0055E+03  12.684         10.7
 1.0099E+03  11.711          9.9
 1.0144E+03  11.413          9.6
 1.0188E+03  10.593         10.6
 1.0233E+03   9.682         10.4
 1.0279E+03  10.828         10.
 1.0325E+03  13.663          9.9
 1.0371E+03  16.362         11.5
 1.0417E+03  12.086         11.1
 1.0464E+03  10.948         11.2
 1.0511E+03  11.678         10.
 1.0558E+03  12.397          9.4
 1.0606E+03  12.648          9.6
 1.0653E+03  11.252         10.
 1.0702E+03  10.560         10.1
 1.0750E+03  10.277          9.5
 1.0799E+03  10.849          9.8
 1.0848E+03  11.335          9.8
 1.0898E+03  11.319          9.4
 1.0948E+03   9.872          9.6
 1.0998E+03   8.715          9.9
 1.1049E+03   7.949         10.5
 1.1100E+03   8.384         14.
 1.1151E+03  11.097          9.5
 1.1203E+03  11.184          9.4
 1.1255E+03  10.122          9.7
 1.1307E+03  10.922         10.6
 1.1360E+03  11.391         11.3
 1.1413E+03  10.472         11.3
 1.1467E+03  11.206          9.9
 1.1520E+03  12.723          9.2
 1.1575E+03  14.830          9.5
 1.1629E+03  16.525          9.4
 1.1684E+03  16.214          9.
 1.1740E+03  14.319          9.1
 1.1796E+03  12.274         10.1
 1.1852E+03  12.450         10.7
 1.1908E+03  14.622         10.
 1.1965E+03  15.132          9.1
 1.2023E+03  12.023          9.6
 1.2081E+03  11.021         10.6
 1.2139E+03  13.222         10.2
 1.2198E+03  15.624          9.3
 1.2257E+03  15.213          9.1
 1.2316E+03  12.966          9.1
 1.2376E+03  11.837         10.
 1.2437E+03  14.155         10.4
 1.2498E+03  13.548          9.6
 1.2559E+03  12.415          9.
 1.2621E+03  12.931          9.8
 1.2683E+03  13.087          9.9
 1.2746E+03  12.480          9.8
 1.2809E+03   9.812         10.8
 1.2872E+03  10.257          9.2
 1.2937E+03  10.947          9.4
 1.3001E+03  11.056          9.9
 1.3066E+03  10.778          9.6
 1.3132E+03  10.877          9.2
 1.3198E+03  12.022          9.6
 1.3264E+03  12.918         10.2
 1.3331E+03  13.578         10.2
 1.3399E+03  15.485         13.8
 1.3467E+03  11.157          9.5
 1.3536E+03   9.761          9.8
 1.3605E+03   9.204         11.2
 1.3674E+03   9.142         11.
 1.3745E+03  10.802          9.4
 1.3815E+03  11.173          9.2
 1.3887E+03  12.086         10.
 1.3958E+03  13.837         10.6
 1.4031E+03  14.866          9.7
 1.4104E+03  15.748          8.9
 1.4177E+03  14.443          8.8
 1.4252E+03  12.409         10.
 1.4326E+03  10.797         10.5
 1.4402E+03  12.067          9.3
 1.4477E+03  12.916          8.8
 1.4554E+03  13.495          9.1
 1.4631E+03  13.272         10.3
 1.4709E+03  10.456         10.8
 1.4787E+03   9.153          9.4
 1.4866E+03  10.031          9.3
 1.4945E+03   9.803          9.6
 1.5026E+03  10.116          9.5
 1.5107E+03  10.457          9.4
 1.5188E+03   9.736          9.4
 1.5270E+03  11.038          9.8
 1.5353E+03  10.675         10.4
 1.5437E+03   8.862         10.4
 1.5521E+03   8.388          9.6
 1.5606E+03   9.105          9.3
 1.5691E+03   9.667          9.9
 1.5778E+03  10.978         10.9
 1.5865E+03  12.461         10.6
 1.5952E+03  13.080          9.4
 1.6041E+03  12.432          8.9
 1.6130E+03  10.637          9.8
 1.6220E+03  10.175         10.1
 1.6311E+03  10.729          9.6
 1.6402E+03  11.159          9.2
 1.6494E+03  10.423         10.6
 1.6587E+03   7.883         10.8
 1.6681E+03   8.919         10.8
 1.6776E+03   9.801          9.5
 1.6871E+03  11.374          9.5
 1.6968E+03  11.970          9.9
 1.7065E+03  11.694         10.
 1.7162E+03  12.306          9.2
 1.7261E+03  12.275          9.
 1.7361E+03  10.749          9.
 1.7461E+03  10.342         10.
 1.7563E+03  11.699         10.1
 1.7665E+03  13.586          9.3
 1.7768E+03  13.746          8.8
 1.7872E+03  12.972          9.
 1.7977E+03  11.843         10.
 1.8083E+03  10.845         10.1
 1.8190E+03  11.137          9.1
 1.8297E+03  11.756          9.1
 1.8406E+03  12.592          9.8
 1.8516E+03  12.200          9.7
 1.8627E+03  11.694          9.8
 1.8738E+03  11.161          9.2
 1.8851E+03  10.131          9.4
 1.8964E+03   9.674         10.1
 1.9079E+03   9.519         10.7
 1.9195E+03   8.250         10.3
 1.9312E+03   8.381          9.4
 1.9430E+03   9.290          9.7
 1.9549E+03   8.796         10.1
 1.9669E+03   7.325         10.3
 1.9790E+03   8.412          9.6
 1.9912E+03   9.404          9.2
 2.0036E+03   9.040          9.8
 2.0160E+03   9.120         10.7
 2.0286E+03  10.586          9.9
 2.0413E+03  12.059          9.1
 2.0541E+03  13.027          8.7
 2.0671E+03  12.278          9.4
 2.0801E+03  10.729         10.1
 2.0933E+03  10.293          9.4
 2.1066E+03  10.663          9.
 2.1200E+03  10.122          9.2
 2.1336E+03   9.690          9.9
 2.1473E+03  10.297          9.7
 2.1611E+03  11.221          9.
 2.1751E+03  11.256          8.8
 2.1892E+03  10.433          9.7
 2.2034E+03   8.807         10.4
 2.2178E+03   8.050          9.8
 2.2323E+03   8.159          9.3
 2.2470E+03   8.189          9.6
 2.2618E+03   7.847         10.2
 2.2767E+03   7.550         10.6
 2.2918E+03   7.340         10.3
 2.3071E+03   7.430          9.5
 2.3224E+03   8.171         10.2
 2.3380E+03   8.464         11.1
 2.3537E+03   8.458         10.5
 2.3696E+03   8.769          9.4
 2.3856E+03   8.795          9.2
 2.4018E+03   8.635         10.6
 2.4182E+03   8.944         11.
 2.4347E+03   9.833         10.5
 2.4514E+03  11.553          9.5
 2.4683E+03  10.281         15.8
 2.4853E+03   7.271         12.1
 2.5026E+03   7.409         11.3
 2.5199E+03   8.292         10.1
 2.5375E+03   9.044          9.7
 2.5553E+03   9.648         10.
 2.5733E+03  10.260         11.2
 2.5914E+03   9.743         10.9
 2.6097E+03   8.085         10.1
 2.6283E+03   7.293          9.7
 2.6470E+03   6.906         10.
 2.6660E+03   7.093         10.7
 2.6851E+03   7.365         10.2
 2.7044E+03   8.571          9.3
 2.7240E+03   9.731          9.5
 2.7438E+03  10.500         10.
 2.7637E+03  10.838         10.3
 2.7839E+03  10.762         10.2
 2.8044E+03   9.975          9.5
 2.8250E+03   8.822         10.1
 2.8459E+03   7.662         10.6
 2.8670E+03   7.797          9.9
 2.8884E+03   8.402          9.3
 2.9100E+03   8.360          9.2
 2.9318E+03   7.618         10.4
 2.9539E+03   7.518         10.5
 2.9762E+03   8.149          9.9
 2.9988E+03   8.076          9.5
 3.0216E+03   8.495          9.9
 3.0447E+03   9.095         11.3
 3.0681E+03   9.473         11.1
 3.0917E+03   8.526         10.2
 3.1156E+03   7.424          9.4
 3.1398E+03   7.003          9.5
 3.1643E+03   7.077          9.9
 3.1891E+03   7.364         10.9
 3.2141E+03   7.980         10.2
 3.2395E+03   8.241          9.1
 3.2651E+03   8.504         10.4
 3.2911E+03   7.552         11.7
 3.3173E+03   6.373         11.
 3.3439E+03   5.958          9.6
 3.3708E+03   6.439          9.9
 3.3980E+03   6.981         10.1
 3.4256E+03   6.595         10.3
 3.4535E+03   6.558         10.1
 3.4817E+03   6.959          9.4
 3.5103E+03   7.502          9.9
 3.5393E+03   7.065         10.
 3.5686E+03   7.439          9.4
 3.5982E+03   8.219          9.1
 3.6283E+03   7.787          9.5
 3.6587E+03   7.211         10.5
 3.6895E+03   7.892         10.9
 3.7207E+03   8.481         10.3
 3.7522E+03   8.382          9.1
 3.7842E+03   7.889          9.3
 3.8166E+03   7.039         10.4
 3.8495E+03   7.036         10.7
 3.8827E+03   6.535         10.
 3.9164E+03   6.045          9.5
 3.9505E+03   5.923         10.1
 3.9851E+03   6.201         11.
 4.0201E+03   6.709         10.6
 4.0556E+03   7.044          9.4
 4.0915E+03   7.288          9.5
 4.1280E+03   7.339         10.3
 4.1649E+03   7.055          9.5
 4.2023E+03   6.602          9.2
 4.2402E+03   6.361          9.1
 4.2787E+03   6.039          9.6
 4.3176E+03   5.140         10.9
 4.3572E+03   4.865         10.8
 4.3972E+03   5.194          9.7
 4.4378E+03   5.166         10.
 4.4790E+03   5.354         10.5
 4.5207E+03   5.607         11.1
 4.5631E+03   5.557         10.6
 4.6060E+03   5.602          9.7
 4.6495E+03   5.765          9.7
 4.6937E+03   5.679          9.8
 4.7385E+03   5.975         10.3
 4.7839E+03   6.335         10.6
 4.8300E+03   6.628          9.5
 4.8768E+03   6.744          9.2
 4.9242E+03   6.927         10.
 4.9723E+03   7.029         10.4
 5.0212E+03   6.838          9.9
 5.0708E+03   6.712          9.5
 5.1211E+03   6.600          9.7
 5.1721E+03   6.225         10.2
 5.2240E+03   5.624         10.2
 5.2766E+03   5.683          9.7
 5.3300E+03   5.938          9.9
 5.3842E+03   5.650         10.4
 5.4393E+03   5.780         10.7
 5.4952E+03   5.704          9.8
 5.5520E+03   5.691          9.3
 5.6096E+03   5.554          9.9
 5.6682E+03   5.679         11.4
 5.7276E+03   5.404         10.8
 5.7881E+03   4.815         10.1
 5.8495E+03   5.074         10.8
 5.9118E+03   6.266         11.4
 5.9752E+03   5.823         11.9
 6.0396E+03   5.195         10.5
 6.1050E+03   5.106          9.6
 6.1715E+03   5.361          9.6
 6.2391E+03   5.338         10.
 6.3079E+03   5.184         10.1
 6.3777E+03   5.055         10.4
 6.4487E+03   4.897          9.6
 6.5210E+03   4.999         10.
 6.5944E+03   5.209         11.
 6.6691E+03   5.318         10.4
 6.7451E+03   5.317          9.8
 6.8224E+03   5.307          9.5
 6.9010E+03   5.713          9.7
 6.9809E+03   5.896         10.2
 7.0623E+03   5.833         10.2
 7.1451E+03   5.565          9.2
 7.2294E+03   5.321          9.2
 7.3151E+03   5.273          9.9
 7.4025E+03   5.443         10.
 7.4913E+03   5.563          9.4
 7.5818E+03   5.474          9.5
 7.6740E+03   5.380         10.5
 7.7678E+03   5.364         11.3
 7.8633E+03   5.064         10.7
 7.9607E+03   5.086          9.7
 8.0598E+03   5.118          9.2
 8.1608E+03   4.986          9.8
 8.2637E+03   4.983         10.5
 8.3686E+03   5.180         10.3
 8.4755E+03   5.160          9.3
 8.5845E+03   5.074          9.8
 8.6955E+03   5.298         11.1
 8.8088E+03   5.750         11.9
 8.9243E+03   5.308         11.1
 9.0420E+03   4.761          9.5
 9.1621E+03   4.729          9.9
 9.2846E+03   4.718         10.4
 9.4096E+03   4.356         10.
 9.5371E+03   4.459          9.6
 9.6672E+03   4.582          9.4
 9.8001E+03   4.652          9.4
 9.9356E+03   4.927          9.3
 1.0074E+04   5.056          9.5
 1.0215E+04   5.098          9.1
 1.0360E+04   4.970          9.7
 1.0507E+04   5.137         10.3
 1.0658E+04   4.875          9.8
 1.0811E+04   4.555          9.
 1.0969E+04   4.332          9.1
 1.1129E+04   4.402          9.4
 1.1293E+04   4.483         10.3
 1.1461E+04   4.344          9.9
 1.1633E+04   4.429          8.8
 1.1808E+04   4.612          8.7
 1.1988E+04   4.670          9.1
 1.2171E+04   4.583          9.3
 1.2359E+04   4.398          9.2
 1.2552E+04   4.437          8.9
 1.2748E+04   4.379          9.1
 1.2950E+04   4.336         10.2
 1.3156E+04   4.253         10.4
 1.3367E+04   4.206          9.3
 1.3584E+04   4.237          9.2
 1.3805E+04   4.184          9.4
 1.4032E+04   4.104         10.
 1.4265E+04   4.118          9.7
 1.4504E+04   4.125          9.
 1.4748E+04   4.185          9.1
 1.4999E+04   4.174          9.8
 1.5256E+04   4.214         10.7
 1.5521E+04   4.110         10.6
 1.5791E+04   4.145         11.8
 1.6070E+04   3.910         11.8
 1.6355E+04   3.844         10.3
 1.6648E+04   4.201          9.9
 1.6949E+04   4.288          9.2
 1.7259E+04   4.119          9.
 1.7577E+04   4.015          9.8
 1.7903E+04   4.016         10.
 1.8239E+04   3.899          9.
 1.8585E+04   3.929          8.7
 1.8940E+04   3.838          8.7
 1.9306E+04   3.928          8.9
 1.9683E+04   3.877          8.8
 2.0070E+04   3.740          8.5
 2.0469E+04   3.658          8.4
 2.0880E+04   3.639          8.7
 2.1304E+04   3.733          9.6
 2.1741E+04   3.946          9.7
 2.2191E+04   3.942          8.7
 2.2655E+04   3.736          8.6
 2.3135E+04   3.666          9.1
 2.3629E+04   3.466          9.4
 2.4140E+04   3.352          8.9
 2.4667E+04   3.314          8.5
 2.5211E+04   3.456          9.
 2.5774E+04   3.362          9.9
 2.6356E+04   3.082         10.3
 2.6958E+04   3.181          9.3
 2.7581E+04   3.266          8.8
 2.8226E+04   3.345          8.6
 2.8893E+04   3.382          9.3
 2.9585E+04   3.391          8.9
 3.1044E+04   3.132          9.5
 3.1815E+04   2.760          9.1
 3.2615E+04   2.391         10.5
 3.3445E+04   2.260         11.8
 3.4307E+04   2.930         11.
 3.5203E+04   3.731         10.1
 3.6135E+04   3.786         10.1
 3.7104E+04   3.303         11.1
 3.8113E+04   3.262         10.
 3.9164E+04   3.019          9.
 4.0258E+04   2.958          9.1
 4.1399E+04   3.285          9.7
 4.2589E+04   3.305          9.8
 4.3831E+04   3.122          9.8
 4.5129E+04   3.105          8.6
 4.6485E+04   3.076          9.
 4.7903E+04   3.081         10.7
 4.9387E+04   3.129          9.
 5.0940E+04   3.252          8.5
 5.2569E+04   3.301          9.4
 5.4276E+04   3.329          9.7
 5.6069E+04   3.185         10.2
 5.7951E+04   2.992          9.6
 5.9930E+04   2.943          9.
 6.2013E+04   2.876         10.3
 6.4205E+04   2.893         11.2
 6.6516E+04   2.973         10.7
 6.8954E+04   3.004          9.2
 7.1529E+04   2.892          8.7
 7.4251E+04   2.893          9.3
 7.7130E+04   2.873         12.2
 8.0181E+04   2.618         10.3
 8.3417E+04   2.888          8.8
 8.6852E+04   3.375         11.9
 9.0504E+04   3.305         14.3
 9.4392E+04   3.003         15.2
 9.8535E+04   2.972         11.1
 1.0296E+05   2.948          8.4
 1.0768E+05   2.824          9.8
 1.1274E+05   2.901         10.3
 1.1817E+05   2.893          9.1
 1.2400E+05   2.765          8.6
 1.3027E+05   2.605          9.3
 1.3702E+05   2.801          9.9
 1.4432E+05   2.997          9.4
 1.5221E+05   2.921          8.7
 1.6077E+05   2.707          8.2
 1.7008E+05   2.685          8.3
 1.8021E+05   2.733          8.7
 1.9128E+05   2.844          9.4
 2.0341E+05   2.981          8.8
 2.1672E+05   3.043          8.5
 2.3139E+05   2.906          8.5
 2.4759E+05   2.680          8.9
 2.6556E+05   2.652          8.4
 2.8556E+05   2.610          8.
 3.0791E+05   2.574          8.5
 3.3299E+05   2.552          8.6
 3.6127E+05   2.530          8.7
 3.9331E+05   2.518          9.3
 4.2981E+05   2.352          8.4
 4.7164E+05   2.400          9.1
 5.1990E+05   2.432          8.9
 5.7596E+05   2.482          8.6
 6.4161E+05   2.522          8.3
 7.1918E+05   2.581          8.6
 8.1172E+05   2.595          9.1
 9.2337E+05   2.548          9.9
 1.0598E+06   2.417          8.8
 1.2288E+06   2.425          7.9
 1.4420E+06   2.429          8.
 1.7158E+06   2.353          8.6
 2.0761E+06   2.285         10.8
 2.5634E+06   2.184         12.
 3.2456E+06   2.332         10.7
ENDDATA           2974
ENDSUBENT         2980
ENDENTRY             2
