ENTRY            30614     901005
SUBENT        30614001     901005
BIB                 18         47
TITLE      -EXCITATION CURVE MEASUREMENT FOR THE REACTION
            Y-89(N,2N)Y-88.-
AUTHOR     (HUANG JIAN-ZHOU,LU HAN-LIN,LI JI-ZHOU,FAN PEI-GUO)
INSTITUTE  (3CPRAEP)
EXP-YEAR   (80)
REFERENCE  (R,INDC(CPR)-16,8908) DATA SLIGHTLY REVISED,EXP.SUMMARY
           (J,CNP,2,(3),213,8008) IN CHINESE.DATA SLIGHTLY SUPERS.
SAMPLE     POWDER SAMPLE OF Y(2)-O(3).  99.9 PERCENT PURITY.
           COMPRESSED DISK OF DIAM. 11 MM
MONITOR    (13-AL-27(N,A)11-NA-24,,SIG) AT 14.58+-0.21 MEV.
MONIT-REF  (30523002,ZHAO WENRONG,R,INDC(CPR)-16,8908)
FACILITY   (CCW,3CPRAEP) FOR E(N)=14.58 MEV.
           (VDG,3CPRAEP)
INC-SOURCE (D-T)
           TI-T TARGET.
           .ABOUT 0.5 TO 0.6 MG/CM2 THICKNESS FOR COCKCROFT-WALTON
           ACCELERATOR, (E(D)= 200 KEV)
           .ABOUT 0.224MG/CM2 THICKNESS AND E(D)=200KEV FOR VAN
           DE.GRAAFF ACCELERATOR. (PRODUCING NEUTRON BETWEEN
            (3.51 TO 14.96 MEV).
           .ABOUT 2 MG/CM2 THICKNESS AND E(D)= AVERAGE 1.5 AND 2
           MEV FOR VAN DE GRAAFF. (PRODUCING NEUTRON WITH ENERGY
           BETWEEN 12.8 AND 18 MEV.
METHOD     (ACTIV)
           RECOIL ALPHA PARTICLE METHOD WAS USED FOR THE COCKCROFT
           WALTON ACCELERATOR TO MONITOR THE NEUTRON-FLUX.
DETECTOR   (NAICR)
            10CM DIA. AND 7.6CM LONG NAI(TL) SCINTILLATOR.
PART-DET   (DG)
DECAY-DATA (39-Y-88-G,106.6D,DG,898.,0.927)
CORRECTION AFTER CONSIDERING THE EFFECT OF THE OXIDE LAYER AT THE
           SURFACE OF T-TI TARGET ,THE NEUTRON ENERGY WAS MODIFIED
           FROM 14.61 TO 14.58 MEV.
COMMENT    .0.91,EV GAMMA FROM Y-89(N,P)SR-89 IS NEGLIGIBLE,
            BECAUSE THE LOW CROSS-SECTION(ABOUT 25MB) AND THE LOW
           ABUNDANCE(0.01 PERC.) OF THE DECAY GAMMA.
           .THE DECAY GAMMA(1.07 MEV) FROM RB-86(TC1/2)=18.66 DAY)
            OF Y-89(N,A)RB-86 WITH THE CROSS-SECTION OF 5MB GIVES
            THE 0.2 PERCENT INFLUENCE TO THE RESULT AFTER 10 DAYS'
            IRRADIATION.
           IN THE INDC(CPR)-16 REPORT ALL OF THE EARLY DATA WERE
           ADJUSTED FOR THE NEW GEOMETRY AND NEUTRON ENERGY
STATUS     DATA TAKEN FROM INDC(CPR)-16 REPORT,TAB.1 AND 3,1989.
HISTORY    (811231C) KO.
           (850215U) OS. COUNTRY CODE CORRECTED.
           (900905A) VOF.-DATA VALUES SLIGHTLY CORRECTED + SMALL
                          UPDATES IN BIB SECTION
ENDBIB              47
COMMON               4          3
EN-NRM     EN-RSL     MONIT      MONIT-ERR
MEV        MEV        MB         MB
14.58      0.21       115.8      3.0
ENDCOMMON            3
ENDSUBENT           54
SUBENT        30614002     901005
BIB                  4         24
REACTION   (39-Y-89(N,2N)39-Y-88,,SIG)
ERR-ANALYS .AT 14.61 MEV, THE ERROR OF 4 PERCENT CONSISTS OF THE
            FOLLOWINGS,  (NORMALIZATION ENERGY TO THE MONITOR)
            .MONITOR X-SECTION         +- 2.5
             .DET.EFF.AT FULL ENERGY
                PEAK OF GAMMA          +- 2.5
             .GAIN SHIFT OF PHOTOMULTIPLIER +- 1
             .SELF-ABSORP.CORRECTION   +- 0.4
             .STAND DEVIATION          +- 1.5
             .SAMPLE WEIGHING ERROR    +- 0.1   (ALL IN PERCENT)
                   TOTAL               +- 4 PERCENT.
           .FOR THE REST ENERGIES,
            THE ERROR OF RELATIVE MEASUREMENT,INCLUDING NEUTRON
            ANG.DIVERGENCES(+-3 FOR VDG, +-1 PERC.FOR COCKCROFT),
            AND STATISTICAL ERROR, IS GIVEN.
FLAG       (1.) NORMALIZATION ENERGY TO THE MONITOR REACTION.
ANALYSIS   FROM ALL EXPERIMENTAL RESULTS OF Y-89(N,2N)Y-88 UNTIL
            1980, THE AUTHORS ISSUED A RECOMMENDED CURVE IN THE
            NEUTRON ENERGY RANGE BETWEEN 12 AND 28 MEV, AS FOLLOWS
              SIGMA(MB) = 1.018 * (1236 + 48.99*E' - 185.0*E'**2
                            + 68.73*E'**3 - 23.39*E'**4
                            - 7.033*E'**5),
            WHERE
                E' = -12.95+10.33*LOG(E(N)).  E(N)=NEUTRON ENERGY.
ENDBIB              24
NOCOMMON
DATA                 5         13
EN         EN-RSL     DATA       DATA-ERR   FLAG
MEV        MEV        MB         MB         NO-DIM
12.81      0.13        381.      22.
13.51      0.16        702.      30.
13.65      0.20        746.      40.
13.69      0.22        755.      41.
14.09      0.07        899.      39.
14.61      0.21       1018.      34.        1.
14.70      0.23       1048.      52.
14.96      0.06       1076.      48.
15.68      0.31       1156.      60.
16.08      0.33       1204.      62.
16.63      0.30       1257.      64.
17.20      0.28       1270.      68.
18.00      0.30       1287.      66.
ENDDATA             15
ENDSUBENT           44
ENDENTRY             2
