ENTRY            30667     850305
SUBENT        30667001     850305
BIB                 10         18
INSTITUTE  (3CPRAEP)
REFERENCE  (J,CNP,4,(2),145,8205) IN CHINESE.
AUTHOR     (LI AN-LI,HUANG TANG-ZI,BAI XI-XANG,CHEN GUAN-REN,
           WEN SHEN-LIN,YAO LING)
TITLE      -MEASURING NEUTRON ENERGY SPECTRA OF CF-252 AND AM-BE
           SOURCES WITH NEUTRON TIME OF FLIGHT SPECTROMETER WITH
           DOUBLE SCINTILLATORS.-
SAMPLE      5MICRO-GRAMME CF-252. INTENSITY ABOUT 1.17E+1 N/S
METHOD     (TOF)
            TIME OF FLIGHT SPECTROMETER WITH DOUBLE SCINTILLATORS.
            STILBENE CRYSTAL AS SCATTERER.(AS START SIGNAL)
DETECTOR   (SCIN)  LIQUID SCINTILLATOR 105MM DIA, 50MM LENGTH,
            ST-451.
PART-DET   (N)
STATUS     DATA TAKEN FROM TABLE 1 OF CHINESE J.OF NUCL.PHYS.,4,
            (2)(1982)145.
HISTORY    (831130C) KO.
           (850215U) OS. COUNTRY CODE CORRECTED.
ENDBIB              18
NOCOMMON             0          0
ENDSUBENT           21
SUBENT        30667002     840912
BIB                  3          6
REACTION   (98-CF-252(0,F),,DE,N,REL)
COMMENT    WHEN THE RESULT IS FITTED TO MAXWELLIAN DISTRIBUTION
           THE MAXWELLIAN TEMPERATURE,
               1.38 +-0.04MEV IN THE NEUTRON ENERGY BETWEEN
               1.0 AND 10 MEV IS OBTAINED.
ERR-ANALYS RELATIVE ERROR GIVEN.
ENDBIB               6
NOCOMMON             0          0
DATA                 4         16
E-MIN      E-MAX      DATA       DATA-ERR
MEV        MEV        1/MEV      PER-CENT
 4.0000E-01 5.0000E-01 1.1470E+04 1.0100E+01
 5.0000E-01 7.5000E-01 7.7600E+03 1.0100E+01
 7.5000E-01 1.0000E+00 1.0040E+04 5.1000E+00
 1.0000E+00 1.5000E+00 9.9560E+03 4.1000E+00
 1.5000E+00 2.0000E+00 8.9200E+03 2.2000E+00
 2.0000E+00 2.5000E+00 7.2000E+03 1.9000E+00
 2.5000E+00 3.0000E+00 5.6000E+03 1.9000E+00
 3.0000E+00 3.5000E+00 3.9600E+03 1.6000E+00
 4.0000E+00 5.0000E+00 1.9310E+03 1.9000E+00
 5.0000E+00 6.0000E+00 9.7900E+02 2.4000E+00
 6.0000E+00 7.0000E+00 5.0900E+02 6.9000E+00
 7.0000E+00 8.0000E+00 2.4300E+02 8.2000E+00
 8.0000E+00 9.0000E+00 1.4200E+02 1.4000E+01
 9.0000E+00 1.0000E+01 7.8000E+01 1.4000E+01
 1.0000E+01 1.2000E+01 3.1100E+01 3.3000E+01
 1.2000E+01 1.4000E+01 1.3800E+01 8.1000E+01
ENDDATA             18
ENDSUBENT           29
SUBENT        30667003     840912
BIB                  4          8
REACTION   (98-CF-252(0,F),,AKE,N)
ANALYSIS   EXPERIMENTAL SPECTRUM WAS FITTED TO MAXWELLIAN
           DISTRIBUTION.
           THE OBTAINED TEMPERATURE OF THE MAXWELLIAN IS
            1.38 +- 0.04 MEV
           THE AVERAGE KINETIC ENERGY  = T * 3/2.
STATUS     (DEP,30667002)
ERR-ANALYS NO FURTHER INFORMATION.
ENDBIB               8
NOCOMMON             0          0
DATA                 2          1
DATA       DATA-ERR
MEV        MEV
 2.0700E+00 6.0000E-02
ENDDATA              3
ENDSUBENT           16
ENDENTRY             3
