ENTRY            31535   20080516   20080710   20080710       3127
SUBENT        31535001   20080516   20080710   20080710       3127
BIB                 14         40
TITLE      Nuclear Structure Studies of 123Te with (n, gamma)
           and (d, p) Reactions
AUTHOR     (V.Bondarenko,T.Von Egidy,J.Honzatko, I.Tomandl,
           D.Bucurescu, N.Marginean, J.Ott, W.Schauer,
           H.-F.Wirth, C.Doll)
INSTITUTE  (3CZRUJF,2GERMUU,3RUMBUC)
REFERENCE  (J,NP/A,673,85,2000)
FACILITY   (REAC,3CZRUJF) Thermal neutron capture studies on
           122Te are performed with semiconductor detectors
           at the light-water reactor LWR-15.
SAMPLE     Target composition was enriched in 122Te to 88.4%.
DETECTOR   (HPGE) 28% HPGe detector with a resolution of 2.0 keV
           at 1332 keV (60Co line) and 4.8 keV at 6530 keV and
           a 12% detector with about the same resolution
           were applied.
METHOD     (GSPEC,COINC)
MONIT-REF  (,D.G.Olson+,J,NIM,206,313,1983)
           (,B.Krusche+,J,NP/A,386,245,1982)Many new transitions
           were established only in gamma-gamma-coincidences.
           Intensities in these cases were estimated relative
           to the known strongest peaks in each gate using
           therelative efficiency scale from special Ra and 36C1
           measurements. In such way a several new primary
           transitions, namely 6424,6329,5892,5610,5482, 5371
           and 5089 keV which have been masked earlier by
           transitions in 124Te were observed.
           (,R.Georgii+,J,NP/A,592,307,1995)The energy calibration
           was made relative to the low and high-energy
           transitions in 124Te which contributed to the
           capture cross section in the target to about 70%.
ERR-ANALYS (ERR-SYS) The systematic uncertainty in
           absolute intensities
ADD-RES    Results from (d,p)  reactions are
           included in Entry D0158
COMMENT    From author: cross section for 2200 m/s
STATUS     (TABLE) Data received from the author: Hans-F.Wirth
HISTORY    (20040709C) SD
           (20060613U) ADD-RES was added.
           (20080430A) SD. Reaction code was corrected according
           to author's comments.
ENDBIB              40
COMMON               2          3
EN         ERR-SYS
EV         PER-CENT
  0.0253     16.
ENDCOMMON            3
ENDSUBENT           47
SUBENT        31535002   20080516   20080710   20080710       3127
BIB                  5         12
REACTION   (52-TE-122(N,G)52-TE-123,,SPC)
MONITOR    (52-TE-122(N,G)52-TE-123,,SPC)
MONIT-REF  (,Honzatko+,J,CZJ,41,525,1991)
ERR-ANALYS (E-ERR) Scale error. Weighted averaged y-ray energies
           determined from the present and previous measurements
           Honzatko+,Czech. J. Phys. 41 (1991) 525.
           Recoil correction is taken into account for primary
           transitions.
           (DATA-ERR) Relative error
FLAG       (1.) The gamma-ray energy and intensity are determined
           from gamma-gamma-coincidences.
           (2.) Partly may be due to 124Te.
ENDBIB              12
COMMON               2          3
E-NRM      MONIT
KEV        PC/INC
 1759.6      1.41
ENDCOMMON            3
DATA                 6        147
E          E-ERR      DATA       DATA-APRX  DATA-ERR   FLAG
KEV        KEV        PC/INC     PC/INC     PER-CENT   NO-DIM
  136.76      0.07      2.50                     4.
  148.35      0.05      0.53                     6.
  158.99      0.03     19.50                     3.
  235.72      0.11      0.16                     6.
  247.80      0.09      0.14                     7.
  281.01      0.03      1.49                     4.
  285.28      0.04      8.26                     3.
  329.37      0.04      5.30                     3.
  330.78      0.06      1.36                     4.
  346.37      0.04      1.35                     3.
  372.21      0.15                0.03
  374.4       0.5                 0.08                  1.
  380.8       0.3       0.08                     31.    1.
  404.8       0.4                 0.04                  1.
  421.9       0.2       0.22                     27.
  437.5       0.3                 0.14                  1.
  437.6       0.1       0.29                     14.    1.
  440.01      0.06      8.04                     3.
  454.4       0.3       0.07                     32.    1.
  464.7       0.2       0.12                     21.    1.
  474.12      0.10      0.24                     10.
  477.80      0.03      1.64                     3.
  482.55      0.05      0.68                     4.
  495.32      0.08      0.48                     14.
  505.38      0.10      3.26                     4.
  525.0       0.3                 0.08                  1.
  529.01      0.03      2.31                     2.
  534.7       0.3       0.10                     31.    1.
  538.42      0.05      0.62                     8.
  546.79      0.10      0.14                     25.
  556.1       0.1       0.26                     16.    1.
  556.1       0.1       0.30                     17.
  562.71      0.18      0.12                     17.
  565.15      0.15      0.19                     28.
  578.42      0.15      0.14                     7.
  596.43      0.18      0.28                     23.    1.
  599.18      0.06      4.40                     9.
  614.51      0.10      0.34                     21.
  624.65      0.04      1.54                     3.
  628.16      0.14      0.23                     12.
  632.27      0.15      0.16                     25.
  687.91      0.12      0.23                     34.
  707.0       0.2                 0.17                  1.
  712.3       0.3       0.06                     29.    1.
  713.38      0.09      0.28                     15.    1.
  735.86      0.07      0.98                     5.
  741.2       0.3       0.06                     33.
  745.80      0.12                0.4
  772.49      0.09      0.49                     10.
  775.27      0.11      0.32                     12.    2.
  783.62      0.04      1.14                     4.
  812.12      0.03      0.97                     3.
  812.8       0.3       0.13                     34.    1.
  821.22      0.08      0.33                     9.     1.
  822.28      0.11      0.36                     15.     1.
  823.28      0.12      0.14                     28.
  839.16      0.20      0.15                     21.     1.
  877.67      0.07      0.43                     9.
  888.29      0.17      0.20                     19.     1.
  889.01      0.11      0.30                     10.
  897.49      0.04      1.39                     9.
  905.1       0.3       0.13                     14.
  909.29      0.06      0.18                     17.
  917.6       0.5                 0.06                   1.
  933.26      0.20      0.14                     14.
  945.61      0.03      1.36                     7.
  968.91      0.10      0.18                     19.
  982.75      0.12      0.30                     16.
  994.4       0.5                 0.11                   1.
 1036.69      0.08      0.60                     5.
 1068.58      0.23                0.15
 1079.5       0.04                0.1
 1085.86      0.15      0.23                     17.
 1087.07      0.15      0.27                     15.
 1116.04      0.12      0.32                     12.     1.
 1118.7       0.3                 0.14                   1.
 1119.8       0.3                 0.16                   1.
 1129.5       0.5                 0.07                   1.
 1158.4       0.2       0.40                     11.     1.
 1158.93      0.18      0.40                     14.     1.
 1160.7       0.2                 0.06                   1.
 1160.9       0.2                 0.2                    1.
 1166.6       0.3       0.13                     30.     1.
 1167.79      0.18      0.23                     19.
 1194.1       0.4                 0.07                   1.
 1255.15      0.8       0.42                     7.
 1267.72      0.15      0.27                     11.
 1287.4       0.2       0.23                     19.     1.
 1292.5       0.4                 0.11                   1.
 1318.3       0.3       0.43                     14.
 1321.4       0.3       0.19                     30.     1.
 1329.6       0.5       0.11                     18.
 1359.6       0.3                 0.2                    1.
 1397.99      0.17      0.25                     23.     1.
 1399.33      0.24      0.21                     30.     1.
 1447.14      0.17      0.42                     7.
 1549.76      0.14      0.35                     9.
 1565.88      0.20      0.5                     12.
 1597.3       0.4       0.10                     10.
 1597.3       0.4                 0.1
 1624.24      0.20      0.37                     11.
 1718.73      0.10      0.66                     8.
 1759.58      0.14      1.41                     5.
 1759.8       0.2       0.33                     23.     1.
 1807.77      0.10      0.46                     9.
 1818.99      0.21      0.32                     9.
 1838.8       0.6       0.27                     19.     1.
 1861.1       0.5       0.18                     22.
 1861.1       0.5       0.18                     22.
 1864.19      0.18      0.56                     9.
 1888.2       0.6       0.30                     28.     1.
 1933.57      0.11      0.69                     7.
 1977.92      0.14      0.41                     7.
 1999.04      0.04      1.95                     3.
 1999.04      0.04      1.95                     3.
 2021.06      0.20      0.81                     6.
 2197.6       0.3       0.34                     21.
 2197.6       0.3       0.34                     20.
 3427.70      0.15      0.38                     13.
 3572.3       0.4       0.29                     14.
 3709.02      0.18      0.37                     11.
 3982.4       0.3       0.19                     16.
 3991.5       0.3       0.38                     11.
 4117.3       0.3       0.30                     27.
 4203.0       0.4       0.92                     4.
 4242.4       0.5       0.58                     8.
 4285.1       0.4       0.18                     11.
 4307.7       0.3       0.58                     3.
 4731.7       0.3       0.96                     3.
 4770.70      0.09      2.60                     2.
 4797.3       0.6       0.43                     7.
 4836.79      0.11      0.52                     6.
 4908.76      0.23      0.92                     2.
 4950.88      0.23      0.77                     4.
 5041.1       0.3       0.45                     7.
 5088.7       0.5                0.05
 5121.63      0.10      1.33                     2.
 5169.55      0.7       2.26                     2.
 5482.6       0.8                0.05
 5584.45      0.11      1.27                     2.
 5610.6       0.3       0.13                     31.
 5892.68      0.27      0.13                     31.
 6329.6       0.3       0.18                     33.
 6424.6       0.3                 0.01
 6489.0       0.5       0.06                     33.
 6770.17      0.23      0.16                     6.
 6928.9       0.3       0.08                     12.
ENDDATA            149
ENDSUBENT          170
ENDENTRY             2
