ENTRY            31578   20060714   20061121   20061121       3120
SUBENT        31578001   20060714   20061121   20061121       3120
BIB                 16         49
TITLE      Thermal neutron cross section of liquid and solid
           mesitylene
AUTHOR     (F.Cantargi,J.J.Blostein,L.Torres.J.R.Granada)
INSTITUTE  (3ARGCAB,3ARGCIN)
REFERENCE  (J,NIM/B,248,340,2006)
FACILITY   (LINAC,3ARGCAB)  25 MeV Electron LINAC based pulsed
           neutron source  at Centro Atomico Bariloche (Argentina)
SAMPLE     A commercial mesitylene ( 1,3,5-trimethylbenzene
           C6H3(CH3)3, 98.8% in purity) is liquid  at (293+-2) K
           and solid at (89.45+-0.05) K were used. Density is
            (0.896+-0.01) g/cm3 and thickness is (0.214+-0.002)cm.
             The mesitylene sample was supplied by ALDRICH
DETECTOR   (PROPC)  The detector bank consisted of seven 3He
           proportional counters (10 atm  filling press., 15.24cm
           active length, 2.54 cm diam.) placed at (827.2+-0.5)cm
           from the thermal neutron source, as determined
           by the use of well known  absorption resonances
INC-SOURCE A lead target and a slab shaped (4x21x21) cm3
           polyethylene moderator  were employed to obtain a
           thermal neutron spectrum. The sample was  placed at
           about 360 cm from the neutron source in a separate
           room  shielded by 100 cm thick concrete wall.
METHOD     (TOF) flight path =(827.2+-0.5)cm.
            The  sample-in sample-out method was used.
            Standard normalized transmission measurement.
MONITOR    The experimental data were normalized in the free-atom
           region to the cross section value of 288.63 barn for
           the molecule unit.
PART-DET   (N) neutrons
MONIT-REF  (,S.F.Mughabghab,B,NEUT.CS 1A,,1981) S.F. Mughabghab,
           etc. Neutron Cross Sections, Neutron Resonance
           Parameters and Thermal Cross Sections, Part A,
           Z = 1-60, 1, Academic Press, New York, 1981.
ERR-ANALYS (ERR-S) Quoted errors are only due to statistics.
            The observed spectra were normalized using the
           integral counts from a monitoring  3He detector and
           stored in 8192 channels, 2 ls width. Background was
           measured  and subtracted from both the incident and the
            transmitted beam spectra.
           The time of flight scale was corrected by the mean
           emission time of the moderator while the spectra were
           corrected by dead time effects from detectors and
           electronics which were less than 2% in every case
CORRECTION Corrections performed: background, dead time and mean
           emission time.
           Negligible are in-scattering and multiple scattering.
STATUS     (TABLE) Data received from Dr. F.Cantargi
           (APRVD) Entry approved by Dr. F.Cantargi
HISTORY    (20060818C) SD
ENDBIB              49
NOCOMMON             0          0 3
ENDSUBENT           52
SUBENT        31578002   20060714   20061121   20061121       3120
BIB                  1          2
REACTION   (1-H-CXX(N,TOT),,SIG/TMP) cross section for
           mesitylene ((C6H3(CH3)3)  liquid sample
ENDBIB               2
COMMON               2          3
TEMP       TEMP-ERR
K          K
   293.     2.
ENDCOMMON            3
DATA                 3        148
EN         DATA       ERR-S
EV         B          B
  0.0017    1390.66    23.23
  0.0018    1350.01    19.71
  0.0019    1333.85    19.24
  0.0021    1257.25    17.37
  0.0022    1251.75    16.60
  0.0024    1226.41    15.43
  0.0026    1184.00    14.85
  0.0028    1151.39    14.52
  0.0030    1121.50    14.82
  0.0033    1099.63    13.99
  0.0036    1082.11    13.75
  0.0038    1070.66    12.02
  0.0041    1042.11    11.91
  0.0045    1020.44    11.47
  0.0048     997.77    10.98
  0.0052     988.22    11.03
  0.0056     966.76    10.42
  0.0061     949.74    10.19
  0.0066     931.44    9.99
  0.0071     916.75    9.70
  0.0076     900.76    9.54
  0.0083     881.99    9.43
  0.0089     866.65    9.05
  0.0096     853.86    8.81
  0.0104     840.38    8.89
  0.0112     827.32    8.59
  0.0121     813.71    8.46
  0.0131     799.64    8.39
  0.0141     790.44    8.27
  0.0153     772.63    8.10
  0.0165     760.05    8.00
  0.0178     746.07    7.70
  0.0192     733.70    7.62
  0.0207     715.43    7.53
  0.0224     702.71    7.35
  0.0242     687.28    7.20
  0.0261     672.42    7.08
  0.0282     658.61    6.91
  0.0304     644.47    6.83
  0.0329     631.82    6.70
  0.0355     616.49    6.61
  0.0383     602.56    6.55
  0.0414     588.03    6.38
  0.0447     574.34    6.24
  0.0482     561.46    6.11
  0.0521     545.71    6.02
  0.0562     531.44    5.83
  0.0607     519.82    5.71
  0.0656     507.19    5.59
  0.0708     493.14    5.49
  0.0764     478.54    5.50
  0.0825     465.55    5.27
  0.0891     454.80    5.30
  0.0962     443.99    5.12
  0.1039     431.31    5.03
  0.1122     421.45    4.97
  0.1212     413.92    4.92
  0.1308     406.85    4.93
  0.1413     397.75    5.05
  0.1525     386.71    4.78
  0.1647     382.07    4.82
  0.1778     376.71    5.12
  0.1920     370.27    4.86
  0.2073     365.56    4.70
  0.2239     360.35    4.94
  0.2417     353.44    4.90
  0.2610     345.76    4.62
  0.2818     341.36    4.68
  0.3043     332.64    4.84
  0.3286     329.17    4.80
  0.3548     324.99    5.16
  0.3831     325.53    4.76
  0.4137     316.84    4.47
  0.4467     318.96    4.73
  0.4823     318.98    4.42
  0.5208     308.95    5.14
  0.5623     313.37    4.68
  0.6072     313.27    4.74
  0.6556     310.39    4.68
  0.7080     303.11    4.96
  0.7644     306.59    4.43
  0.8254     305.37    4.72
  0.8913     304.55    4.82
  0.9624     298.09    4.69
  1.0391     296.36    5.16
  1.1220     301.97    5.06
  1.2115     305.29    4.82
  1.3082     298.97    5.29
  1.4125     294.99    4.96
  1.5252     301.16    4.67
  1.6469     297.63    4.96
  1.7783     292.81    5.35
  1.9201     297.54    5.46
  2.0733     289.22    5.24
  2.2387     292.86    5.14
  2.4173     296.42    5.52
  2.6102     298.66    5.15
  2.8184     291.01    5.46
  3.0432     298.43    5.00
  3.2860     293.13    5.82
  3.5481     294.69    6.02
  3.8312     295.16    5.69
  4.1368     288.41    5.96
  4.4668     295.99    5.43
  4.8232     283.92    5.85
  5.2080     281.65    5.80
  5.6234     294.75    5.52
  6.0720     287.76    5.34
  6.5564     287.60    4.90
  7.0795     287.45    5.54
  7.6442     290.81    5.57
  8.2540     289.00    6.10
  8.9125     286.28    6.22
  9.6235     286.17    6.26
  10.3912    290.49    6.31
  11.2202    287.16    5.87
  12.1153    295.77    5.65
  13.0818    283.23    6.14
  14.1254    284.80    5.76
  15.2522    287.37    7.44
  16.4690    299.92    6.43
  17.7828    290.65    6.69
  19.2014    289.19    7.14
  20.7332    282.96    7.24
  22.3872    296.12    6.25
  24.1732    291.09    7.16
  26.1016    285.62    6.62
  28.1838    294.17    7.05
  30.4322    283.00    7.46
  32.8599    283.42    7.31
  35.4813    296.76    7.42
  38.3119    296.89    7.26
  41.3682    286.23    6.83
  44.6684    292.75    6.17
  48.2318    291.70    7.08
  52.0795    278.89    7.01
  56.2341    285.12    6.44
  60.7202    286.64    7.36
  65.5642    289.96    6.77
  70.7946    282.40    7.06
  76.4422    282.50    7.35
  82.5404    294.28    8.10
  89.1251    287.02    8.22
  96.2351    299.08    6.74
 103.9122    288.08    6.65
 112.2019    295.99    6.90
 121.1528    285.19    7.09
 130.8178    286.77    8.31
ENDDATA            150
ENDSUBENT          161
SUBENT        31578003   20060714   20061121   20061121       3120
BIB                  1          2
REACTION   (1-H-CXX(N,TOT),,SIG/TMP) cross section for
           mesitylene ((C6H3(CH3)3)  solid sample
ENDBIB               2
COMMON               2          3
TEMP       TEMP-ERR
K          K
   89.45     0.05
ENDCOMMON            3
DATA                 3         95
EN         DATA       ERR-S
EV         B          B
   0.0019    1018.46    7.79
   0.0021    1009.26    9.56
   0.0024     991.16    7.08
   0.0027     963.90    6.73
   0.0030     953.19    6.20
   0.0034     947.98    6.07
   0.0038     925.40    5.39
   0.0042     898.52    4.63
   0.0047     892.76    4.53
   0.0053     889.16    3.99
   0.0060     880.21    4.19
   0.0067     855.81    3.05
   0.0075     849.76    3.67
   0.0084     835.37    3.49
   0.0094     818.58    3.37
   0.0106     804.00    2.82
   0.0119     797.74    3.04
   0.0133     783.63    3.26
   0.0150     782.46    2.86
   0.0168     760.97    2.84
   0.0188     738.69    3.01
   0.0211     714.76    2.88
   0.0237     693.32    2.93
   0.0266     670.86    2.81
   0.0299     652.34    2.66
   0.0335     630.76    2.62
   0.0376     611.83    2.70
   0.0422     593.80    2.75
   0.0473     572.28    2.80
   0.0531     550.12    2.87
   0.0596     528.96    2.74
   0.0668     507.38    2.74
   0.0750     488.04    2.85
   0.0841     467.09    2.63
   0.0944     446.80    2.85
   0.1059     431.34    2.80
   0.1189     416.35    3.00
   0.1334     405.53    2.92
   0.1496     394.32    2.86
   0.1679     383.33    2.90
   0.1884     377.12    3.12
   0.2114     367.03    2.96
   0.2371     359.15    2.98
   0.2661     348.47    3.54
   0.2985     340.65    3.86
   0.3350     331.77    3.48
   0.3758     326.04    3.15
   0.4217     322.33    3.49
   0.4732     322.58    3.64
   0.5309     320.85    3.78
   0.5957     315.03    3.82
   0.6683     311.01    3.79
   0.7499     310.36    3.65
   0.8414     309.90    4.06
   0.9441     305.61    3.99
   1.0593     303.53    4.14
   1.1885     303.65    3.60
   1.3335     299.47    4.00
   1.4962     303.16    3.93
   1.6788     296.66    4.24
   1.8837     296.57    4.42
   2.1135     300.31    4.14
   2.3714     303.36    4.51
   2.6607     295.99    4.13
   2.9854     290.38    5.05
   3.3497     295.23    4.32
   3.7584     293.40    4.67
   4.2170     295.36    4.64
   4.7315     289.38    5.31
   5.3088     291.65    4.95
   5.9566     288.83    4.25
   6.6834     293.25    5.23
   7.4989     289.30    5.01
   8.4140     294.39    5.28
   9.4406     301.07    4.81
  10.5925     294.63    4.50
  11.8850     292.80    5.21
  13.3352     293.45    5.37
  14.9624     292.89    5.82
  16.7880     296.32    5.29
  18.8365     297.47    4.95
  21.1349     293.32    5.67
  23.7137     286.15    5.99
  26.6073     295.70    5.66
  29.8538     290.99    5.44
  33.4965     294.99    5.29
  37.5837     274.48    5.48
  42.1697     275.37    6.34
  47.3151     285.28    5.66
  53.0884     280.39    5.93
  59.5662     292.72    6.08
  66.8344     291.36    6.85
  74.9894     291.59    7.34
  84.1395     298.65    6.52
  94.4061     280.96    6.42
ENDDATA             97
ENDSUBENT          108
ENDENTRY             3
