ENTRY            31581   20060710   20060814   20060809       3119
SUBENT        31581001   20060710   20060814   20060809       3119
BIB                 11         31
TITLE      Nuclear Data Production Facility Based on the Electron
AUTHOR     (G.Kim,H.Ahmed,R.Machrafi,D.Son,V.Skoy,Y.S.Lee,
           H.Kang,M-H.Cho,I.S.Ko,W.Namkung)
INSTITUTE  (3KORPUE,3KORKNU,4ZZZDUB)
REFERENCE  (J,KPS,43,479,2003) Journal of the Korean Phys.Society
FACILITY   (LINAC,3KORPUE) Electron linear accelerator
METHOD     (TOF,PSD) the authors also used transmission method
           lower-level discriminator
INC-SOURCE (PHOTO)  The target was composed, of 10 Ta plates with
           a diam. of 4.9 cm and an effective thickness of 7.4 cm
           There was a 0.15 cm water gap between Ta plates in
           order to cool the target effectively. The housing of
           the target was made of titanium. This target was set
           at the center of a cylindrical water moderator
           contained in an aluminum cylinder with thickness of
           0.5 cm, a diam. of 30 cm and height of 30 cm.
DETECTOR   (SCIN) The neutron detector is located at a distance of
           about 11 m from the photo-neutron target. A 6Li-ZnS(Ag)
           scintillator BC702 is viewed by using an EMI-93090
           photomultiplier at 800 Volts. This detector consists
           of a disc of 16 mm in thickness and 125 mm in diam. and
           incorporates a matrix of a lithium compound enriched
           to 95% 6Li dispersed in a fine ZnS(Ag) phosphor powder.
ERR-ANALYS (ERR-S) Statistical errors for the present measurements
           because the other sources of uncertainties, which
           include the detection effciencies, the geometric factor
           for the sample, and the other systematic errors,
           are negligible.
STATUS     (TABLE) Data received from Dr. G.Kim
           (APRVD) Entry was approved by Dr. G.Kim
HISTORY    (20060710C) SD
ENDBIB              31
NOCOMMON             0          0
ENDSUBENT           34
SUBENT        31581002   20060710   20060814   20060809       3119
BIB                  2          7
REACTION   (74-W-0(N,TOT),,SIG)
SAMPLE     Natural W (99.98% purity, 0.2 mm thick, 19.3 g/cm3)
           metal plates, 10x10 cm2 in cross-sectional area.
           A set of notch filters of Co, In, and Cd plates with
           thickness of 0.5 mm, 0.2 mm, and 0.5 mm, respectively,
           was also used for the background measurement and the
           energy calibration.
ENDBIB               7
NOCOMMON             0          0
DATA                 3         74
EN         DATA       ERR-S
EV         B          B
   0.02449   23.20754  16.61677
   0.03463   19.6334   12.07485
   0.0447    19.04917  10.09555
   0.05474   17.34309   9.18511
   0.06478   19.27858   8.82428
   0.07483   18.77175   8.79753
   0.08484   15.93935   8.98782
   0.09483   14.52514   9.32954
   0.14145   13.28061  11.76894
   0.84786   13.45876  13.31251
   1.74926   13.38014  12.31743
   2.39699   12.15541  11.87674
   3.35474   13.95422  11.52281
   3.45075   16.97752  11.3682
   3.55094   17.01062  11.4016
   3.74742   41.53394  11.36024
   3.95826   91.22368  11.55833
   4.06047  209.3244   11.97526
   4.14521  614.7936   14.05642
   4.25508  1064.34    17.5316
   4.36906  275.7649   12.22111
   4.46371   74.79257  11.33393
   4.70953   36.27563  11.04722
   4.93014   15.2424   10.94624
   5.10247   21.5112   10.89483
   5.53958   11.10456  10.85649
   6.26359   12.09792  10.6729
   6.68968   11.36473  10.52452
   6.82379   19.53642  10.58776
   7.11927   29.27305  10.53873
   7.40367   50.98624  10.59049
   7.50747   39.01875  10.55568
   7.61346   74.48503  10.65478
   7.72172  192.8117   10.89629
   7.83231  280.8049   11.3951
   7.94529  131.9503   10.89287
   8.06073   41.29468  10.45142
   9.482     13.63434  10.1289
  11.21127   14.13585   9.95751
  12.13146   29.28169   9.84364
  13.66983   26.27877   9.78147
  14.88994   47.72321   9.7113
  15.49367   67.0394    9.75239
  16.13488  124.8058    9.86746
  16.81674  194.5718   10.0772
  17.54275  420.9949   10.75814
  18.31681  1015.368   14.46793
  19.14327  1907.373   23.00953
  20.02694  1366.826   17.07614
  20.97325  617.19     11.60746
  21.98825  596.2678   11.64714
  22.79612  153.5998    9.61132
  23.6547   102.0558    9.34197
  24.55694   53.01469   9.28609
  26.02399   90.60444   9.1734
  27.61054  233.3391    9.64821
  28.75063   96.64362   9.06133
  29.55312   25.88485   8.88878
  31.275     17.53001   8.83417
  35.18905   19.8115    8.68065
  37.98041   18.15401   8.65425
  40.48514   21.86747   8.52118
  42.52113   29.75769   8.57959
  43.97102   11.16729   8.48488
  45.49636   46.90583   8.55414
  47.10246  200.358     8.94228
  48.79514  262.5161    9.1656
  50.58072   84.27019   8.54773
  54.49756   17.23352   8.28716
  69.20105   18.4708    8.01457
  73.85005   11.86073   7.95281
  86.59263   14.54225   7.89106
  93.1434    17.16125   7.80676
 100.372     17.60154   7.70776
ENDDATA             76
ENDSUBENT           88
SUBENT        31581003   20060710   20060814   20060809       3119
BIB                  2          7
REACTION   (22-TI-0(N,TOT),,SIG)
SAMPLE     Natural Ti (99.99% purity, 0.5 mm thick, 4.9 g/cm3)
           metal plates, 10x10 cm2 in cross-sectional area.
           A set of notch filters of Co, In, and Cd plates with
           thickness of 0.5 mm, 0.2 mm, and 0.5 mm, respectively,
           was also used for the background measurement and the
           energy calibration.
ENDBIB               7
NOCOMMON             0          0
DATA                 3         35
EN         DATA       ERR-S
EV         B          B
  0.00958    12.33778    2.46756
  0.01048    14.21862    2.84372
  0.01483    14.69467    2.93893
  0.02449    11.06686    2.21337
  0.03463    10.07992    2.01598
  0.0447      9.74574    1.94915
  0.05474     9.32254    1.86451
  0.06478     8.44092    1.68818
  0.07483     8.67862    1.73572
  0.08484     8.89136    1.77827
  0.09483     8.85268    1.77054
  0.14145     8.28494    1.65699
  0.24522     6.50066    1.30013
  0.34636     6.3393     1.26786
  0.4469      6.61063    1.32213
  0.54746     6.1485     1.2297
  0.74802     6.49038    1.29808
  1.29985     6.51515    1.30303
  1.54943     5.70657    1.14131
  1.72507     5.82435    1.16487
  1.94655     6.53657    1.30731
  2.1927      5.29172    1.05834
  2.69092     6.24656    1.24931
  3.49518     6.7888     1.35776
  5.00911     5.84059    1.16812
  7.23373     7.36959    1.47392
 10.49093     6.04408    1.20882
 14.19405     6.06173    1.21235
 20.02146     4.4221     0.88442
 28.93971     5.14073    1.02815
 43.34354    12.66927    2.53385
 51.68501     7.35721    1.47144
 66.52865     8.57343    1.71469
 77.79956     9.55264    1.91053
 93.31286     5.1528     1.03056
ENDDATA             37
ENDSUBENT           49
ENDENTRY             3
