ENTRY            D6097   20120809   20121203   20121116       D085
SUBENT        D6097001   20120809   20121203   20121116       D085
BIB                  8         14
TITLE      Isobaric analogue resonances in the 80Se(p,n)80Br
            reaction
AUTHOR     (S.Kailas, S.Saini, M.K.Mehta, N.Veerabahu, Y.P.Viyogi,
            N.K.Ganguly)
INSTITUTE  (3INDTRM)
REFERENCE  (J,NP/A,315,157,1979)
FACILITY   (CYCLO,3INDVEC)
SAMPLE     (34-SE-80,ENR=0.93)
           93% enriched 80Se prepared on vacuum evaporation on
            0.15 mm Ta backing.
          Target thickness: 5 keV at 4 MeV proton.
DETECTOR   (D4PI)
HISTORY    (20110628C) M.M.Musthafa
           (20120809A) On. Re-digitized and finalized.
ENDBIB              14
NOCOMMON             0          0
ENDSUBENT           17
SUBENT        D6097002   20120809   20121203   20121116       D085
BIB                  4         12
REACTION   (34-SE-80(P,N)35-BR-80,,SIG)
ERR-ANALYS (DATA-ERR) Over all error estimated 13% including
           - 10% due to target thickness and non-uniformity;
           - 7% due to uncertainty in detector efficiency.
           The error in the cross section estimate due to the
            presence of the other Se isotopes (e.g., 78Se, 82Se)
            is expected to be small compared to the over all
            error of 13% in the cross sections.
COMMENT    By Compiler (2012-08-09):
            Digitization accuracy is not very good due to the
            quality of the original figure.
STATUS     (CURVE) Fig.1 of Nucl.Phys.A315(1979)157
ENDBIB              12
NOCOMMON             0          0
DATA                 3        212
EN         DATA       DATA-ERR
MEV        MB         MB
 2.743        1.70
 2.803        3.12
 2.850        3.39
 2.911        4.18
 2.958        6.36
 3.008        6.12
 3.053        7.66
 3.113        8.19
 3.161        8.97
 3.215       10.64
 3.263       11.81
 3.297       13.09
 3.345       16.80
 3.411       19.24
 3.467       21.43
 3.509       24.50
 3.561       26.55
 3.608       28.35
 3.653       32.31
 3.705       33.99
 3.756       33.11
 3.773       39.87
 3.787       41.32
 3.808       42.02
 3.815       50.78
 3.821       63.19
 3.825       79.63
 3.837       67.91
 3.840       54.75
 3.845       46.33
 3.850       40.47
 3.857       39.86
 3.866       40.87
 3.879       40.50
 3.886       40.40
 3.894       42.18
 3.903       41.83
 3.913       43.85
 3.921       45.45
 3.931       45.17
 3.945       47.59
 3.955       45.38
 3.968       47.55
 3.985       48.14
 3.997       49.14
 4.010       50.02
 4.023       51.13
 4.037       52.16
 4.050       55.42
 4.062       56.52
 4.077       56.15
 4.085       55.72
 4.090       60.56
 4.103       61.17
 4.115       65.16
 4.128       63.89
 4.148       66.19
 4.168       66.20
 4.184       68.31
 4.196       70.24
 4.210       70.45
 4.226       71.88
 4.241       72.54
 4.253       71.83
 4.265       74.36
 4.273       78.37
 4.283       80.31
 4.293       81.25
 4.301       86.72
 4.306       93.29
 4.306      104.98
 4.315      111.58
 4.319       93.63
 4.322       83.39
 4.326       78.26
 4.337       81.89
 4.347       85.90
 4.359       82.20
 4.367       86.59
 4.376       85.84
 4.387       87.61
 4.398       87.98
 4.408       88.93
 4.412       90.97
 4.421       93.68
 4.428       97.06
 4.437       98.14
 4.446       97.76
 4.449       94.65
 4.457       93.35
 4.463       97.01
 4.470      100.63
 4.480       99.15
 4.491       99.35
 4.500       99.48
 4.510      102.38
 4.517      105.44
 4.523      108.89
 4.529      106.36
 4.531      104.13
 4.539       98.91
 4.550      105.96
 4.556      109.23
 4.561      100.82
 4.566      106.66
 4.574      109.76
 4.580      113.16
 4.585      116.49
 4.595      113.54
 4.605      116.52
 4.616      118.62
 4.620      122.98
 4.632      124.43
 4.634      126.71
 4.640      125.67
 4.646      122.58
 4.649      126.67
 4.656      131.69
 4.660      127.34
 4.665      133.87
 4.673      132.43
 4.677      128.00
 4.687      129.33
 4.695      130.34
 4.702      134.42
 4.712      137.06
 4.722      137.79
 4.727      141.05
 4.732      137.09
 4.736      133.73
 4.739      140.66
 4.746      143.57
 4.751      140.64
 4.760      144.35
 4.766      140.43
 4.771      137.68
 4.778      144.24
 4.781      149.35
 4.786      144.83
 4.790      152.67
 4.795      147.13
 4.801      151.87
 4.805      162.46
 4.811      155.87
 4.819      158.78
 4.826      163.88
 4.829      167.90
 4.837      168.96
 4.840      174.82
 4.845      184.68
 4.854      205.13
 4.858      225.95
 4.862      273.83
 4.868      321.33     15.16
 4.875      271.24
 4.875      234.08
 4.881      206.08
 4.891      180.93      9.69
 4.901      185.66
 4.907      188.96
 4.912      196.46
 4.921      192.00
 4.925      196.58
 4.934      211.43
 4.940      215.52
 4.945      215.91
 4.969      228.90
 4.974      235.22
 4.977      248.74
 4.983      253.85
 4.993      267.72
 5.002      266.59     14.33
 5.014      244.72
 5.018      234.04
 5.022      219.78
 5.028      206.97
 5.030      198.20
 5.036      192.34      8.07
 5.052      196.69
 5.057      203.26
 5.061      210.93
 5.082      293.86     15.24
 5.112      198.40
 5.127      190.33      8.63
 5.137      186.79
 5.142      200.78
 5.148      188.48
 5.162      198.01
 5.168      196.82
 5.174      183.60
 5.176      187.40
 5.182      195.58
 5.193      188.69
 5.195      199.30
 5.217      203.36
 5.220      209.95
 5.227      212.89
 5.233      221.58
 5.238      233.95
 5.248      252.44      9.56
 5.255      230.46
 5.257      223.16
 5.271      194.46
 5.278      211.37
 5.288      208.33
 5.296      210.16
 5.310      211.96
 5.318      214.42
 5.321      217.80
 5.328      220.09
 5.336      228.01
 5.348      231.71
ENDDATA            214
ENDSUBENT          231
ENDENTRY             2
