ENTRY            F1444   20210903   20220015   20211213       F087
SUBENT        F1444001   20210903   20220015   20211213       F087
BIB                  9         20
TITLE      The energy spectrum of neutrons from 7Li(d,n)8Be
           reaction at deuteron energy 2.9 MeV
AUTHOR     (K.V.Mitrofanov,V.M.Piksaikin,K.I.Zolotarev,
           A.S.Egorov,D.E.Gremyachkin)
INSTITUTE  (4RUSFEI)
REFERENCE  (J,EPJ/CS,146,11041,2017)
           #doi:10.1051/epjconf/201714611041
FACILITY   (VDGT,4RUSFEI)
METHOD     (ACTIV)
DETECTOR   As activation detectors a wide range of nuclear
           reactions were used: 27Al(n,p)27Mg,
           27Al(n,alpha)24Na, 113In(n,n')113mIn,
           115In(n,n')115mIn, 115In(n,gamma)116mIn,
           58Ni(n,p)58mCo, 58Ni(n,2n)57Ni, 197Au(n,gamma)198Au,
           197Au(n,2n)196Au, 59Co(n,p)59Fe, 59Co(n,2n)58m+gCo,
           59Co(n,gamma)60Co. Measurement of the induced gamma-
           activity was carried out using HPGe detector.
SAMPLE     The target was a thick (~ 200 mu-g/cm2) lithium layer
           on metallic backing.
HISTORY    (20210903C)
ENDBIB              20
COMMON               2          3
EN         ANG
MEV        ADEG
        2.9         0.
ENDCOMMON            3
ENDSUBENT           27
SUBENT        F1444002   20210903   20220015   20211213       F087
BIB                  3          7
REACTION   (3-LI-7(D,X)0-NN-1,,PY/DA/DE,,TT/CH/REL,DERIV)
           Average unfolding spectrum is given
           Relative units are the number of neutrons/micro-Coulomb
ANALYSIS   (UNFLD) The STAYSLF program was used for the neutron
           spectrum unfolding from the reaction rates data.
STATUS     (TABLE) Fig.2 from EPJ Web of Conf., 146,11041,2017
           Data were presented by Dr. K.V. Mitrofanov.
ENDBIB               7
NOCOMMON             0          0
DATA                 2        640
E          DATA
MEV        ARB-UNITS
    0.03125   1.578E+8
     0.0625   1.578E+8
    0.09375   1.578E+8
      0.125   1.578E+8
    0.15625   1.578E+8
     0.1875   1.578E+8
    0.21875   1.578E+8
       0.25   1.578E+8
    0.28125   1.578E+8
     0.3125   1.578E+8
    0.34375   1.578E+8
      0.375 1.57805E+8
    0.40625 1.57844E+8
     0.4375 1.57883E+8
    0.46875 1.57945E+8
        0.5 1.58023E+8
    0.53125 1.58101E+8
     0.5625 1.58214E+8
    0.59375 1.58382E+8
      0.625 1.58551E+8
    0.65625 1.58719E+8
     0.6875 1.58931E+8
    0.71875 1.59296E+8
       0.75 1.59661E+8
    0.78125 1.60026E+8
     0.8125 1.60391E+8
    0.84375 1.60839E+8
      0.875 1.61399E+8
    0.90625 1.61959E+8
     0.9375 1.62519E+8
    0.96875 1.63078E+8
         1. 1.63638E+8
    1.03125  1.6429E+8
     1.0625  1.6511E+8
    1.09375 1.65931E+8
      1.125 1.66751E+8
    1.15625 1.67571E+8
     1.1875 1.68392E+8
    1.21875 1.69212E+8
       1.25 1.70021E+8
    1.28125 1.70772E+8
     1.3125 1.71523E+8
    1.34375 1.72274E+8
      1.375 1.73024E+8
    1.40625 1.73775E+8
     1.4375 1.74526E+8
    1.46875 1.75277E+8
        1.5 1.76028E+8
    1.53125 1.76573E+8
     1.5625  1.7677E+8
    1.59375 1.76966E+8
      1.625 1.77163E+8
    1.65625 1.77359E+8
     1.6875 1.77556E+8
    1.71875 1.77753E+8
       1.75 1.77949E+8
    1.78125 1.78146E+8
     1.8125 1.78343E+8
    1.84375 1.78539E+8
      1.875 1.78653E+8
    1.90625 1.78395E+8
     1.9375 1.78137E+8
    1.96875 1.77879E+8
         2. 1.77621E+8
    2.03125 1.77362E+8
     2.0625 1.77104E+8
    2.09375 1.77139E+8
      2.125 1.77252E+8
    2.15625 1.77364E+8
     2.1875 1.77477E+8
    2.21875 1.78523E+8
       2.25 1.79812E+8
    2.28125 1.81101E+8
     2.3125  1.8239E+8
    2.34375 1.83574E+8
      2.375 1.84731E+8
    2.40625 1.85889E+8
     2.4375 1.87046E+8
    2.46875 1.88199E+8
        2.5 1.87893E+8
    2.53125 1.87586E+8
     2.5625 1.87279E+8
    2.59375 1.86973E+8
      2.625 1.86666E+8
    2.65625  1.8636E+8
     2.6875 1.86053E+8
    2.71875 1.85727E+8
       2.75 1.83756E+8
    2.78125 1.81786E+8
     2.8125 1.79815E+8
    2.84375 1.77844E+8
      2.875 1.75846E+8
    2.90625  1.7375E+8
     2.9375 1.71654E+8
    2.96875 1.69558E+8
         3. 1.67462E+8
    3.03125  1.6543E+8
     3.0625 1.63484E+8
    3.09375 1.61539E+8
      3.125 1.59593E+8
    3.15625 1.57648E+8
     3.1875  1.5582E+8
    3.21875 1.54255E+8
       3.25 1.52691E+8
    3.28125 1.51127E+8
     3.3125 1.49563E+8
    3.34375 1.47999E+8
      3.375 1.46852E+8
    3.40625 1.45767E+8
     3.4375 1.44681E+8
    3.46875 1.43595E+8
        3.5 1.42509E+8
    3.53125 1.41423E+8
     3.5625 1.40336E+8
    3.59375 1.39249E+8
      3.625 1.38162E+8
    3.65625 1.37075E+8
     3.6875 1.35988E+8
    3.71875 1.34901E+8
       3.75 1.33822E+8
    3.78125 1.32742E+8
     3.8125 1.31663E+8
    3.84375 1.30584E+8
      3.875 1.29505E+8
    3.90625 1.28425E+8
     3.9375 1.27346E+8
    3.96875 1.26267E+8
         4. 1.25187E+8
    4.03125  1.2402E+8
     4.0625 1.22748E+8
    4.09375 1.21476E+8
      4.125 1.20204E+8
    4.15625 1.18931E+8
     4.1875 1.17659E+8
    4.21875 1.16387E+8
       4.25 1.15115E+8
    4.28125 1.13843E+8
     4.3125 1.12571E+8
    4.34375 1.11194E+8
      4.375 1.09802E+8
    4.40625  1.0841E+8
     4.4375 1.07017E+8
    4.46875 1.05625E+8
        4.5 1.04233E+8
    4.53125  1.0284E+8
     4.5625 1.01448E+8
    4.59375 1.00056E+8
      4.625 9.86632E+7
    4.65625 9.74438E+7
     4.6875 9.64139E+7
    4.71875 9.53841E+7
       4.75 9.43542E+7
    4.78125 9.33244E+7
     4.8125 9.22946E+7
    4.84375 9.12647E+7
      4.875 9.02349E+7
    4.90625  8.9205E+7
     4.9375 8.81752E+7
    4.96875 8.71453E+7
         5. 8.61155E+7
    5.03125 8.51444E+7
     5.0625 8.42345E+7
    5.09375 8.33246E+7
      5.125 8.24147E+7
    5.15625 8.15048E+7
     5.1875 8.05949E+7
    5.21875  7.9685E+7
       5.25 7.87751E+7
    5.28125 7.78652E+7
     5.3125 7.69553E+7
    5.34375 7.60454E+7
      5.375 7.50709E+7
    5.40625  7.3947E+7
     5.4375  7.2823E+7
    5.46875  7.1699E+7
        5.5  7.0575E+7
    5.53125  6.9451E+7
     5.5625  6.8327E+7
    5.59375  6.7203E+7
      5.625  6.6079E+7
    5.65625  6.4955E+7
     5.6875 6.38311E+7
    5.71875 6.27071E+7
       5.75 6.15831E+7
    5.78125 6.04591E+7
     5.8125  5.9362E+7
    5.84375 5.82755E+7
      5.875 5.71891E+7
    5.90625 5.61026E+7
     5.9375 5.50162E+7
    5.96875 5.39297E+7
         6. 5.28433E+7
    6.03125 5.17568E+7
     6.0625 5.06704E+7
    6.09375 4.95839E+7
      6.125 4.84975E+7
    6.15625  4.7411E+7
     6.1875 4.63246E+7
    6.21875 4.53072E+7
       6.25 4.47494E+7
    6.28125 4.41916E+7
     6.3125 4.36338E+7
    6.34375 4.30761E+7
      6.375 4.25183E+7
    6.40625 4.19605E+7
     6.4375 4.14027E+7
    6.46875 4.08449E+7
        6.5 4.02871E+7
    6.53125 3.97294E+7
     6.5625 3.91716E+7
    6.59375 3.86138E+7
      6.625  3.8056E+7
    6.65625 3.74982E+7
     6.6875 3.69405E+7
    6.71875 3.63971E+7
       6.75 3.59373E+7
    6.78125 3.54774E+7
     6.8125 3.50175E+7
    6.84375 3.45577E+7
      6.875 3.40978E+7
    6.90625  3.3638E+7
     6.9375 3.31781E+7
    6.96875 3.27182E+7
         7. 3.22584E+7
    7.03125 3.17985E+7
     7.0625 3.13386E+7
    7.09375 3.08788E+7
      7.125 3.04189E+7
    7.15625  2.9959E+7
     7.1875 2.94992E+7
    7.21875  2.9087E+7
       7.25 2.89166E+7
    7.28125 2.87463E+7
     7.3125  2.8576E+7
    7.34375 2.84057E+7
      7.375 2.82354E+7
    7.40625  2.8065E+7
     7.4375 2.78947E+7
    7.46875 2.77244E+7
        7.5 2.75541E+7
    7.53125 2.73838E+7
     7.5625 2.72134E+7
    7.59375 2.70431E+7
      7.625 2.68728E+7
    7.65625 2.67025E+7
     7.6875 2.66901E+7
    7.71875 2.67224E+7
       7.75 2.67546E+7
    7.78125 2.67868E+7
     7.8125  2.6819E+7
    7.84375 2.68512E+7
      7.875 2.68835E+7
    7.90625 2.69157E+7
     7.9375 2.69479E+7
    7.96875 2.69801E+7
         8. 2.70123E+7
    8.03125 2.70446E+7
     8.0625 2.70768E+7
    8.09375  2.7109E+7
      8.125 2.71412E+7
    8.15625 2.71735E+7
     8.1875 2.72675E+7
    8.21875 2.73773E+7
       8.25  2.7487E+7
    8.28125 2.75968E+7
     8.3125 2.77066E+7
    8.34375 2.78164E+7
      8.375 2.79261E+7
    8.40625 2.80359E+7
     8.4375 2.81457E+7
    8.46875 2.82555E+7
        8.5 2.83652E+7
    8.53125  2.8475E+7
     8.5625 2.85848E+7
    8.59375 2.86946E+7
      8.625 2.88043E+7
    8.65625 2.89141E+7
     8.6875 2.90239E+7
    8.71875 2.91064E+7
       8.75 2.90898E+7
    8.78125 2.90732E+7
     8.8125 2.90566E+7
    8.84375   2.904E+7
      8.875 2.90234E+7
    8.90625 2.90068E+7
     8.9375 2.89902E+7
    8.96875 2.89736E+7
         9.  2.8957E+7
    9.03125 2.89404E+7
     9.0625 2.89238E+7
    9.09375 2.89072E+7
      9.125 2.88906E+7
    9.15625  2.8874E+7
     9.1875 2.88574E+7
    9.21875 2.88408E+7
       9.25 2.88241E+7
    9.28125 2.88075E+7
     9.3125 2.87909E+7
    9.34375 2.87743E+7
      9.375 2.87187E+7
    9.40625 2.86128E+7
     9.4375 2.85069E+7
    9.46875  2.8401E+7
        9.5 2.82951E+7
    9.53125 2.81892E+7
     9.5625 2.80834E+7
    9.59375 2.79775E+7
      9.625 2.78716E+7
    9.65625 2.77657E+7
     9.6875 2.76598E+7
    9.71875  2.7554E+7
       9.75 2.74481E+7
    9.78125 2.73422E+7
     9.8125 2.72363E+7
    9.84375 2.71304E+7
      9.875 2.70245E+7
    9.90625 2.69187E+7
     9.9375 2.68128E+7
    9.96875 2.67069E+7
        10.  2.6601E+7
   10.03125 2.67564E+7
    10.0625 2.70465E+7
   10.09375 2.73366E+7
     10.125 2.76267E+7
   10.15625 2.79169E+7
    10.1875  2.8207E+7
   10.21875 2.84971E+7
      10.25 2.87872E+7
   10.28125 2.90773E+7
    10.3125 2.93674E+7
   10.34375 2.96575E+7
     10.375 2.99476E+7
   10.40625 3.02377E+7
    10.4375 3.05278E+7
   10.46875 3.08179E+7
       10.5  3.1108E+7
   10.53125 3.13981E+7
    10.5625  3.1937E+7
   10.59375 3.25737E+7
     10.625 3.32103E+7
   10.65625 3.38469E+7
    10.6875 3.44836E+7
   10.71875 3.51202E+7
      10.75 3.57569E+7
   10.78125 3.63935E+7
    10.8125 3.70302E+7
   10.84375 3.76668E+7
     10.875 3.83034E+7
   10.90625 3.89401E+7
    10.9375 3.95767E+7
   10.96875 4.02134E+7
        11.   4.085E+7
   11.03125 4.14866E+7
    11.0625 4.21233E+7
   11.09375 4.27599E+7
     11.125 4.35355E+7
   11.15625 4.44517E+7
    11.1875 4.53678E+7
   11.21875 4.62839E+7
      11.25    4.72E+7
   11.28125 4.81161E+7
    11.3125 4.90322E+7
   11.34375 4.99483E+7
     11.375 5.08644E+7
   11.40625 5.17806E+7
    11.4375 5.26967E+7
   11.46875 5.36128E+7
       11.5 5.45289E+7
   11.53125  5.5445E+7
    11.5625 5.63611E+7
   11.59375 5.72772E+7
     11.625 5.81934E+7
   11.65625 5.91095E+7
    11.6875 6.00256E+7
   11.71875 6.07272E+7
      11.75 6.14193E+7
   11.78125 6.21113E+7
    11.8125 6.28033E+7
   11.84375 6.34953E+7
     11.875 6.41873E+7
   11.90625 6.48793E+7
    11.9375 6.55714E+7
   11.96875 6.62634E+7
        12. 6.69554E+7
   12.03125 6.76474E+7
    12.0625 6.83394E+7
   12.09375 6.90314E+7
     12.125 6.97235E+7
   12.15625 7.04155E+7
    12.1875 7.11075E+7
   12.21875 7.17995E+7
      12.25 7.24915E+7
   12.28125 7.31835E+7
    12.3125 7.37565E+7
   12.34375  7.3586E+7
     12.375 7.34155E+7
   12.40625  7.3245E+7
    12.4375 7.30745E+7
   12.46875  7.2904E+7
       12.5 7.27335E+7
   12.53125  7.2563E+7
    12.5625 7.23925E+7
   12.59375  7.2222E+7
     12.625 7.20515E+7
   12.65625  7.1881E+7
    12.6875 7.17105E+7
   12.71875   7.154E+7
      12.75 7.13695E+7
   12.78125 7.11991E+7
    12.8125 7.10286E+7
   12.84375 7.08581E+7
     12.875 7.06876E+7
   12.90625 7.05171E+7
    12.9375 7.03466E+7
   12.96875 7.01761E+7
        13. 7.00056E+7
   13.03125 6.93266E+7
    13.0625 6.84887E+7
   13.09375 6.76508E+7
     13.125 6.68129E+7
   13.15625  6.5975E+7
    13.1875  6.5137E+7
   13.21875 6.42991E+7
      13.25 6.34612E+7
   13.28125 6.26233E+7
    13.3125 6.17854E+7
   13.34375 6.09475E+7
     13.375 6.01096E+7
   13.40625 5.92717E+7
    13.4375 5.84337E+7
   13.46875 5.75958E+7
       13.5 5.67579E+7
   13.53125   5.592E+7
    13.5625 5.50821E+7
   13.59375 5.42442E+7
     13.625 5.34063E+7
   13.65625 5.25683E+7
    13.6875 5.17304E+7
   13.71875 5.08925E+7
      13.75  5.0116E+7
   13.78125 4.93604E+7
    13.8125 4.86048E+7
   13.84375 4.78492E+7
     13.875 4.70936E+7
   13.90625  4.6338E+7
    13.9375 4.55824E+7
   13.96875 4.48268E+7
        14. 4.40711E+7
   14.03125 4.33155E+7
    14.0625 4.25599E+7
   14.09375 4.18043E+7
     14.125 4.10487E+7
   14.15625 4.02931E+7
    14.1875 3.95375E+7
   14.21875 3.87819E+7
      14.25 3.80263E+7
   14.28125 3.72706E+7
    14.3125  3.6515E+7
   14.34375 3.57594E+7
     14.375 3.50038E+7
   14.40625 3.42482E+7
    14.4375 3.34926E+7
   14.46875  3.2737E+7
       14.5 3.19814E+7
   14.53125 3.15851E+7
    14.5625 3.12714E+7
   14.59375 3.09578E+7
     14.625 3.06442E+7
   14.65625 3.03306E+7
    14.6875  3.0017E+7
   14.71875 2.97034E+7
      14.75 2.93898E+7
   14.78125 2.90761E+7
    14.8125 2.87625E+7
   14.84375 2.84489E+7
     14.875 2.81353E+7
   14.90625 2.78217E+7
    14.9375 2.75081E+7
   14.96875 2.71945E+7
        15. 2.68808E+7
   15.03125 2.65672E+7
    15.0625 2.62536E+7
   15.09375   2.594E+7
     15.125 2.56264E+7
   15.15625 2.53128E+7
    15.1875 2.49992E+7
   15.21875 2.46855E+7
      15.25 2.43719E+7
   15.28125 2.40583E+7
    15.3125 2.38408E+7
   15.34375 2.39275E+7
     15.375 2.40143E+7
   15.40625  2.4101E+7
    15.4375 2.41877E+7
   15.46875 2.42744E+7
       15.5 2.43612E+7
   15.53125 2.44479E+7
    15.5625 2.45346E+7
   15.59375 2.46213E+7
     15.625 2.47081E+7
   15.65625 2.47948E+7
    15.6875 2.48815E+7
   15.71875 2.49682E+7
      15.75  2.5055E+7
   15.78125 2.51417E+7
    15.8125 2.52284E+7
   15.84375 2.53151E+7
     15.875 2.54019E+7
   15.90625 2.54886E+7
    15.9375 2.55753E+7
   15.96875  2.5662E+7
        16. 2.57488E+7
   16.03125 2.58355E+7
    16.0625 2.59222E+7
   16.09375 2.60089E+7
     16.125 2.60957E+7
   16.15625 2.61824E+7
    16.1875 2.62691E+7
   16.21875 2.62646E+7
      16.25 2.61574E+7
   16.28125 2.60503E+7
    16.3125 2.59431E+7
   16.34375  2.5836E+7
     16.375 2.57288E+7
   16.40625 2.56217E+7
    16.4375 2.55145E+7
   16.46875 2.54074E+7
       16.5 2.53003E+7
   16.53125 2.51931E+7
    16.5625  2.5086E+7
   16.59375 2.49788E+7
     16.625 2.48717E+7
   16.65625 2.47645E+7
    16.6875 2.46574E+7
   16.71875 2.45502E+7
      16.75 2.44431E+7
   16.78125  2.4336E+7
    16.8125 2.42288E+7
   16.84375 2.41217E+7
     16.875 2.40145E+7
   16.90625 2.39074E+7
    16.9375 2.38002E+7
   16.96875 2.36931E+7
        17. 2.35859E+7
   17.03125 2.28361E+7
    17.0625 2.20132E+7
   17.09375 2.11904E+7
     17.125 2.03675E+7
   17.15625 1.95446E+7
    17.1875 1.87217E+7
   17.21875 1.78989E+7
      17.25  1.7076E+7
   17.28125 1.62531E+7
    17.3125 1.54302E+7
   17.34375 1.46074E+7
     17.375 1.37845E+7
   17.40625 1.29616E+7
    17.4375 1.21387E+7
   17.46875 1.13159E+7
       17.5  1.0493E+7
   17.53125 1.01023E+7
    17.5625 9.75174E+6
   17.59375 9.40121E+6
     17.625 9.05067E+6
   17.65625 8.70014E+6
    17.6875  8.3496E+6
   17.71875 7.99907E+6
      17.75 7.64853E+6
   17.78125   7.298E+6
    17.8125 6.94746E+6
   17.84375 6.59693E+6
     17.875 6.24639E+6
   17.90625 5.89586E+6
    17.9375 5.54532E+6
   17.96875 5.19479E+6
        18. 4.84425E+6
   18.03125 4.49372E+6
    18.0625 4.14319E+6
   18.09375 3.79265E+6
     18.125 3.44212E+6
   18.15625 3.09158E+6
    18.1875 2.74105E+6
   18.21875 2.39051E+6
      18.25 2.03998E+6
   18.28125 1.68944E+6
    18.3125 1.43909E+6
   18.34375 1.38135E+6
     18.375  1.3236E+6
   18.40625 1.26586E+6
    18.4375 1.20811E+6
   18.46875 1.15037E+6
       18.5 1.09263E+6
   18.53125 1.03488E+6
    18.5625 9.77136E+5
   18.59375 9.19392E+5
     18.625 8.61647E+5
   18.65625 8.03903E+5
    18.6875 7.46158E+5
   18.71875 6.88414E+5
      18.75 6.30670E+5
   18.78125 5.72925E+5
    18.8125 5.15181E+5
   18.84375 4.57436E+5
     18.875 3.99692E+5
   18.90625 3.41948E+5
    18.9375 2.84203E+5
   18.96875 2.26459E+5
        19. 1.68714E+5
   19.03125 1.65392E+5
    19.0625 1.63985E+5
   19.09375 1.62579E+5
     19.125 1.61173E+5
   19.15625 1.59767E+5
    19.1875 1.58361E+5
   19.21875 1.56955E+5
      19.25 1.55548E+5
   19.28125 1.54142E+5
    19.3125 1.52736E+5
   19.34375 1.51330E+5
     19.375 1.49924E+5
   19.40625 1.48517E+5
    19.4375 1.47111E+5
   19.46875 1.45705E+5
       19.5 1.44299E+5
   19.53125 1.42893E+5
    19.5625 1.41487E+5
   19.59375 1.40080E+5
     19.625 1.38674E+5
   19.65625 1.37268E+5
    19.6875 1.35862E+5
   19.71875 1.34456E+5
      19.75 1.33049E+5
   19.78125 1.31643E+5
    19.8125 1.30237E+5
   19.84375 1.28831E+5
     19.875 1.27425E+5
   19.90625 1.26019E+5
    19.9375 1.24612E+5
   19.96875 1.23206E+5
        20. 1.21800E+5
ENDDATA            642
ENDSUBENT          654
ENDENTRY             2
