ENTRY            F1457   20211209   20220705   20220704       F088
SUBENT        F1457001   20211209   20220705   20220704       F088
BIB                 13         37
TITLE      R-matrix analysis of reactions with excitation of the
           10B compound nucleus at energies of 6.5-19.5 MeV
AUTHOR     (L.N.Generalov,S.M.Selyankina)
INSTITUTE  (4RUSEPA)
REFERENCE  (J,IZV,84,1430,2020)
           #doi:10.31857/S0367676520100117
           (J,BAS,84,1224,2020) English translation
           #doi:10.3103/S1062873820100111
REL-REF    (M,F0685001,L.N.Generalov+,J,IZV,67,1462,2003)
           Description of experiment is given
           (M,F0685001,L.N.Generalov+,J,BAS,67,1616,2003) English
           translation
           (M,F0760001,L.N.Generalov+,J,IZV,69,1629,2005)
           Description of experiment is given
           (M,F0760001,L.N.Generalov+,J,BAS,69,1819,2005) English
           translation
FACILITY   (VDGT,4RUSEPA)
METHOD     (GSPEC) Registration of gamma-quanta and neutrons at
           an angle of 0 degr. to the proton beam direction from
           the 9Be(p,alpha2)6Li* and 9Be(p,n0)9B reactions,
           respectively, and the calibration of accelerator
           energy scale by registration of gamma-quanta from the
           76Ge(n,n')76Ge* (563 keV), 74Ge(n,n')74Ge* (596 keV),
           72Ge(n,n')72Ge* (691 keV), and 72Ge(n,n')72Ge*
            (834 keV) reactions were performed simultaneously.
DETECTOR   (HE3SP) A wave counter was used to register neutrons.
           (HPGE) A REGE HPGE detector (diameter 45 mm, height
           47.5 mm) registered gamma-quanta at a distance of
           150 mm from a beryllium target.
SAMPLE     Beryllium target 24 mu-g/cm2 thick (in the 2.7 keV
           energy scale for a proton energy of 2.5 MeV) on a
           tantalum backing was used.
ADD-RES    R-matrix analysis was performed.
ERR-ANALYS (DATA-ERR) Statistical error and the error due to
           background subtraction
STATUS     (APRVD) Entry was approved by Dr. L.N. Generalov
HISTORY    (20211209C)
ENDBIB              37
NOCOMMON             0          0
ENDSUBENT           40
SUBENT        F1457002   20211209   20220705   20220704       F088
BIB                  2          3
REACTION   (4-BE-9(P,A)3-LI-6,PAR,DA)
STATUS     (TABLE) From Fig.3a of Izv.Ross.AN, Fiz. V.84,1430,2020
           Data were presented by Dr. L.N. Generalov
ENDBIB               3
COMMON               1          3
E-LVL
MEV
     3.5618
ENDCOMMON            3
DATA                 4        703
EN         ANG-CM     DATA-CM    DATA-ERR
MEV        ADEG       MB/SR      MB/SR
     2.5414         0.     1.6712    0.04469
     2.5414         5.      1.683     0.0431
     2.5414        10.     1.7173    0.03863
     2.5414        15.     1.7713    0.03205
     2.5414        20.     1.8405    0.02466
     2.5414        25.      1.919    0.01819
     2.5414        30.     2.0005    0.01456
     2.5414        35.     2.0783     0.0142
     2.5414        40.     2.1467    0.01502
     2.5414        45.     2.2007    0.01517
     2.5414        50.     2.2374    0.01424
     2.5414        55.     2.2557    0.01278
     2.5414        60.     2.2567    0.01174
     2.5414        65.     2.2434    0.01162
     2.5414        70.     2.2205    0.01203
     2.5414        75.     2.1933     0.0122
     2.5414        80.     2.1675     0.0118
     2.5414        85.     2.1478    0.01107
     2.5414        90.      2.137    0.01064
     2.5414        95.     2.1359    0.01091
     2.5414       100.     2.1423    0.01158
     2.5414       105.     2.1514      0.012
     2.5414       110.      2.156    0.01184
     2.5414       115.     2.1474     0.0113
     2.5414       120.     2.1166    0.01108
     2.5414       125.     2.0555    0.01174
     2.5414       130.     1.9582    0.01295
     2.5414       135.     1.8223     0.0138
     2.5414       140.     1.6495     0.0136
     2.5414       145.     1.4461    0.01232
     2.5414       150.     1.2227    0.01121
     2.5414       155.    0.99322    0.01273
     2.5414       160.    0.77383    0.01744
     2.5414       165.    0.58125    0.02345
     2.5414       170.    0.43091    0.02895
     2.5414       175.    0.33528    0.03274
     2.5414       180.    0.30247    0.03408
     2.5464         0.     2.0643    0.04737
     2.5464         5.     2.0856    0.04567
     2.5464        10.     2.1476    0.04087
     2.5464        15.     2.2443    0.03387
     2.5464        20.      2.367     0.0261
     2.5464        25.     2.5045    0.01954
     2.5464        30.     2.6449    0.01622
     2.5464        35.     2.7768    0.01624
     2.5464        40.     2.8905    0.01719
     2.5464        45.     2.9788    0.01726
     2.5464        50.     3.0382    0.01613
     2.5464        55.     3.0685    0.01447
     2.5464        60.     3.0729    0.01333
     2.5464        65.     3.0572    0.01324
     2.5464        70.     3.0291    0.01371
     2.5464        75.     2.9964    0.01389
     2.5464        80.     2.9663    0.01342
     2.5464        85.      2.944     0.0126
     2.5464        90.     2.9318    0.01211
     2.5464        95.     2.9287     0.0124
     2.5464       100.     2.9304    0.01313
     2.5464       105.     2.9295    0.01358
     2.5464       110.     2.9167    0.01338
     2.5464       115.     2.8818    0.01278
     2.5464       120.      2.815    0.01254
     2.5464       125.     2.7088    0.01325
     2.5464       130.     2.5586    0.01455
     2.5464       135.     2.3642    0.01544
     2.5464       140.     2.1302    0.01514
     2.5464       145.     1.8657    0.01369
     2.5464       150.     1.5841    0.01263
     2.5464       155.     1.3019    0.01473
     2.5464       160.     1.0372    0.02037
     2.5464       165.    0.80819    0.02734
     2.5464       170.     0.6313    0.03367
     2.5464       175.    0.51956    0.03802
     2.5464       180.    0.48134    0.03956
     2.5514         0.     2.3943    0.05435
     2.5514         5.     2.4187    0.05241
     2.5514        10.     2.4902    0.04694
     2.5514        15.     2.6028    0.03893
     2.5514        20.     2.7475    0.03003
     2.5514        25.     2.9129    0.02243
     2.5514        30.     3.0859    0.01849
     2.5514        35.     3.2534     0.0184
     2.5514        40.     3.4035    0.01949
     2.5514        45.     3.5263    0.01961
     2.5514        50.     3.6152    0.01839
     2.5514        55.     3.6674    0.01656
     2.5514        60.     3.6839    0.01528
     2.5514        65.     3.6695    0.01516
     2.5514        70.     3.6321    0.01566
     2.5514        75.     3.5811    0.01584
     2.5514        80.     3.5266     0.0153
     2.5514        85.     3.4773    0.01436
     2.5514        90.     3.4395    0.01379
     2.5514        95.     3.4155    0.01407
     2.5514       100.     3.4036    0.01485
     2.5514       105.     3.3971    0.01535
     2.5514       110.     3.3861    0.01514
     2.5514       115.     3.3576    0.01452
     2.5514       120.     3.2982    0.01433
     2.5514       125.     3.1954    0.01522
     2.5514       130.       3.04    0.01671
     2.5514       135.     2.8282    0.01768
     2.5514       140.     2.5622    0.01726
     2.5514       145.     2.2511    0.01559
     2.5514       150.     1.9106    0.01457
     2.5514       155.     1.5617    0.01737
     2.5514       160.     1.2285    0.02416
     2.5514       165.    0.93632    0.03238
     2.5514       170.    0.70831    0.03978
     2.5514       175.    0.56331    0.04484
     2.5514       180.    0.51357    0.04664
     2.5564         0.     3.1761    0.06616
     2.5564         5.     3.2081    0.06382
     2.5564        10.     3.3015    0.05721
     2.5564        15.     3.4489    0.04753
     2.5564        20.     3.6383    0.03672
     2.5564        25.      3.855    0.02742
     2.5564        30.     4.0821    0.02247
     2.5564        35.     4.3027    0.02222
     2.5564        40.      4.501     0.0235
     2.5564        45.     4.6644    0.02371
     2.5564        50.     4.7841    0.02229
     2.5564        55.      4.856    0.02011
     2.5564        60.     4.8814    0.01853
     2.5564        65.     4.8659    0.01833
     2.5564        70.     4.8191    0.01892
     2.5564        75.     4.7528    0.01917
     2.5564        80.     4.6795    0.01855
     2.5564        85.     4.6102    0.01742
     2.5564        90.     4.5528    0.01669
     2.5564        95.     4.5105    0.01698
     2.5564       100.     4.4814    0.01792
     2.5564       105.      4.458    0.01855
     2.5564       110.      4.428    0.01831
     2.5564       115.     4.3763    0.01748
     2.5564       120.     4.2865    0.01707
     2.5564       125.      4.144    0.01793
     2.5564       130.     3.9378     0.0197
     2.5564       135.     3.6635    0.02102
     2.5564       140.      3.324    0.02081
     2.5564       145.     2.9309    0.01898
     2.5564       150.     2.5035    0.01729
     2.5564       155.     2.0674     0.0193
     2.5564       160.     1.6524     0.0261
     2.5564       165.     1.2892    0.03496
     2.5564       170.     1.0063    0.04314
     2.5564       175.    0.82649     0.0488
     2.5564       180.    0.76484    0.05081
     2.5614         0.     3.9678    0.08188
     2.5614         5.     4.0142    0.07898
     2.5614        10.     4.1491    0.07081
     2.5614        15.     4.3608    0.05883
     2.5614        20.      4.631    0.04543
     2.5614        25.      4.937    0.03383
     2.5614        30.     5.2536    0.02756
     2.5614        35.      5.556    0.02716
     2.5614        40.     5.8222    0.02876
     2.5614        45.     6.0352    0.02906
     2.5614        50.     6.1843    0.02735
     2.5614        55.      6.266    0.02466
     2.5614        60.     6.2839    0.02269
     2.5614        65.     6.2477    0.02239
     2.5614        70.     6.1718    0.02309
     2.5614        75.     6.0727    0.02339
     2.5614        80.     5.9666    0.02263
     2.5614        85.     5.8673    0.02123
     2.5614        90.     5.7837    0.02029
     2.5614        95.     5.7187     0.0206
     2.5614       100.     5.6685    0.02169
     2.5614       105.     5.6229    0.02244
     2.5614       110.     5.5667    0.02214
     2.5614       115.     5.4817    0.02116
     2.5614       120.     5.3494    0.02069
     2.5614       125.     5.1537    0.02179
     2.5614       130.     4.8838    0.02391
     2.5614       135.     4.5363    0.02544
     2.5614       140.     4.1168    0.02505
     2.5614       145.     3.6398    0.02275
     2.5614       150.     3.1286    0.02091
     2.5614       155.      2.613    0.02406
     2.5614       160.     2.1266    0.03306
     2.5614       165.     1.7038    0.04436
     2.5614       170.     1.3759    0.05468
     2.5614       175.     1.1683    0.06178
     2.5614       180.     1.0973     0.0643
     2.5664         0.     4.8725    0.09073
     2.5664         5.     4.9259    0.08754
     2.5664        10.     5.0813    0.07851
     2.5664        15.     5.3245    0.06528
     2.5664        20.      5.634    0.05042
     2.5664        25.     5.9826    0.03746
     2.5664        30.     6.3408    0.03028
     2.5664        35.     6.6797    0.02965
     2.5664        40.     6.9741    0.03136
     2.5664        45.     7.2044    0.03173
     2.5664        50.     7.3592    0.02992
     2.5664        55.     7.4352    0.02699
     2.5664        60.     7.4375    0.02479
     2.5664        65.     7.3778     0.0244
     2.5664        70.     7.2731    0.02511
     2.5664        75.     7.1422    0.02541
     2.5664        80.     7.0035    0.02459
     2.5664        85.     6.8721    0.02306
     2.5664        90.     6.7576    0.02202
     2.5664        95.     6.6627    0.02233
     2.5664       100.     6.5827    0.02348
     2.5664       105.     6.5063    0.02425
     2.5664       110.     6.4167    0.02393
     2.5664       115.     6.2947    0.02288
     2.5664       120.     6.1207    0.02244
     2.5664       125.     5.8786    0.02365
     2.5664       130.     5.5577    0.02591
     2.5664       135.     5.1557    0.02744
     2.5664       140.     4.6796    0.02687
     2.5664       145.     4.1461    0.02436
     2.5664       150.     3.5803    0.02286
     2.5664       155.     3.0141    0.02731
     2.5664       160.     2.4834    0.03796
     2.5664       165.     2.0242    0.05084
     2.5664       170.     1.6693    0.06246
     2.5664       175.     1.4451    0.07041
     2.5664       180.     1.3684    0.07323
     2.5714         0.     5.5594    0.09221
     2.5714         5.     5.6119    0.08895
     2.5714        10.     5.7651    0.07975
     2.5714        15.     6.0065    0.06628
     2.5714        20.     6.3166    0.05123
     2.5714        25.     6.6705    0.03827
     2.5714        30.     7.0402    0.03133
     2.5714        35.     7.3969    0.03093
     2.5714        40.     7.7143    0.03269
     2.5714        45.     7.9702    0.03296
     2.5714        50.     8.1491    0.03097
     2.5714        55.     8.2438    0.02788
     2.5714        60.      8.255     0.0256
     2.5714        65.     8.1921    0.02526
     2.5714        70.     8.0708    0.02602
     2.5714        75.     7.9112    0.02635
     2.5714        80.     7.7349    0.02546
     2.5714        85.     7.5619    0.02383
     2.5714        90.     7.4074    0.02271
     2.5714        95.     7.2795    0.02301
     2.5714       100.     7.1774    0.02421
     2.5714       105.     7.0915    0.02503
     2.5714       110.     7.0041    0.02469
     2.5714       115.     6.8919    0.02356
     2.5714       120.     6.7291    0.02301
     2.5714       125.     6.4919    0.02422
     2.5714       130.     6.1621    0.02658
     2.5714       135.     5.7307    0.02828
     2.5714       140.     5.2011    0.02783
     2.5714       145.     4.5894    0.02527
     2.5714       150.     3.9248    0.02331
     2.5714       155.     3.2465    0.02704
     2.5714       160.     2.6005    0.03727
     2.5714       165.     2.0347    0.05001
     2.5714       170.     1.5936    0.06163
     2.5714       175.     1.3132     0.0696
     2.5714       180.      1.217    0.07243
     2.5764         0.     6.4712    0.10478
     2.5764         5.     6.4993     0.1011
     2.5764        10.     6.5819    0.09072
     2.5764        15.     6.7144    0.07548
     2.5764        20.     6.8888    0.05837
     2.5764        25.     7.0939    0.04342
     2.5764        30.      7.316    0.03505
     2.5764        35.     7.5387    0.03416
     2.5764        40.     7.7447      0.036
     2.5764        45.      7.917    0.03633
     2.5764        50.     8.0407    0.03414
     2.5764        55.     8.1047    0.03065
     2.5764        60.     8.1034    0.02801
     2.5764        65.     8.0378    0.02751
     2.5764        70.     7.9156    0.02832
     2.5764        75.     7.7499    0.02869
     2.5764        80.      7.558    0.02774
     2.5764        85.     7.3587    0.02592
     2.5764        90.     7.1684    0.02462
     2.5764        95.      6.999    0.02485
     2.5764       100.     6.8547    0.02611
     2.5764       105.     6.7309    0.02695
     2.5764       110.     6.6138    0.02653
     2.5764       115.     6.4822    0.02524
     2.5764       120.     6.3102     0.0246
     2.5764       125.     6.0716     0.0259
     2.5764       130.     5.7442    0.02845
     2.5764       135.     5.3149    0.03022
     2.5764       140.     4.7823    0.02958
     2.5764       145.       4.16    0.02661
     2.5764       150.     3.4756    0.02448
     2.5764       155.     2.7698    0.02901
     2.5764       160.     2.0914    0.04074
     2.5764       165.     1.4929    0.05505
     2.5764       170.     1.0237    0.06798
     2.5764       175.    0.72441    0.07683
     2.5764       180.    0.62155    0.07997
     2.5814         0.     6.2312    0.10403
     2.5814         5.     6.2514    0.10035
     2.5814        10.      6.311    0.08994
     2.5814        15.     6.4074    0.07468
     2.5814        20.     6.5357    0.05752
     2.5814        25.     6.6884     0.0425
     2.5814        30.     6.8555     0.0341
     2.5814        35.     7.0247    0.03327
     2.5814        40.     7.1815    0.03515
     2.5814        45.     7.3113    0.03547
     2.5814        50.     7.4001    0.03325
     2.5814        55.     7.4373    0.02974
     2.5814        60.     7.4165     0.0271
     2.5814        65.     7.3376    0.02664
     2.5814        70.     7.2066    0.02747
     2.5814        75.     7.0354     0.0278
     2.5814        80.     6.8404    0.02679
     2.5814        85.     6.6397    0.02493
     2.5814        90.     6.4499    0.02364
     2.5814        95.     6.2835    0.02392
     2.5814       100.     6.1459    0.02518
     2.5814       105.     6.0333    0.02599
     2.5814       110.     5.9332     0.0255
     2.5814       115.      5.825    0.02419
     2.5814       120.     5.6832    0.02361
     2.5814       125.     5.4811    0.02501
     2.5814       130.     5.1957    0.02761
     2.5814       135.     4.8123    0.02928
     2.5814       140.     4.3278    0.02844
     2.5814       145.     3.7537    0.02519
     2.5814       150.     3.1157    0.02296
     2.5814       155.     2.4523    0.02789
     2.5814       160.     1.8109    0.04009
     2.5814       165.     1.2425    0.05464
     2.5814       170.    0.79556    0.06766
     2.5814       175.    0.50984    0.07654
     2.5814       180.    0.41155    0.07968
     2.5864         0.      4.848    0.08166
     2.5864         5.     4.8781    0.07866
     2.5864        10.     4.9664     0.0702
     2.5864        15.     5.1069    0.05787
     2.5864        20.     5.2898    0.04421
     2.5864        25.     5.5019    0.03275
     2.5864        30.     5.7271     0.0272
     2.5864        35.     5.9478    0.02751
     2.5864        40.     6.1454    0.02925
     2.5864        45.      6.303    0.02923
     2.5864        50.     6.4061    0.02702
     2.5864        55.      6.445    0.02388
     2.5864        60.     6.4162    0.02175
     2.5864        65.     6.3224    0.02162
     2.5864        70.     6.1732    0.02247
     2.5864        75.     5.9836    0.02271
     2.5864        80.     5.7724    0.02168
     2.5864        85.     5.5594    0.01991
     2.5864        90.     5.3622    0.01874
     2.5864        95.     5.1938    0.01906
     2.5864       100.     5.0598    0.02026
     2.5864       105.     4.9574    0.02099
     2.5864       110.      4.875    0.02051
     2.5864       115.     4.7936    0.01919
     2.5864       120.     4.6899    0.01844
     2.5864       125.     4.5392     0.0195
     2.5864       130.     4.3202    0.02175
     2.5864       135.     4.0187    0.02335
     2.5864       140.     3.6311    0.02288
     2.5864       145.     3.1658     0.0202
     2.5864       150.     2.6441    0.01763
     2.5864       155.     2.0984    0.02028
     2.5864       160.     1.5684    0.02916
     2.5864       165.     1.0974    0.04026
     2.5864       170.    0.72615    0.05031
     2.5864       175.    0.48857    0.05718
     2.5864       180.     0.4068    0.05962
     2.5914         0.     4.0261    0.07421
     2.5914         5.      4.057    0.07141
     2.5914        10.     4.1471    0.06353
     2.5914        15.     4.2897    0.05203
     2.5914        20.     4.4735    0.03929
     2.5914        25.     4.6839    0.02862
     2.5914        30.     4.9037    0.02362
     2.5914        35.     5.1146    0.02419
     2.5914        40.     5.2985    0.02592
     2.5914        45.     5.4392    0.02586
     2.5914        50.     5.5242    0.02369
     2.5914        55.      5.546    0.02069
     2.5914        60.     5.5031    0.01877
     2.5914        65.     5.4001    0.01879
     2.5914        70.     5.2478    0.01968
     2.5914        75.     5.0617    0.01988
     2.5914        80.     4.8597    0.01883
     2.5914        85.     4.6605     0.0171
     2.5914        90.     4.4799    0.01602
     2.5914        95.     4.3294    0.01641
     2.5914       100.     4.2134    0.01757
     2.5914       105.     4.1288    0.01819
     2.5914       110.     4.0648    0.01764
     2.5914       115.     4.0043    0.01639
     2.5914       120.     3.9265    0.01585
     2.5914       125.     3.8098    0.01708
     2.5914       130.     3.6357    0.01927
     2.5914       135.     3.3917    0.02064
     2.5914       140.     3.0745    0.01991
     2.5914       145.     2.6914    0.01714
     2.5914       150.     2.2601    0.01491
     2.5914       155.     1.8077    0.01845
     2.5914       160.     1.3677    0.02763
     2.5914       165.     0.9763    0.03843
     2.5914       170.    0.66768    0.04799
     2.5914       175.     0.4701    0.05447
     2.5914       180.    0.40209    0.05676
     2.5964         0.     3.0851    0.06973
     2.5964         5.     3.1158    0.06703
     2.5964        10.      3.205    0.05942
     2.5964        15.     3.3447     0.0483
     2.5964        20.     3.5226    0.03595
     2.5964        25.     3.7227    0.02557
     2.5964        30.     3.9275    0.02085
     2.5964        35.      4.119     0.0217
     2.5964        40.     4.2807    0.02351
     2.5964        45.     4.3993    0.02343
     2.5964        50.     4.4657    0.02124
     2.5964        55.      4.476    0.01827
     2.5964        60.     4.4315    0.01646
     2.5964        65.     4.3387    0.01665
     2.5964        70.     4.2083    0.01762
     2.5964        75.     4.0536    0.01779
     2.5964        80.     3.8892    0.01669
     2.5964        85.     3.7286    0.01495
     2.5964        90.     3.5828    0.01393
     2.5964        95.     3.4586    0.01441
     2.5964       100.     3.3578    0.01559
     2.5964       105.     3.2771    0.01613
     2.5964       110.     3.2082    0.01546
     2.5964       115.     3.1393    0.01412
     2.5964       120.     3.0568    0.01362
     2.5964       125.     2.9475    0.01495
     2.5964       130.     2.8004    0.01711
     2.5964       135.     2.6093    0.01829
     2.5964       140.     2.3736    0.01733
     2.5964       145.     2.0994     0.0144
     2.5964       150.      1.799    0.01253
     2.5964       155.     1.4904     0.0171
     2.5964       160.     1.1947    0.02671
     2.5964       165.    0.93456    0.03738
     2.5964       170.    0.73106    0.04666
     2.5964       175.    0.60144     0.0529
     2.5964       180.    0.55692    0.05509
     2.6014         0.     2.5569    0.06136
     2.6014         5.     2.5824    0.05889
     2.6014        10.     2.6565    0.05191
     2.6014        15.     2.7726    0.04171
     2.6014        20.     2.9203    0.03036
     2.6014        25.     3.0865    0.02086
     2.6014        30.     3.2562    0.01685
     2.6014        35.     3.4144    0.01812
     2.6014        40.      3.547    0.01992
     2.6014        45.     3.6428    0.01969
     2.6014        50.     3.6937    0.01743
     2.6014        55.     3.6962    0.01452
     2.6014        60.     3.6513    0.01296
     2.6014        65.     3.5646    0.01349
     2.6014        70.     3.4452     0.0146
     2.6014        75.      3.305    0.01475
     2.6014        80.     3.1566    0.01355
     2.6014        85.     3.0124    0.01173
     2.6014        90.     2.8825    0.01077
     2.6014        95.     2.7734    0.01147
     2.6014       100.     2.6874    0.01278
     2.6014       105.     2.6221     0.0133
     2.6014       110.     2.5706     0.0125
     2.6014       115.     2.5227    0.01096
     2.6014       120.     2.4666    0.01026
     2.6014       125.     2.3902    0.01159
     2.6014       130.     2.2833    0.01381
     2.6014       135.     2.1397    0.01505
     2.6014       140.     1.9579    0.01421
     2.6014       145.     1.7422    0.01124
     2.6014       150.     1.5025    0.00845
     2.6014       155.     1.2535    0.01188
     2.6014       160.      1.013    0.02022
     2.6014       165.    0.80019    0.02935
     2.6014       170.    0.63302    0.03721
     2.6014       175.    0.52626    0.04247
     2.6014       180.    0.48955    0.04432
     2.6064         0.     2.3408     0.0615
     2.6064         5.       2.35    0.05896
     2.6064        10.     2.3769    0.05179
     2.6064        15.     2.4198    0.04128
     2.6064        20.     2.4759    0.02954
     2.6064        25.     2.5411    0.01961
     2.6064        30.     2.6104    0.01549
     2.6064        35.     2.6777    0.01707
     2.6064        40.     2.7364    0.01904
     2.6064        45.     2.7803    0.01875
     2.6064        50.     2.8035    0.01629
     2.6064        55.     2.8019    0.01317
     2.6064        60.     2.7733    0.01164
     2.6064        65.      2.718    0.01246
     2.6064        70.     2.6392    0.01377
     2.6064        75.     2.5423    0.01391
     2.6064        80.     2.4345    0.01253
     2.6064        85.     2.3242     0.0105
     2.6064        90.      2.219    0.00951
     2.6064        95.     2.1254    0.01044
     2.6064       100.     2.0471    0.01192
     2.6064       105.     1.9848    0.01242
     2.6064       110.     1.9355    0.01146
     2.6064       115.     1.8931     0.0097
     2.6064       120.     1.8496    0.00902
     2.6064       125.     1.7956    0.01066
     2.6064       130.     1.7227    0.01307
     2.6064       135.     1.6245    0.01424
     2.6064       140.     1.4983    0.01309
     2.6064       145.     1.3458    0.00955
     2.6064       150.     1.1733    0.00644
     2.6064       155.    0.99119    0.01141
     2.6064       160.    0.81303    0.02073
     2.6064       165.    0.65371    0.03034
     2.6064       170.    0.52759    0.03847
     2.6064       175.    0.44664    0.04387
     2.6064       180.    0.41874    0.04577
     2.6114         0.     1.8721    0.05376
     2.6114         5.     1.8772    0.05144
     2.6114        10.     1.8925    0.04486
     2.6114        15.     1.9175    0.03522
     2.6114        20.     1.9511    0.02437
     2.6114        25.     1.9917     0.0151
     2.6114        30.     2.0367    0.01165
     2.6114        35.     2.0823    0.01385
     2.6114        40.     2.1241    0.01589
     2.6114        45.      2.157    0.01552
     2.6114        50.     2.1761    0.01298
     2.6114        55.     2.1769     0.0098
     2.6114        60.     2.1565    0.00844
     2.6114        65.     2.1139    0.00967
     2.6114        70.     2.0502    0.01114
     2.6114        75.     1.9693    0.01124
     2.6114        80.     1.8765    0.00973
     2.6114        85.     1.7789    0.00752
     2.6114        90.     1.6836    0.00655
     2.6114        95.      1.597     0.0078
     2.6114       100.     1.5236    0.00941
     2.6114       105.     1.4656    0.00982
     2.6114       110.     1.4218    0.00865
     2.6114       115.     1.3884    0.00659
     2.6114       120.     1.3593    0.00588
     2.6114       125.     1.3269    0.00796
     2.6114       130.     1.2837    0.01049
     2.6114       135.     1.2237    0.01154
     2.6114       140.     1.1433    0.01014
     2.6114       145.     1.0426    0.00592
     2.6114       150.    0.92523    0.00152
     2.6114       155.    0.79847    0.00885
     2.6114       160.    0.67227    0.01823
     2.6114       165.    0.55794     0.0272
     2.6114       170.    0.46662    0.03462
     2.6114       175.    0.40766    0.03952
     2.6114       180.    0.38727    0.04122
     2.6164         0.     1.3891    0.05052
     2.6164         5.     1.4008    0.04824
     2.6164        10.      1.435    0.04179
     2.6164        15.     1.4882    0.03233
     2.6164        20.     1.5552    0.02167
     2.6164        25.     1.6293    0.01266
     2.6164        30.     1.7033     0.0101
     2.6164        35.     1.7698    0.01309
     2.6164        40.     1.8222    0.01524
     2.6164        45.     1.8555    0.01471
     2.6164        50.     1.8662    0.01191
     2.6164        55.     1.8531    0.00845
     2.6164        60.     1.8173     0.0071
     2.6164        65.     1.7618     0.0087
     2.6164        70.     1.6913    0.01036
     2.6164        75.     1.6115    0.01043
     2.6164        80.     1.5284    0.00875
     2.6164        85.     1.4479    0.00623
     2.6164        90.     1.3744    0.00516
     2.6164        95.      1.311    0.00679
     2.6164       100.     1.2591    0.00865
     2.6164       105.     1.2177    0.00911
     2.6164       110.     1.1843    0.00781
     2.6164       115.      1.155    0.00535
     2.6164       120.     1.1251    0.00422
     2.6164       125.       1.09    0.00661
     2.6164       130.     1.0456    0.00938
     2.6164       135.    0.98952    0.01052
     2.6164       140.    0.92087    0.00908
     2.6164       145.    0.84102    0.00408
     2.6164       150.    0.75336    0.00515
     2.6164       155.    0.66298    0.00568
     2.6164       160.    0.57615     0.0156
     2.6164       165.    0.49956    0.02429
     2.6164       170.    0.43954    0.03137
     2.6164       175.    0.40126      0.036
     2.6164       180.    0.38811    0.03762
     2.6214         0.     1.2469    0.04918
     2.6214         5.     1.2579    0.04694
     2.6214        10.       1.29    0.04058
     2.6214        15.     1.3401    0.03124
     2.6214        20.     1.4038    0.02068
     2.6214        25.     1.4751    0.01163
     2.6214        30.     1.5474    0.00913
     2.6214        35.     1.6139    0.01234
     2.6214        40.      1.668    0.01454
     2.6214        45.     1.7045      0.014
     2.6214        50.     1.7194    0.01117
     2.6214        55.      1.711    0.00759
     2.6214        60.     1.6793    0.00623
     2.6214        65.     1.6267    0.00802
     2.6214        70.     1.5575    0.00976
     2.6214        75.     1.4772    0.00982
     2.6214        80.      1.392    0.00807
     2.6214        85.     1.3084    0.00539
     2.6214        90.     1.2317     0.0042
     2.6214        95.     1.1662    0.00605
     2.6214       100.      1.114    0.00798
     2.6214       105.     1.0751     0.0084
     2.6214       110.     1.0476      0.007
     2.6214       115.     1.0275    0.00431
     2.6214       120.     1.0099    0.00315
     2.6214       125.    0.98931    0.00604
     2.6214       130.    0.96078    0.00891
     2.6214       135.    0.92062    0.00999
     2.6214       140.    0.86702    0.00841
     2.6214       145.    0.80044    0.00267
     2.6214       150.    0.72371    0.00552
     2.6214       155.    0.64172    0.00593
     2.6214       160.    0.56084    0.01587
     2.6214       165.    0.48811    0.02451
     2.6214       170.    0.43035    0.03153
     2.6214       175.    0.39319    0.03611
     2.6214       180.    0.38037    0.03771
     2.6264         0.     1.1735    0.04808
     2.6264         5.     1.1812    0.04587
     2.6264        10.     1.2036     0.0396
     2.6264        15.     1.2386    0.03036
     2.6264        20.      1.283    0.01987
     2.6264        25.     1.3325    0.01071
     2.6264        30.     1.3824    0.00815
     2.6264        35.     1.4276    0.01156
     2.6264        40.     1.4635     0.0138
     2.6264        45.     1.4861    0.01323
     2.6264        50.     1.4925    0.01032
     2.6264        55.     1.4812    0.00658
     2.6264        60.     1.4523     0.0052
     2.6264        65.     1.4073    0.00728
     2.6264        70.     1.3493    0.00912
     2.6264        75.     1.2823    0.00916
     2.6264        80.      1.211    0.00732
     2.6264        85.     1.1402    0.00436
     2.6264        90.     1.0741    0.00301
     2.6264        95.      1.016    0.00532
     2.6264       100.    0.96791     0.0074
     2.6264       105.    0.93019     0.0078
     2.6264       110.    0.90162    0.00627
     2.6264       115.    0.87969    0.00306
     2.6264       120.    0.86093  9.9546E-4
     2.6264       125.    0.84149    0.00516
     2.6264       130.    0.81777    0.00822
     2.6264       135.    0.78696    0.00927
     2.6264       140.     0.7476    0.00753
     2.6264       145.    0.69978    0.00211
     2.6264       150.    0.64529    0.00617
     2.6264       155.    0.58739     0.0055
     2.6264       160.    0.53043    0.01567
     2.6264       165.    0.47928    0.02427
     2.6264       170.    0.43868     0.0312
     2.6264       175.    0.41258    0.03571
     2.6264       180.    0.40357    0.03728
     2.6314         0.    0.69009    0.04722
     2.6314         5.    0.70601    0.04498
     2.6314        10.    0.75196    0.03865
     2.6314        15.    0.82277     0.0293
     2.6314        20.     0.9106    0.01857
     2.6314        25.      1.006     0.0089
     2.6314        30.      1.099    0.00651
     2.6314        35.     1.1807    0.01079
     2.6314        40.     1.2437    0.01324
     2.6314        45.     1.2837    0.01262
     2.6314        50.     1.2988     0.0095
     2.6314        55.     1.2903    0.00529
     2.6314        60.     1.2616     0.0038
     2.6314        65.     1.2179    0.00657
     2.6314        70.     1.1649    0.00865
     2.6314        75.      1.108    0.00869
     2.6314        80.     1.0516    0.00666
     2.6314        85.    0.99896    0.00313
     2.6314        90.    0.95145    0.00081
     2.6314        95.    0.90916    0.00458
     2.6314       100.    0.87107    0.00692
     2.6314       105.    0.83566    0.00731
     2.6314       110.    0.80146    0.00554
     2.6314       115.    0.76745    0.00027
     2.6314       120.    0.73342    0.00293
     2.6314       125.    0.69996    0.00413
     2.6314       130.    0.66836    0.00757
     2.6314       135.    0.64028    0.00859
     2.6314       140.    0.61729    0.00651
     2.6314       145.    0.60058    0.00439
     2.6314       150.    0.59052    0.00708
     2.6314       155.    0.58666    0.00499
     2.6314       160.    0.58768    0.01581
     2.6314       165.    0.59169    0.02457
     2.6314       170.    0.59656    0.03156
     2.6314       175.    0.60037    0.03612
     2.6314       180.     0.6018     0.0377
ENDDATA            705
ENDSUBENT          717
SUBENT        F1457003   20211209   20220705   20220704       F088
BIB                  3          6
REACTION   (4-BE-9(P,A)3-LI-6,PAR,SIG)
ANALYSIS   (4PI1A)
STATUS     (TABLE) From Fig.3b of Izv.Ross.AN, Fiz. V.84,1430,2020
           Data were presented by Dr. L.N. Generalov
           New data values superseded data sets F0685002 and
           F0760002.
ENDBIB               6
COMMON               1          3
E-LVL
MEV
     3.5618
ENDCOMMON            3
DATA                 3        167
EN         DATA       DATA-ERR
MEV        MB         MB
    1.96133  3.620E-03 3.9313E-06
    2.04489  1.820E-02 6.6248E-05
    2.11933  5.670E-02 3.2149E-04
    2.15233  9.290E-02 1.7300E-03
      2.212  1.659E-01 5.5000E-03
      2.265  2.980E-01 1.7760E-02
    2.31789  5.220E-01 5.4500E-02
    2.38622  1.170E+00 4.6760E-02
    2.42256  1.710E+00 6.8440E-02
      2.425  1.550E+00 4.8236E-01
      2.453  2.250E+00 9.0160E-02
    2.48478  3.590E+00 1.4380E-01
    2.50744  7.240E+00 2.8944E-01
    2.50978  6.470E+00 7.9285E-01
    2.51478  6.840E+00 9.0449E-01
    2.51978  8.480E+00 8.8009E-01
    2.52978  1.221E+01 8.8669E-01
    2.53467  1.473E+01 1.1000E+00
    2.53967  1.666E+01 1.4100E+00
    2.54489  2.146E+01 1.5800E+00
    2.54967  2.996E+01 1.8900E+00
    2.55056  3.042E+01 1.9200E+00
    2.55156  3.286E+01 1.9200E+00
    2.55256  3.487E+01 1.9700E+00
    2.55256  3.319E+01 1.9700E+00
    2.55356  3.910E+01 2.2100E+00
    2.55456  4.529E+01 2.4800E+00
    2.55456  4.507E+01 2.4700E+00
    2.55556  4.739E+01 2.5900E+00
    2.55656  4.949E+01 2.7500E+00
    2.55656  4.798E+01 2.9400E+00
    2.55756  5.572E+01 2.2900E+00
    2.55756  4.588E+01 3.0700E+00
    2.55756  4.888E+01 3.1400E+00
    2.55856  5.388E+01 3.0500E+00
    2.55856  5.539E+01 3.0300E+00
    2.55967  5.769E+01 2.9900E+00
    2.55967  5.519E+01 3.0200E+00
    2.56056  5.863E+01 3.0400E+00
    2.56067  5.890E+01 3.0600E+00
    2.56156  6.032E+01 3.0200E+00
    2.56156  6.429E+01 2.7300E+00
    2.56256  6.357E+01 3.0600E+00
    2.56256  6.208E+01 3.3400E+00
    2.56356  6.661E+01 3.0200E+00
    2.56356  6.418E+01 3.2700E+00
    2.56444  6.775E+01 3.2600E+00
    2.56456  6.872E+01 3.1800E+00
    2.56544  7.299E+01 3.5100E+00
    2.56556  7.308E+01 3.5200E+00
    2.56644  7.553E+01 3.2100E+00
    2.56656  7.641E+01 3.5300E+00
    2.56756  8.253E+01 3.4200E+00
    2.56756  8.009E+01 3.4000E+00
    2.56844  7.924E+01 3.4400E+00
    2.56844  8.084E+01 3.2800E+00
    2.56956  7.781E+01 3.6700E+00
    2.56956  8.461E+01 3.3500E+00
    2.57044  7.865E+01 3.7100E+00
    2.57056  7.968E+01 3.7600E+00
    2.57144  8.345E+01 3.6200E+00
    2.57144  8.218E+01 3.6400E+00
    2.57244  8.777E+01 3.3900E+00
    2.57244  8.509E+01 3.6900E+00
    2.57344  8.731E+01 3.6200E+00
    2.57344  8.643E+01 3.5900E+00
    2.57444  8.676E+01 3.6000E+00
    2.57456  8.193E+01 3.7900E+00
    2.57544  8.581E+01 3.5600E+00
    2.57644  8.229E+01 3.7300E+00
    2.57644  8.141E+01 3.5300E+00
    2.57744  8.321E+01 3.3700E+00
    2.57756  8.371E+01 3.6300E+00
    2.57889  7.407E+01 3.7700E+00
    2.57889  7.933E+01 3.4400E+00
    2.57944  7.536E+01 3.6200E+00
    2.57944  8.209E+01 3.4100E+00
    2.58044  7.507E+01 3.6100E+00
    2.58044  7.523E+01 3.5500E+00
    2.58144  7.540E+01 3.3400E+00
    2.58144  7.260E+01 3.5600E+00
    2.58244  7.510E+01 3.3300E+00
    2.58244  7.091E+01 3.3400E+00
    2.58344  6.940E+01 3.2700E+00
    2.58344  7.100E+01 3.2800E+00
    2.58444  6.615E+01 3.3700E+00
    2.58444  6.791E+01 3.2000E+00
    2.58544  6.471E+01 3.0500E+00
    2.58544  6.043E+01 3.5300E+00
    2.58644  6.385E+01 3.1300E+00
    2.58656  5.881E+01 2.7700E+00
    2.58744  6.157E+01 3.1400E+00
    2.58744  6.210E+01 3.2200E+00
    2.58833  5.929E+01 3.0200E+00
    2.58833  6.124E+01 2.9500E+00
    2.58944  5.324E+01 3.1600E+00
    2.58944  5.866E+01 3.1000E+00
    2.59078  5.210E+01 2.5100E+00
    2.59078  5.094E+01 3.1200E+00
    2.59144  4.721E+01 3.2500E+00
    2.59144  4.903E+01 3.1000E+00
      2.592  4.704E+01 2.8400E+00
      2.592  4.870E+01 2.9400E+00
    2.59344  4.803E+01 2.9400E+00
    2.59344  4.632E+01 2.9300E+00
    2.59444  4.447E+01 2.9800E+00
    2.59444  4.046E+01 3.0500E+00
    2.59544  4.415E+01 2.7900E+00
    2.59544  4.176E+01 2.9900E+00
    2.59633  4.121E+01 2.9900E+00
    2.59633  4.127E+01 3.0400E+00
    2.59744  3.807E+01 2.7700E+00
    2.59744  4.130E+01 2.6100E+00
    2.59844  3.943E+01 2.7200E+00
    2.59844  3.978E+01 2.7800E+00
    2.59933  3.889E+01 2.6000E+00
    2.59933  3.764E+01 2.7700E+00
    2.60044  3.422E+01 2.8100E+00
    2.60044  3.558E+01 2.8500E+00
    2.60144  3.086E+01 2.8800E+00
    2.60144  3.104E+01 2.7800E+00
    2.60344  3.303E+01 2.6500E+00
    2.60433  3.143E+01 2.5500E+00
    2.60533  2.690E+01 2.5400E+00
    2.60633  3.207E+01 2.3300E+00
    2.60633  3.262E+01 2.5500E+00
    2.60733  2.685E+01 2.5300E+00
    2.60833  2.668E+01 2.3900E+00
    2.60833  2.486E+01 2.3400E+00
    2.60833  2.762E+01 2.4700E+00
    2.60933  2.409E+01 1.0000E+00
    2.60933  2.508E+01 2.3700E+00
    2.61067  2.352E+01 1.1100E+00
    2.61711  1.783E+01 8.0235E-01
    2.62311  1.543E+01 6.9449E-01
    2.63622  1.221E+01 5.4950E-01
      2.645  1.056E+01 4.7497E-01
    2.64933  1.000E+01 4.5018E-01
      2.663  8.960E+00 4.0338E-01
      2.671  7.870E+00 6.1900E-01
    2.68333  7.900E+00 3.5550E-01
    2.69722  7.110E+00 3.1977E-01
      2.717  6.440E+00 4.1500E-01
    2.72122  6.280E+00 2.8245E-01
    2.75656  6.240E+00 2.8098E-01
    2.81367  5.720E+00 2.5753E-01
    2.86544  6.550E+00 2.9488E-01
    3.18744  9.450E+00 1.4000E-01
    3.22744  9.080E+00 1.6000E-01
    3.28744  9.630E+00 1.6000E-01
    3.38644  1.125E+01 1.7000E-01
    3.43644  1.210E+01 1.8000E-01
    3.48644  1.335E+01 1.8000E-01
    3.53644  1.346E+01 2.0000E-01
    3.58644  1.257E+01 2.6000E-01
    3.63544  1.387E+01 3.0000E-01
    3.68544  1.296E+01 3.0000E-01
    3.73544  1.316E+01 2.0000E-01
    3.78544  1.320E+01 2.5000E-01
    3.83544  1.360E+01 4.0000E-01
    3.98544  1.430E+01 2.5000E-01
    4.23544  1.530E+01 4.0000E-01
    4.33544  1.510E+01 8.0000E-01
    4.51444  1.670E+01 4.0000E-01
    4.76044  1.780E+01 4.0000E-01
    4.95044  1.761E+01 5.0000E-01
    5.24344  1.830E+01 4.0000E-01
ENDDATA            169
ENDSUBENT          184
SUBENT        F1457004   20211209   20220705   20220704       F088
BIB                  2          3
REACTION   (4-BE-9(P,N)5-B-9,PAR,DA)
STATUS     (TABLE) From Fig.4 of Izv.Ross.AN, Fiz. V.84,1430,2020
           Data were presented by Dr. L.N. Generalov
ENDBIB               3
COMMON               2          3
ANG-CM     E-LVL
ADEG       MEV
         0.         0.
ENDCOMMON            3
DATA                 3        147
EN         DATA-CM    DATA-ERR
MEV        MB/SR      MB/SR
      2.182     1.4079    0.04225
      2.288       2.99    0.08974
    2.34356     3.4699    0.10412
    2.38622     4.8504    0.14542
    2.42256     5.8872    0.17656
      2.453     6.6684    0.20008
    2.48478     7.7876    0.23355
    2.50744     9.0878    0.27262
    2.50978     9.1399    0.27417
    2.51478     9.3143     0.2795
    2.51978     9.7729     0.2932
    2.52978     10.333    0.30993
    2.53467     10.528    0.31591
    2.53967     10.953    0.32859
    2.54489     11.641    0.34928
    2.54967     11.774     0.3533
    2.55056     11.873    0.35624
    2.55156     12.087    0.36266
    2.55256     11.957    0.35867
    2.55256     11.619    0.34866
    2.55356     12.032    0.36101
    2.55456     12.291     0.3687
    2.55456      12.01    0.36024
    2.55556     12.314    0.36943
    2.55656     12.222    0.36668
    2.55656     12.247    0.36735
    2.55756     12.411    0.37236
    2.55756     12.501    0.37497
    2.55756     12.379    0.37144
    2.55856     12.563    0.37683
    2.55856      12.53    0.37583
    2.55967     12.701    0.38095
    2.55967      12.72    0.38154
    2.56056     12.794     0.3839
    2.56067      12.82    0.38459
    2.56156     12.863    0.38592
    2.56156     12.894    0.38684
    2.56256     12.956     0.3887
    2.56256     12.994    0.38979
    2.56356     13.037    0.39113
    2.56356     13.043    0.39121
    2.56444     13.201    0.39604
    2.56456     13.111    0.39326
    2.56544     13.423    0.40261
    2.56556     13.417     0.4025
    2.56644     13.549    0.40651
    2.56656     13.479    0.40433
    2.56756     13.547    0.40634
    2.56756     13.534    0.40609
    2.56844      13.57     0.4071
    2.56844     13.654    0.40951
    2.56956     13.632     0.4089
    2.56956     13.651     0.4096
    2.57044     13.624    0.40864
    2.57056     13.681    0.41053
    2.57144     13.698    0.41088
    2.57144     13.724    0.41172
    2.57244     13.754    0.41259
    2.57244     13.715    0.41154
    2.57344     13.662    0.40988
    2.57344       13.7    0.41096
    2.57444     13.621    0.40872
    2.57456      13.57     0.4071
    2.57544     13.542    0.40633
    2.57544     13.529    0.40591
    2.57644     13.443    0.40326
    2.57644      13.43    0.40283
    2.57744     13.267    0.39801
    2.57756     13.273    0.39821
    2.57889     12.957    0.38875
    2.57889      12.97    0.38903
    2.57944     12.869    0.38613
    2.57944     12.882    0.38643
    2.58044     12.738     0.3822
    2.58044     12.719     0.3816
    2.58144     12.594    0.37777
    2.58144     12.607    0.37815
    2.58244     12.488    0.37466
    2.58244     12.482    0.37449
    2.58344     12.311    0.36934
    2.58344     12.298    0.36905
    2.58444     12.154    0.36462
    2.58444     12.154    0.36464
    2.58544     12.029    0.36077
    2.58544      11.99    0.35963
    2.58644     11.858    0.35579
    2.58656     11.865    0.35597
    2.58744     11.791    0.35364
    2.58744     11.713    0.35135
    2.58833     11.555    0.34656
    2.58833     11.639    0.34919
    2.58944     11.481    0.34452
    2.58944     11.423    0.34277
    2.59078     11.118     0.3336
    2.59078      11.06    0.33187
    2.59144     11.016    0.33053
    2.59144     11.023    0.33078
      2.592     10.935     0.3281
      2.592      10.87     0.3261
    2.59344     10.732    0.32204
    2.59344     10.765    0.32293
    2.59444     10.477    0.31431
    2.59444     10.606    0.31812
    2.59544      10.57    0.31714
    2.59544     10.544    0.31638
    2.59633     10.437    0.31316
    2.59633     10.437    0.31321
    2.59744     10.292    0.30874
    2.59744     10.389    0.31161
    2.59844     10.152    0.30448
    2.59844     10.198    0.30595
    2.59933     10.097    0.30289
    2.59933     10.103    0.30306
    2.60044     9.8991    0.29698
    2.60044     9.8667    0.29597
    2.60144     9.6752    0.29031
    2.60144     9.7983    0.29397
    2.60344     9.6288     0.2888
    2.60433     9.5211    0.28568
    2.60533     9.4915    0.28468
    2.60633     9.4097    0.28229
    2.60633     9.3643    0.28091
    2.60733     9.2827    0.27847
    2.60833     9.2724    0.27814
    2.60833     9.2529    0.27761
    2.60833     9.2659    0.27798
    2.60933     9.2684    0.27811
    2.60933     9.2554    0.27775
    2.61067     9.2133    0.27639
    2.61133     9.1567    0.27476
    2.61233     9.1591    0.27475
    2.61333     9.0901    0.27264
    2.61433     9.0796    0.27242
    2.61711     9.0084    0.27023
    2.62311     8.7689    0.26297
    2.63622     8.4656    0.25389
      2.645     8.3011    0.24899
    2.64933     8.1854    0.24561
      2.663       8.18    0.24532
    2.68333     7.6966    0.23089
    2.69722      7.515    0.22548
    2.72122     7.8604    0.23572
    2.75656     8.0842    0.24253
    2.78111     8.3641    0.25089
    2.81367     8.4123    0.25237
    2.86544     8.7565     0.2627
    2.93367     9.3402    0.28021
ENDDATA            149
ENDSUBENT          161
ENDENTRY             4
