ENTRY            E0077   20091023   20100128   20100119       E060
SUBENT        E0077001   20091023   20100128   20100119       E060
BIB                 10         18
TITLE      Polarization and cross section measurements for p-4He
           elastic scattering at 45, 52, 60 and 65 MeV
AUTHOR     (K.Imai, K.Hatanaka, H.Shimizu, N.Tamura, K.Egawa,
           K.Nisimura, T.Saito, H.Sato, Y.Wakuta)
INSTITUTE  (2JPNKTO) Department of Physics
           (2JPNOSA) Research Center for Nuclear Physics
           (2JPNLEP)
           (2JPNKYU) Faculty of Engineering
REFERENCE  (J,NP/A,325,(2-3),397,197908)
PART-DET   (P)
INC-SOURCE Beam intensity is 10-80 nA.
           (POLIS,ATOMI)
SAMPLE     - Chemical-form of target is element.
           - Physical-form of target is gas.
           - Target-thickness: 1000 Torr
FACILITY   (ISOCY,2JPNOSA) Research Center for Nuclear Physics
DETECTOR   (GE-IN,NAICR) over all energy resolution 0.3%
HISTORY    (20090825C) Nh
ENDBIB              18
COMMON               2          3
EN-ERR     POL-BM
PER-CENT   NO-DIM
 0.2        0.7
ENDCOMMON            3
ENDSUBENT           25
SUBENT        E0077002   20091023   20100128   20100119       E060
BIB                  5          6
REACTION   (2-HE-4(P,EL)2-HE-4,,POL/DA,,ANA)
EN-SEC     ANG-CM is polar angle (c.m.) between beam and proton
METHOD     (LRASY,SFLIP)
ERR-ANALYS (ERR-1) Normalization uncertainty
           (DATA-ERR) Relative uncertainty only
STATUS     (TABLE) Takem from Table 1, p401 of reference
ENDBIB               6
COMMON               1          3
ERR-1
PER-CENT
 1.8
ENDCOMMON            3
DATA                 4        141
EN         ANG-CM     DATA       DATA-ERR
MEV        ADEG       NO-DIM     NO-DIM
 45.0       25.13      0.0453     0.0067
 45.0       37.50      0.0084     0.0081
 45.0       43.61      -0.0080    0.0066
 45.0       49.65      -0.007     0.012
 45.0       61.51      -0.0471    0.0091
 45.0       67.31      -0.039     0.012
 45.0       73.01      -0.029     0.015
 45.0       78.62      0.001      0.019
 45.0       84.12      -0.022     0.017
 45.0       94.80      -0.098     0.017
 45.0       99.96      -0.232     0.018
 45.0       105.01     -0.330     0.019
 45.0       109.94     -0.342     0.024
 45.0       124.05     0.082      0.012
 45.0       128.54     0.387      0.013
 45.0       132.92     0.566      0.027
 45.0       139.31     0.841      0.033
 45.0       141.40     0.896      0.011
 45.0       145.51     0.883      0.02
 45.0       149.54     0.8195     0.0073
 45.0       155.46     0.676      0.011
 45.0       161.25     0.507      0.014
 52.3       6.94       0.1242     0.0045
 52.3       7.57       0.1241     0.006
 52.3       8.84       0.1087     0.003
 52.3       10.10      0.0997     0.0034
 52.3       12.62      0.0791     0.0036
 52.3       15.13      0.0692     0.0027
 52.3       17.65      0.0695     0.0058
 52.3       20.15      0.0678     0.0039
 52.3       22.66      0.0617     0.0048
 52.3       25.15      0.0609     0.0035
 52.3       31.37      0.0504     0.0029
 52.3       37.54      0.0429     0.0027
 52.3       43.65      0.0221     0.0052
 52.3       49.70      -0.0104    0.0065
 52.3       55.67      -0.0317    0.0058
 52.3       61.56      -0.0666    0.0061
 52.3       67.37      -0.0532    0.0081
 52.3       73.08      -0.005     0.016
 52.3       78.69      0.052      0.016
 52.3       84.19      0.107      0.014
 52.3       89.58      0.123      0.016
 52.3       94.86      0.061      0.025
 52.3       100.02     -0.048     0.021
 52.3       105.07     -0.167     0.036
 52.3       107.55     -0.260     0.026
 52.3       112.42     -0.291     0.042
 52.3       114.82     -0.300     0.024
 52.3       119.52     -0.263     0.025
 52.3       124.11     -0.117     0.014
 52.3       126.36     0.057      0.018
 52.3       128.59     0.146      0.063
 52.3       130.79     0.433      0.024
 52.3       132.97     0.585      0.04
 52.3       137.25     0.796      0.025
 52.3       141.44     0.912      0.012
 52.3       143.50     0.940      0.019
 52.3       145.54     0.899      0.018
 52.3       147.97     0.876      0.029
 52.3       149.57     0.808      0.011
 52.3       157.42     0.6045     0.0091
 52.3       163.56     0.4315     0.0099
 59.6       19.55      0.0810     0.0031
 59.6       22.06      0.0872     0.0033
 59.6       25.18      0.0840     0.0033
 59.6       28.30      0.0841     0.0038
 59.6       31.41      0.0815     0.0039
 59.6       34.50      0.0827     0.005
 59.6       38.20      0.0748     0.0055
 59.6       43.70      0.0587     0.0075
 59.6       44.31      0.0462     0.0069
 59.6       46.74      0.0266     0.0078
 59.6       49.75      0.0176     0.0063
 59.6       52.75      -0.0186    0.0096
 59.6       55.73      -0.0208    0.0083
 59.6       58.69      -0.057     0.014
 59.6       61.63      -0.077     0.012
 59.6       67.43      -0.098     0.014
 59.6       73.15      -0.0676    0.0097
 59.6       78.76      -0.021     0.013
 59.6       84.26      0.068      0.014
 59.6       89.65      0.071      0.016
 59.6       94.93      0.081      0.013
 59.6       100.09     0.050      0.015
 59.6       105.14     -0.056     0.015
 59.6       110.07     -0.101     0.019
 59.6       114.88     -0.251     0.027
 59.6       119.58     -0.298     0.028
 59.6       124.16     -0.171     0.025
 59.6       128.64     0.154      0.03
 59.6       133.02     0.453      0.028
 59.6       137.29     0.774      0.022
 59.6       141.48     0.891      0.019
 59.6       145.58     0.898      0.016
 59.6       149.61     0.832      0.017
 59.6       153.56     0.731      0.015
 59.6       157.45     0.590      0.017
 59.6       161.29     0.480      0.015
 59.6       165.09     0.352      0.013
 64.9       6.96       0.1483     0.0048
 64.9       7.59       0.1477     0.0052
 64.9       8.85       0.1387     0.005
 64.9       10.12      0.1211     0.0052
 64.9       12.64      0.1001     0.0037
 64.9       15.16      0.0998     0.0039
 64.9       17.68      0.1090     0.0053
 64.9       20.20      0.0880     0.0042
 64.9       22.70      0.1047     0.0055
 64.9       25.21      0.1188     0.0056
 64.9       31.43      0.1020     0.0074
 64.9       37.61      0.1152     0.0099
 64.9       43.73      0.098      0.015
 64.9       44.95      0.070      0.014
 64.9       49.79      0.0353     0.0087
 64.9       55.77      -0.026     0.018
 64.9       61.67      -0.088     0.016
 64.9       67.48      -0.146     0.016
 64.9       73.19      -0.1266    0.0051
 64.9       78.80      -0.093     0.017
 64.9       84.31      -0.018     0.014
 64.9       89.70      0.009      0.014
 64.9       94.98      0.063      0.015
 64.9       100.14     0.048      0.016
 64.9       105.19     0.028      0.019
 64.9       110.12     -0.072     0.017
 64.9       112.54     -0.090     0.023
 64.9       114.93     -0.153     0.065
 64.9       119.62     -0.258     0.047
 64.9       124.21     -0.212     0.036
 64.9       124.66     -0.170     0.028
 64.9       128.68     0.061      0.026
 64.9       133.05     0.422      0.054
 64.9       137.32     0.787      0.054
 64.9       141.51     0.959      0.02
 64.9       145.61     0.887      0.038
 64.9       149.63     0.774      0.034
 64.9       153.38     0.692      0.029
 64.9       157.47     0.559      0.028
 64.9       161.31     0.434      0.022
 64.9       165.10     0.350      0.022
ENDDATA            143
ENDSUBENT          158
SUBENT        E0077003   20091023   20100128   20100119       E060
BIB                  4          5
REACTION   (2-HE-4(P,EL)2-HE-4,,DA)
EN-SEC     ANG-CM is polar angle (c.m.) between beam and proton
ERR-ANALYS (ERR-1) Normalization uncertainty
           (DATA-ERR) Relative uncertainty only
STATUS     (TABLE) Taken from Table 1, p401 of reference
ENDBIB               5
COMMON               1          3
ERR-1
PER-CENT
 1.4
ENDCOMMON            3
DATA                 4        141
EN         ANG-CM     DATA-CM    DATA-ERR
MEV        ADEG       MB/SR      MB/SR
 45.0       25.13      132.3      1.
 45.0       37.50      70.0       1.1
 45.0       43.61      49.18      0.7
 45.0       49.65      32.24      0.54
 45.0       61.51      12.02      0.2
 45.0       67.31      7.82       0.13
 45.0       73.01      4.928      0.082
 45.0       78.62      3.469      0.048
 45.0       84.12      2.808      0.043
 45.0       94.80      1.865      0.023
 45.0       99.96      1.581      0.023
 45.0       105.01     1.411      0.02
 45.0       109.94     1.296      0.022
 45.0       124.05     1.375      0.011
 45.0       128.54     1.467      0.015
 45.0       132.92     1.752      0.041
 45.0       139.31     2.149      0.093
 45.0       141.40     2.531      0.036
 45.0       145.51     2.926      0.065
 45.0       149.54     3.798      0.044
 45.0       155.46     4.977      0.06
 45.0       161.25     6.443      0.074
 52.3       6.94       109.0      4.4
 52.3       7.57       98.3       2.7
 52.3       8.84       100.1      1.1
 52.3       10.10      111.7      1.2
 52.3       12.62      129.4      1.4
 52.3       15.13      138.1      1.5
 52.3       17.65      138.3      1.5
 52.3       20.15      131.8      1.5
 52.3       22.66      122.1      1.5
 52.3       25.15      112.5      0.9
 52.3       31.37      82.40      0.92
 52.3       37.54      57.13      0.79
 52.3       43.65      35.62      0.6
 52.3       49.70      20.66      0.4
 52.3       55.67      12.55      0.25
 52.3       61.56      7.36       0.13
 52.3       67.37      4.540      0.07
 52.3       73.08      3.020      0.052
 52.3       78.69      2.200      0.024
 52.3       84.19      1.650      0.024
 52.3       89.58      1.393      0.019
 52.3       94.86      1.145      0.02
 52.3       100.02     1.015      0.015
 52.3       105.07     0.909      0.014
 52.3       107.55     0.831      0.017
 52.3       112.42     0.759      0.022
 52.3       114.82     0.737      0.012
 52.3       119.52     0.706      0.012
 52.3       124.11     0.7048     0.0064
 52.3       126.36     0.6914     0.0085
 52.3       128.59     0.700      0.032
 52.3       130.79     0.733      0.013
 52.3       132.97     0.763      0.024
 52.3       137.25     0.971      0.024
 52.3       141.44     1.263      0.02
 52.3       143.50     1.342      0.023
 52.3       145.54     1.632      0.026
 52.3       147.97     1.904      0.056
 52.3       149.57     2.166      0.034
 52.3       157.42     3.303      0.039
 52.3       163.56     4.363      0.045
 59.6       19.55      112.3      0.7
 59.6       22.06      106.9      0.9
 59.6       25.18      93.3       1.
 59.6       28.30      79.6       1.
 59.6       31.41      64.58      0.99
 59.6       34.50      54.28      0.91
 59.6       38.20      43.48      0.8
 59.6       43.70      26.28      0.56
 59.6       44.31      24.84      0.51
 59.6       46.74      19.95      0.45
 59.6       49.75      15.23      0.35
 59.6       52.75      11.45      0.27
 59.6       55.73      8.69       0.2
 59.6       58.69      6.48       0.15
 59.6       61.63      4.99       0.11
 59.6       67.43      3.163      0.057
 59.6       73.15      2.191      0.03
 59.6       78.76      1.666      0.022
 59.6       84.26      1.324      0.017
 59.6       89.65      1.072      0.016
 59.6       94.93      0.871      0.01
 59.6       100.09     0.7162     0.0091
 59.6       105.14     0.5765     0.0046
 59.6       110.07     0.4840     0.007
 59.6       114.88     0.4430     0.0082
 59.6       119.58     0.3937     0.0078
 59.6       124.16     0.3622     0.0064
 59.6       128.64     0.3760     0.0092
 59.6       133.02     0.3805     0.0076
 59.6       137.29     0.4546     0.0083
 59.6       141.48     0.602      0.012
 59.6       145.58     0.821      0.015
 59.6       149.61     1.118      0.021
 59.6       153.56     1.475      0.024
 59.6       157.45     1.910      0.03
 59.6       161.29     2.360      0.031
 59.6       165.09     2.731      0.03
 64.9       6.96       82.2       3.1
 64.9       7.59       75.25      0.96
 64.9       8.85       83.36      0.92
 64.9       10.12      93.7       1.
 64.9       12.64      109.6      1.2
 64.9       15.16      113.6      1.3
 64.9       17.68      111.4      1.3
 64.9       20.20      104.5      1.2
 64.9       22.70      95.36      1.2
 64.9       25.21      82.37      0.86
 64.9       31.43      56.12      0.83
 64.9       37.61      35.51      0.66
 64.9       43.73      20.65      0.47
 64.9       44.95      18.27      0.41
 64.9       49.79      11.43      0.27
 64.9       55.77      6.40       0.15
 64.9       61.67      3.852      0.073
 64.9       67.48      2.430      0.035
 64.9       73.19      1.813      0.022
 64.9       78.80      1.421      0.018
 64.9       84.31      1.138      0.015
 64.9       89.70      0.970      0.011
 64.9       94.98      0.735      0.01
 64.9       100.14     0.5771     0.007
 64.9       105.19     0.4504     0.0062
 64.9       110.12     0.3773     0.0046
 64.9       112.54     0.3516     0.0053
 64.9       114.93     0.311      0.014
 64.9       119.62     0.2738     0.0092
 64.9       124.21     0.2637     0.0067
 64.9       124.66     0.2595     0.0044
 64.9       128.68     0.2454     0.0037
 64.9       133.05     0.2292     0.0088
 64.9       137.32     0.2470     0.0098
 64.9       141.51     0.3402     0.0067
 64.9       145.61     0.504      0.017
 64.9       149.63     0.701      0.021
 64.9       153.58     0.956      0.024
 64.9       157.47     1.236      0.029
 64.9       161.31     1.542      0.028
 64.9       165.10     1.807      0.031
ENDDATA            143
ENDSUBENT          157
ENDENTRY             3
