ENTRY            E2572   20191216   20200120   20200120       E124
SUBENT        E2572001   20191216   20200120   20200120       E124
BIB                  9         13
TITLE      Level structure of 54Mn from the 54Cr(p,ng) reaction
AUTHOR     (M.Ogawa, H.Taketani)
INSTITUTE  (2JPNTIT) Department of Applied Physics
REFERENCE  (J,NP/A,194,259,1972)
PART-DET   (G)
SAMPLE     - Chemical-form of target is element.
           - Physical-form of target is solid.
           - Target-thickness is 0.2 mg/cm2.
           - Backing is gold.
           (24-CR-54,ENR=0.906)
FACILITY   (VDG,2JPNTIT)
DETECTOR   (GELI)
HISTORY    (20190201C) Ichinko
ENDBIB              13
NOCOMMON             0          0
ENDSUBENT           16
SUBENT        E2572002   20191216   20200120   20200120       E124
BIB                  4          4
REACTION   (24-CR-54(P,N)25-MN-54,PAR,SIG,G)
EN-SEC     (E,G)
ERR-ANALYS (DATA-ERR) No information on source of uncertainties
STATUS     (CURVE) Fig.3 of Nucl.Phys.A194(1972)259
ENDBIB               4
NOCOMMON             0          0
DATA                 5        207
E          EN         DATA       +DATA-ERR  -DATA-ERR
KEV        MEV        MB         MB         MB
        54.      2.009  1.594E-02  1.001E-02  7.021E-03
        54.      2.106  7.948E-03  9.717E-03  1.422E-03
        54.      2.205  2.844E-02  1.202E-02  9.657E-03
        54.      2.261  4.045E-02
        54.      2.310  4.485E-01
        54.      2.373  9.963E+00
        54.      2.427  2.190E+01
        54.      2.474  2.612E+01
        54.      2.522  2.144E+01
        54.      2.580  2.748E+01
        54.      2.625  2.164E+01
        54.      2.675  2.892E+01
        54.      2.723  3.521E+01
        54.      2.776  1.850E+01
        54.      2.820  1.583E+01
        54.      2.871  2.322E+01
        54.      2.915  1.946E+01
        54.      2.963  4.747E+01
        54.      3.014  3.101E+01
       156.      2.401  3.796E-02
       156.      2.451  8.611E-02
       156.      2.502  9.748E-02
       156.      2.547  1.570E-01
       156.      2.603  3.112E-01
       156.      2.653  2.209E-01
       156.      2.701  6.427E-01
       156.      2.752  1.617E+00
       156.      2.799  9.232E-01
       156.      2.852  1.024E+00
       156.      2.900  1.867E+00
       156.      2.954  3.740E+00
       156.      2.996  3.979E+00
       212.      2.671  1.769E-02  6.151E-03  6.325E-03
       212.      2.749  2.018E-02  5.006E-03  4.761E-03
       212.      2.796  4.103E-02  8.704E-03  7.818E-03
       212.      2.847  4.135E-02  1.124E-02  6.577E-03
       212.      2.901  4.906E-02  1.042E-02  1.086E-02
       212.      2.953  6.661E-02  1.414E-02  1.216E-02
       212.      3.002  3.699E-02  7.836E-03  6.466E-03
       212.      3.058  7.813E-02  1.043E-02  8.533E-03
       212.      3.104  3.114E-01
       212.      3.155  1.296E-01
       212.      3.204  1.693E-01
       212.      3.254  2.786E-01
       212.      3.306  4.496E-01
       212.      3.362  4.892E-01
       212.      3.418  4.146E-01
       212.      3.468  3.548E-01
       212.      3.517  8.913E-01
       212.      3.566  6.056E-01
       212.      3.627  1.162E+00
       212.      3.672  2.503E+00
       251.      2.640  7.433E-02
       251.      2.699  2.510E-01
       251.      2.753  9.233E-01
       251.      2.807  3.723E-01
       251.      2.854  6.696E-01
       251.      2.901  9.122E-01
       251.      2.957  2.828E+00
       251.      3.001  2.409E+00
       251.      3.053  1.069E+00
       251.      3.106  2.706E+00
       251.      3.156  3.141E+00
       251.      3.205  3.569E+00
       251.      3.255  2.732E+00
       251.      3.299  4.011E+00
       251.      3.354  2.788E+00
       251.      3.407  7.524E+00
       251.      3.456  2.399E+00
       251.      3.506  3.961E+00
       353.      2.643  6.147E-03
       353.      2.700  4.950E-02
       353.      2.754  1.313E-01
       353.      2.803  3.666E-02
       353.      2.843  9.535E-02
       353.      2.901  1.202E-01
       353.      2.957  3.828E-01
       353.      2.999  3.375E-01
       353.      3.052  1.619E-01
       353.      3.094  3.573E-01
       353.      3.153  4.503E-01
       353.      3.198  4.724E-01
       353.      3.250  3.367E-01
       353.      3.303  5.781E-01
       353.      3.353  3.777E-01
       353.      3.398  1.021E+00
       353.      3.445  3.022E-01
       353.      3.498  5.715E-01
       407.      2.644  3.115E-02
       407.      2.693  1.313E-01
       407.      2.738  3.042E-01
       407.      2.798  1.473E-01
       407.      2.849  2.759E-01
       407.      2.899  2.577E-01
       407.      2.953  1.244E+00
       407.      2.987  9.862E-01
       407.      3.042  4.777E-01
       407.      3.101  1.184E+00
       407.      3.153  1.435E+00
       407.      3.193  1.506E+00
       407.      3.251  1.084E+00
       407.      3.299  1.756E+00
       407.      3.346  1.170E+00
       407.      3.402  3.516E+00
       407.      3.449  1.082E+00
       407.      3.494  1.893E+00
       471.      3.305  4.475E-02  1.852E-02  1.597E-02
       471.      3.352  3.904E-02  2.173E-02  2.549E-02
       471.      3.405  7.937E-02  2.451E-02  2.323E-02
       471.      3.456  7.922E-02  2.057E-02  1.753E-02
       471.      3.507  8.457E-02  3.158E-02  2.646E-02
       471.      3.561  2.124E-01
       471.      3.612  2.426E-01
       471.      3.669  4.029E-01
       471.      3.712  9.741E-01
       471.      3.756  6.013E-01
       471.      3.794  6.675E-01
       854.      3.305  5.271E-01
       854.      3.363  1.082E+00
       854.      3.408  1.234E+00
       854.      3.459  6.374E-01
       854.      3.505  3.334E+00
       854.      3.556  2.410E+00
       854.      3.598  2.137E+00
       854.      3.665  2.135E+00
       854.      3.698  5.246E+00
       854.      3.733  8.173E+00
       854.      3.775  6.427E+00
       854.      3.826  5.430E+00
       854.      3.852  1.088E+01
       854.      3.903  4.755E+00
       854.      3.961  6.039E+00
       955.      3.305  5.271E-01
       955.      3.363  1.082E+00
       955.      3.408  1.234E+00
       955.      3.459  6.374E-01
       955.      3.505  3.334E+00
       955.      3.556  2.410E+00
       955.      3.598  2.137E+00
       955.      3.665  2.135E+00
       955.      3.698  5.246E+00
       955.      3.733  8.173E+00
       955.      3.775  6.427E+00
       955.      3.826  5.430E+00
       955.      3.852  1.088E+01
       955.      3.903  4.755E+00
       955.      3.961  6.039E+00
       967.      3.622  3.356E-02
       967.      3.637  5.144E-01
       967.      3.655  6.370E-01
       967.      3.673  6.370E-01
       967.      3.697  9.765E-01
       967.      3.727  1.253E+00
       967.      3.746  6.759E-01
       967.      3.764  1.139E+00
       967.      3.787  1.074E+00
       967.      3.808  1.087E+00
      1320.      3.622  3.356E-02
      1320.      3.639  6.294E-01
      1320.      3.660  8.881E-01
      1320.      3.680  7.088E-01
      1320.      3.697  1.100E+00
      1320.      3.719  1.012E+00
      1320.      3.727  1.378E+00
      1320.      3.750  7.345E-01
      1320.      3.770  1.428E+00
      1320.      3.787  1.153E+00
      1320.      3.806  1.181E+00
      1336.      3.640  8.086E-01
      1336.      3.661  1.125E+01
      1336.      3.680  1.060E+01
      1336.      3.700  3.430E+01
      1336.      3.720  2.706E+01
      1336.      3.729  2.319E+01
      1336.      3.746  1.808E+01
      1336.      3.770  5.457E+00
      1336.      3.792  3.046E+01
      1336.      3.813  3.908E+01
      1375.      3.621  2.615E-01
      1375.      3.638  3.016E+00
      1375.      3.661  3.823E+00
      1375.      3.679  3.477E+00
      1375.      3.702  5.657E+00
      1375.      3.718  5.394E+00
      1375.      3.726  6.921E+00
      1375.      3.747  3.915E+00
      1375.      3.766  7.172E+00
      1375.      3.786  5.932E+00
      1375.      3.806  6.074E+00
      1400.      3.705  8.111E-02
      1400.      3.734  2.182E+01
      1400.      3.752  1.063E+01
      1400.      3.773  8.073E+00
      1400.      3.795  1.401E+01
      1400.      3.816  1.418E+01
      1400.      3.899  2.612E+01
      1454.      3.726  2.166E-01
      1454.      3.734  1.291E+00
      1454.      3.752  6.143E-01
      1454.      3.773  1.079E+00
      1454.      3.795  1.742E+00
      1454.      3.814  1.806E+00
      1454.      3.902  3.287E+00
      1509.      3.774  1.294E+00
      1509.      3.791  2.049E+00
      1509.      3.812  2.067E+00
      1509.      3.902  3.006E+00
ENDDATA            209
ENDSUBENT          218
NOSUBENT      E2572003   20191216   20200120   20200120       E124
NOSUBENT      E2572004   20191216   20200120   20200120       E124
NOSUBENT      E2572005   20191216   20200120   20200120       E124
NOSUBENT      E2572006   20191216   20200120   20200120       E124
NOSUBENT      E2572007   20191216   20200120   20200120       E124
ENDENTRY             7
