ENTRY            20324     860915
SUBENT        20324001     860915              20050926       0000
BIB                 16         34
INSTITUTE  (2JPNJAE)
REFERENCE  (W,TSUKADA,6311) DATA FROM PRIV. COMMUNICATION.
AUTHOR     (K.TSUKADA,O.TANAKA)
TITLE      -TOTAL CROSS-SECTIONS OF BORON-
FACILITY   (VDG  )    2 MV VAN DE GRAAFF ACCELERATOR.
INC-SOURCE (D-D  )    D(D,N), DEUTERIUM-GAS TARGET (3 CM THICK,
            5.0 CM HG, ENTRANCE WINDOW OF NI-FOIL OF
            0.00005 INCHES).
INC-SPECT  .ENERGY SPREAD(FWHM) OF 50 KEV AT 3.2 MEV AND 20 KEV
            AT 5.1 MEV.
METHOD     .GOOD-GEOMETRY TRANSMISSION MEASUREMENT
            WITH A DC-BEAM OF MONOENERGETIC NEUTRONS.
DETECTOR   (SCIN )    ANTHRACENE SCINTILLATION COUNTER (2.0 CM
            IN DIAMETER AND 2.5 CM HIGH) WITH PULSE-
            SHAPE DISCRIMATION TO BLOCK GAMMA-RAYS.
            37.5 CM FROM THE CENTER OF THE GAS CELL TO THE SAMPLE
            AND 37.5 CM FROM THE SAMPLE TO THE DETECTOR.
MONITOR    .ABSOLUTE
PART-DET   (N    )    NEUTRONS.
COMMENT    .THE 3.75 MEV RESONANCE IN THE NEUTRON TOTAL CROSS
            SECTIONS OF OXYGEN WAS USED AS STANDARD OF THE NEUTRON
            ENERGY, PHYS. REV. 102(1956)1384, AND B.A.P.S. SER.II
            1(1956)326.
STATUS     (APRVD)    APPROVED BY THE AUTHORS.
HISTORY    (711010C)
           (740626E)
           (840106U) A.P.T. JAPAN CODE CHANGED TO JPN
           (840106E)
           (860311U)N.CH
           (860416E)
CORRECTION .IN-SCATTERING CORRECTION.
ERR-ANALYS .STATISTICAL ERRORS LESS THAN 2 PERCENT, OVERALL
            ERRORS INCLUDING ERRORS IN DIMENSIONS OF THE SAMPLE
            ARE ESTIMATED TO BE LESS THAN 3 PERCENT.
ENDBIB              34
NOCOMMON             0          0
ENDSUBENT           37
SUBENT        20324002     831122              20050926       0000
BIB                  3          6
REACTION   (5-B-0(N,TOT),,SIG)
SAMPLE     .NATURAL BORON IN POWDER FORM FILLED IN A
            LUCITE CYLINDER (3.7 CM IN INNER DIAM. AND
            9 CM LONG).
HISTORY    (711010C)
           (740626E)
ENDBIB               6
NOCOMMON             0          0
DATA                 3         66
EN         DATA       DATA-ERR
MEV        B          PER-CENT
 3.2390E+00 1.6400E+00 3.0000E+00
 3.2810E+00 1.7100E+00 3.0000E+00
 3.3230E+00 1.6200E+00 3.0000E+00
 3.3660E+00 1.6500E+00 3.0000E+00
 3.4050E+00 1.6100E+00 3.0000E+00
 3.4440E+00 1.7400E+00 3.0000E+00
 3.4830E+00 1.7600E+00 3.0000E+00
 3.4980E+00 1.6800E+00 3.0000E+00
 3.4980E+00 1.6900E+00 3.0000E+00
 3.4980E+00 1.7500E+00 3.0000E+00
 3.5210E+00 1.8200E+00 3.0000E+00
 3.5370E+00 1.6700E+00 3.0000E+00
 3.5370E+00 1.7000E+00 3.0000E+00
 3.5580E+00 1.7700E+00 3.0000E+00
 3.5730E+00 1.6900E+00 3.0000E+00
 3.5960E+00 1.6900E+00 3.0000E+00
 3.6350E+00 1.6600E+00 3.0000E+00
 3.6700E+00 1.6500E+00 3.0000E+00
 3.7040E+00 1.6500E+00 3.0000E+00
 3.7400E+00 1.6200E+00 3.0000E+00
 3.7750E+00 1.6200E+00 3.0000E+00
 3.8100E+00 1.6200E+00 3.0000E+00
 3.8450E+00 1.4600E+00 3.0000E+00
 3.8450E+00 1.5300E+00 3.0000E+00
 3.8780E+00 1.5200E+00 3.0000E+00
 3.9130E+00 1.5300E+00 3.0000E+00
 3.9470E+00 1.6000E+00 3.0000E+00
 3.9810E+00 1.5600E+00 3.0000E+00
 4.0130E+00 1.5700E+00 3.0000E+00
 4.0470E+00 1.4700E+00 3.0000E+00
 4.0790E+00 1.4600E+00 3.0000E+00
 4.1110E+00 1.4400E+00 3.0000E+00
 4.1440E+00 1.4200E+00 3.0000E+00
 4.1760E+00 1.4200E+00 3.0000E+00
 4.2070E+00 1.4500E+00 3.0000E+00
 4.2370E+00 1.4500E+00 3.0000E+00
 4.2670E+00 1.4500E+00 3.0000E+00
 4.2980E+00 1.4700E+00 3.0000E+00
 4.3260E+00 1.5100E+00 3.0000E+00
 4.3570E+00 1.5500E+00 3.0000E+00
 4.3870E+00 1.5500E+00 3.0000E+00
 4.4170E+00 1.4800E+00 3.0000E+00
 4.4470E+00 1.5800E+00 3.0000E+00
 4.4770E+00 1.5800E+00 3.0000E+00
 4.5070E+00 1.6100E+00 3.0000E+00
 4.5370E+00 1.7300E+00 3.0000E+00
 4.5670E+00 1.7900E+00 3.0000E+00
 4.5970E+00 1.7300E+00 3.0000E+00
 4.6270E+00 1.8100E+00 3.0000E+00
 4.6570E+00 1.8200E+00 3.0000E+00
 4.6840E+00 1.7900E+00 3.0000E+00
 4.7140E+00 1.7600E+00 3.0000E+00
 4.7420E+00 1.8000E+00 3.0000E+00
 4.7700E+00 1.7900E+00 3.0000E+00
 4.7990E+00 1.8500E+00 3.0000E+00
 4.8280E+00 1.8600E+00 3.0000E+00
 4.8560E+00 1.8500E+00 3.0000E+00
 4.8850E+00 1.8100E+00 3.0000E+00
 4.9130E+00 1.7800E+00 3.0000E+00
 4.9410E+00 1.7300E+00 3.0000E+00
 4.9700E+00 1.7100E+00 3.0000E+00
 4.9980E+00 1.7600E+00 3.0000E+00
 5.0260E+00 1.7200E+00 3.0000E+00
 5.0530E+00 1.8400E+00 3.0000E+00
 5.0810E+00 1.7100E+00 3.0000E+00
 5.1100E+00 1.7000E+00 3.0000E+00
ENDDATA             68
ENDSUBENT           79
SUBENT        20324003     831122              20050926       0000
BIB                  3          7
REACTION   (5-B-10(N,TOT),,SIG)
SAMPLE     .93 PERCENT ENRICHED B-10 (PURCHASED FROM
            ORNL) IN POWDER FORM FILLED IN A LUCITE
            CYLINDER (3.7 CM IN INNER DIAM. AND 9 CM
            LONG).
HISTORY    (711010C)
           (740626E)
ENDBIB               7
NOCOMMON             0          0
DATA                 3         59
EN         DATA       DATA-ERR
MEV        B          PER-CENT
 3.2390E+00 1.8800E+00 3.0000E+00
 3.2810E+00 1.9000E+00 3.0000E+00
 3.3230E+00 1.7400E+00 3.0000E+00
 3.3660E+00 1.7400E+00 3.0000E+00
 3.4050E+00 1.7300E+00 3.0000E+00
 3.4440E+00 1.7300E+00 3.0000E+00
 3.4830E+00 1.7500E+00 3.0000E+00
 3.5210E+00 1.7300E+00 3.0000E+00
 3.5580E+00 1.7300E+00 3.0000E+00
 3.5960E+00 1.7300E+00 3.0000E+00
 3.6350E+00 1.6800E+00 3.0000E+00
 3.6700E+00 1.6600E+00 3.0000E+00
 3.7040E+00 1.6500E+00 3.0000E+00
 3.7400E+00 1.7200E+00 3.0000E+00
 3.7750E+00 1.6500E+00 3.0000E+00
 3.8100E+00 1.6800E+00 3.0000E+00
 3.8450E+00 1.7800E+00 3.0000E+00
 3.8780E+00 1.6900E+00 3.0000E+00
 3.9130E+00 1.7500E+00 3.0000E+00
 3.9470E+00 1.7600E+00 3.0000E+00
 3.9810E+00 1.8300E+00 3.0000E+00
 4.0130E+00 1.8100E+00 3.0000E+00
 4.0470E+00 1.8500E+00 3.0000E+00
 4.0790E+00 1.8100E+00 3.0000E+00
 4.1110E+00 1.8800E+00 3.0000E+00
 4.1440E+00 1.8100E+00 3.0000E+00
 4.1760E+00 1.8300E+00 3.0000E+00
 4.2070E+00 1.8000E+00 3.0000E+00
 4.2370E+00 1.8300E+00 3.0000E+00
 4.2670E+00 1.8200E+00 3.0000E+00
 4.2980E+00 1.8300E+00 3.0000E+00
 4.3260E+00 1.8200E+00 3.0000E+00
 4.3570E+00 1.8900E+00 3.0000E+00
 4.3870E+00 1.8800E+00 3.0000E+00
 4.4170E+00 1.8400E+00 3.0000E+00
 4.4470E+00 1.8200E+00 3.0000E+00
 4.4770E+00 1.8100E+00 3.0000E+00
 4.5070E+00 1.8000E+00 3.0000E+00
 4.5370E+00 1.8000E+00 3.0000E+00
 4.5670E+00 1.7900E+00 3.0000E+00
 4.5970E+00 1.7600E+00 3.0000E+00
 4.6270E+00 1.7300E+00 3.0000E+00
 4.6570E+00 1.7100E+00 3.0000E+00
 4.6840E+00 1.7000E+00 3.0000E+00
 4.7140E+00 1.6800E+00 3.0000E+00
 4.7420E+00 1.6900E+00 3.0000E+00
 4.7700E+00 1.6600E+00 3.0000E+00
 4.7990E+00 1.6200E+00 3.0000E+00
 4.8280E+00 1.7200E+00 3.0000E+00
 4.8560E+00 1.6400E+00 3.0000E+00
 4.8850E+00 1.5500E+00 3.0000E+00
 4.9130E+00 1.6000E+00 3.0000E+00
 4.9410E+00 1.5900E+00 3.0000E+00
 4.9700E+00 1.5900E+00 3.0000E+00
 4.9980E+00 1.6100E+00 3.0000E+00
 5.0260E+00 1.5600E+00 3.0000E+00
 5.0530E+00 1.5900E+00 3.0000E+00
 5.0810E+00 1.6100E+00 3.0000E+00
 5.1100E+00 1.5300E+00 3.0000E+00
ENDDATA             61
ENDSUBENT           73
ENDENTRY             3
