ENTRY            20357   19840109              20050926       0000
SUBENT        20357001   19840109              20050926       0000
BIB                 13         23
INSTITUTE  (2ITYCAS)
REFERENCE  (J,NC/A,18,711,7312)
AUTHOR     (A.FUBINI, R.ALBERINI, D.LATTANZI)
TITLE      -TL-203(N,G) REACTION AND LEVEL STRUCTURE OF TL-204.-
FACILITY   .ONE MW RESEARCH REACTOR OF THE CASACCIA CENTRE.
INC-SPECT  .THERMAL-NEUTRON BEAM OF 2.E+6 N/CM2/S.
SAMPLE     .NATURAL, METALLIC TARGET OF TL (ABOUT 6 G/CM2 THICK)
            AND TL(2)-O(3) TARGET OF ABOUT 0.4 G/CM2 THICK.
            THE 2ND TARGET WAS USED IN ORDER TO REDUCE THE SELF-
            ABSORPTION OF LOW-ENERGY GAMMA-RAYS.
METHOD     .CAPTURE GAMMA SPECTRA BELOW 1.8 MEV WITH A GE(LI)
            SPECTROMETER.
DETECTOR   (GELI )    COAXIAL 50 CM3 ACTIVE VOLUME GE(LI),
            ENERGY RESOLUTION WAS ABOUT 3.5 KEV FWHM AT 1 MEV.
           .2 TRUE COAXIAL GE(LI) DETECTORS IN COINCIDENCE FOR
            SOME GAMMA PEAKS.
PART-DET   (G    )    GAMMAS.
HISTORY    (740306C)
           (740929E)
CORRECTION .TL-205(N,G) CONTRIBUTION WAS EXCLUDED.
ERR-ANALYS .INTENSITY UNCERTAINTIES ARE ESTIMATED TO BE LESS THAN
            20 PERC. FOR THE STRONGEST (2 SIGNIFICANT DIGIT
            ENTRIES) TRANSITIONS.
ENDBIB              23
COMMON               1          3
EN-DUMMY
MEV
 2.5300E-08
ENDCOMMON            3
ENDSUBENT           30
SUBENT        20357002   19840109              20050926       0000
BIB                  5         15
REACTION   (81-TL-203(N,G)81-TL-204,,SPC)
            GAMMA INTENSITY (PHOTONS PER 100 NEUTRON CAPTURES).
MONITOR    (5-B-10(N,A)3-LI-7,,SIG)
           .NEUTRON FLUX AND ABSOLUTE DETECTOR EFFICIENCY WERE
            CALIBRATED BY REPLACING THE SAMPLE WITH A KNOWN
            H3BO3-TL2O3 MIXTURE. THE RESULTING SPECTRUM CONTAINED
            THE 478 KEV PEAK FROM THE B-10(N,A) REACTION WHICH
            ALLOWED NORMALIZATION VIA THE KNOWN B-10 X-SECTION.
FLAG       (1.)       TL-205(N,G) CONTRIBUTION HAS BEEN SUBTRACTED
           (2.)       THIS PEAK IS UNRESOLVED IN THE SINGLE
            SPECTRUM.  INTENSITIES ARE APPORTIONED FROM
            COINCIDENCE DATA.
STATUS     .FROM TABLE I OF IL NUOVO CIMENTO,18A(1973)711.
HISTORY    (740306C)
           (740929E)
ENDBIB              15
NOCOMMON             0          0
DATA                 4        127
E          E-RSL      DATA       FLAG
MEV        MEV        GAM/100N   NO-DIM
 1.2090E-01 3.0000E-04 1.2000E+00
 1.3140E-01 4.0000E-04 6.0000E-01
 1.4060E-01 1.0000E-04 5.5000E+01
 1.5320E-01 2.0000E-04 1.1000E+01
 1.5850E-01 4.0000E-04 2.0000E+00
 2.0320E-01 4.0000E-04 5.5000E+00
 2.2930E-01 3.0000E-04 5.0000E-01
 2.3260E-01 2.0000E-04 7.0000E-01
 2.3650E-01 3.0000E-04 6.0000E-01
 2.5270E-01 2.0000E-04 1.7000E+00
 2.7830E-01 3.0000E-04 2.0000E+00 1.0000E+00
 2.8390E-01 4.0000E-04 7.0000E-01
 2.9180E-01 2.0000E-04 4.8000E+00
 3.1030E-01 2.0000E-04 8.0000E-01
 3.1840E-01 1.0000E-04 1.5000E+01
 3.3060E-01 3.0000E-04 3.5000E+00 1.0000E+00
 3.3730E-01 5.0000E-04 1.0000E+00
 3.4760E-01 1.0000E-04 1.5000E+01
 3.8370E-01 3.0000E-04 1.3000E+00 1.0000E+00
 3.9010E-01 3.0000E-04 7.0000E-01
 3.9530E-01 1.0000E-04 5.0000E+00
 4.1430E-01 4.0000E-04 1.0000E+00
 4.1760E-01 4.0000E-04 1.5000E+00
 4.2430E-01 2.0000E-04 1.0000E+00 2.0000E+00
 4.2450E-01 2.0000E-04 4.0000E+00 2.0000E+00
 4.3700E-01 4.0000E-04 1.7000E+00
 4.5680E-01 2.0000E-04 3.0000E-01
 4.6590E-01 5.0000E-04 1.1000E+00
 4.7160E-01 4.0000E-04 5.0000E+00
 4.8800E-01 5.0000E-04 4.0000E+00
 4.9030E-01 5.0000E-04 3.0000E-01
 4.9960E-01 3.0000E-04 1.4000E+00
 5.3600E-01 4.0000E-04 2.0000E-01 1.0000E+00
 5.4110E-01 2.0000E-04 1.3000E+00 1.0000E+00
 5.5820E-01 3.0000E-04 8.0000E-01
 5.6330E-01 2.0000E-04 1.2000E+00
 5.9090E-01 5.0000E-04 2.0000E-01
 5.9590E-01 1.0000E-04 2.0000E+00
 6.0920E-01 2.0000E-04 5.0000E-01
 6.1890E-01 3.0000E-04 3.0000E-01
 6.2490E-01 4.0000E-04 1.5000E+00
 6.2830E-01 4.0000E-04 1.2000E+00
 6.3280E-01 4.0000E-04 7.0000E-01
 6.5610E-01 3.0000E-04 3.0000E-01
 6.7800E-01 1.0000E-04 1.0000E+00
 6.8950E-01 4.0000E-04 6.0000E-01
 6.9380E-01 4.0000E-04 1.0000E+00
 6.9750E-01 4.0000E-04 7.0000E-01
 7.0230E-01 4.0000E-04 3.0000E-01
 7.0830E-01 3.0000E-04 5.0000E-01
 7.1320E-01 1.0000E-04 1.4000E+00
 7.2010E-01 1.0000E-04 1.4000E+00
 7.2410E-01 3.0000E-04 3.0000E-01
 7.3210E-01 5.0000E-04 1.8000E+00 1.0000E+00
 7.3710E-01 3.0000E-04 3.7000E+00
 7.4560E-01 3.0000E-04 3.0000E-01
 7.5100E-01 3.0000E-04 2.0000E-01
 7.6370E-01 5.0000E-04 1.1000E+00
 7.7840E-01 5.0000E-04 2.0000E-01
 7.8720E-01 2.0000E-04 7.0000E-01
 8.0260E-01 2.0000E-04 6.0000E-01
 8.1860E-01 3.0000E-04 8.0000E-01
 8.2100E-01 5.0000E-04 2.0000E-01
 8.4600E-01 4.0000E-04 3.0000E-01
 8.5590E-01 4.0000E-04 3.0000E-01
 8.6800E-01 3.0000E-04 1.0000E+00
 8.7320E-01 1.0000E-04 4.3000E+00
 8.8580E-01 4.0000E-04 3.0000E-01
 8.9900E-01 5.0000E-04 3.0000E-01
 9.0480E-01 5.0000E-04 5.0000E-01
 9.1140E-01 1.0000E-04 3.1000E+00
 9.3150E-01 2.0000E-04 6.0000E-01
 9.5000E-01 2.0000E-04 1.2000E+00
 9.5710E-01 5.0000E-04 5.0000E-01
 9.6130E-01 3.0000E-04 4.0000E-01 1.0000E+00
 9.7230E-01 5.0000E-04 4.0000E-01
 9.7580E-01 4.0000E-04 3.0000E-01
 9.9520E-01 3.0000E-04 4.0000E-01
 1.0022E+00 5.0000E-04 2.0000E-01
 1.0135E+00 2.0000E-04 6.0000E-01
 1.0270E+00 2.0000E-04 6.0000E-01
 1.0372E+00 3.0000E-04 3.0000E-01
 1.0432E+00 3.0000E-04 3.0000E-01
 1.0530E+00 5.0000E-04 4.0000E-01
 1.0557E+00 3.0000E-04 5.0000E-01 1.0000E+00
 1.0634E+00 3.0000E-04 4.0000E-01
 1.0744E+00 3.0000E-04 5.0000E-01
 1.0934E+00 2.0000E-04 1.1000E+00
 1.1106E+00 2.0000E-04 1.0000E+00
 1.1214E+00 2.0000E-04 1.6000E+00
 1.1341E+00 4.0000E-04 4.0000E-01
 1.1386E+00 4.0000E-04 5.0000E-01
 1.1555E+00 2.0000E-04 1.7000E+00
 1.1652E+00 2.0000E-04 9.0000E-01
 1.1838E+00 5.0000E-04 2.0000E-01
 1.2016E+00 2.0000E-04 1.9000E+00
 1.2052E+00 2.0000E-04 1.7000E+00
 1.2115E+00 5.0000E-04 2.0000E-01
 1.2349E+00 1.0000E-04 2.2000E+00
 1.2502E+00 4.0000E-04 5.0000E-01
 1.2532E+00 5.0000E-04 2.0000E-01
 1.2695E+00 4.0000E-04 4.0000E-01
 1.2731E+00 4.0000E-04 3.0000E-01
 1.2891E+00 4.0000E-04 3.0000E-01
 1.2929E+00 4.0000E-04 4.0000E-01
 1.3075E+00 5.0000E-04 2.0000E-01
 1.3346E+00 3.0000E-04 4.0000E-01
 1.3403E+00 4.0000E-04 2.0000E-01
 1.3868E+00 4.0000E-04 3.0000E-01
 1.4141E+00 2.0000E-04 5.0000E-01
 1.4228E+00 2.0000E-04 4.0000E-01
 1.4406E+00 3.0000E-04 2.0000E-01
 1.4639E+00 3.0000E-04 3.0000E-01
 1.4742E+00 3.0000E-04 9.0000E-01
 1.4789E+00 2.0000E-04 1.5000E+00
 1.5007E+00 3.0000E-04 3.0000E-01
 1.5245E+00 4.0000E-04 3.0000E-01
 1.5279E+00 4.0000E-04 5.0000E-01
 1.6018E+00 2.0000E-04 1.0000E+00
 1.6298E+00 3.0000E-04 4.0000E-01
 1.6403E+00 3.0000E-04 4.0000E-01
 1.6710E+00 5.0000E-04 2.0000E-01
 1.6755E+00 3.0000E-04 6.0000E-01
 1.7050E+00 5.0000E-04 2.0000E-01
 1.7113E+00 5.0000E-04 5.0000E-01
 1.7133E+00 4.0000E-04 5.0000E-01
 1.7411E+00 2.0000E-04 1.4000E+00
ENDDATA            129
ENDSUBENT          149
ENDENTRY             2
