ENTRY            11029     820106
SUBENT        11029001     820106
BIB                  6          7
INSTITUTE  (1USAGA)
REFERENCE  (J,NSE,31,254,68)
AUTHOR     (J.R.BEYSTER)
TITLE      NEUTRON SCATTERING FROM LIGHT WATER.
STATUS     (SCSRS)
HISTORY    (760628T) TRANSLATED FROM SCISRS
           (820106A) CONVERTED TO REACTION FORMALISM
ENDBIB               7
NOCOMMON             0          0
ENDSUBENT           10
SUBENT        11029002     840123
BIB                  2          2
REACTION   (1-H-WTR(N,SCT),,DA)
HISTORY    (840123A) REACTION CORRECTED
ENDBIB               2
NOCOMMON             0          0
DATA                 3       1044
EN         COS-CM     DATA
MEV        NO-DIM     MB/SR
 6.3    -09 0.98481    1.49   +04
 6.3    -09 0.96593    1.37   +04
 6.3    -09 0.93969    1.38   +04
 6.3    -09 0.90631    1.38   +04
 6.3    -09 0.86603    1.46   +04
 6.3    -09 0.81915    1.40   +04
 6.3    -09 0.76604    1.39   +04
 6.3    -09 0.70711    1.32   +04
 6.3    -09 0.64279    1.39   +04
 6.3    -09 0.57358    1.39   +04
 6.3    -09 0.50000    1.30   +04
 6.3    -09 0.42262    1.28   +04
 6.3    -09 0.34202    1.22   +04
 6.3    -09 0.25882    1.23   +04
 6.3    -09 0.17365    1.19   +04
 6.3    -09 0.08716    1.14   +04
 6.3    -09 0.00000    1.15   +04
 6.3    -09-0.1908     1.18   +04
 6.3    -09-0.2588     1.18   +04
 6.3    -09-0.3420     1.26   +04
 6.3    -09-0.4226     1.22   +04
 6.3    -09-0.5000     1.15   +04
 6.3    -09-0.5736     1.17   +04
 6.3    -09-0.6428     1.08   +04
 6.3    -09-0.7071     1.14   +04
 6.3    -09-0.7660     1.04   +04
 6.3    -09-0.8192     1.04   +04
 6.3    -09-0.8660     1.06   +04
 6.3    -09-0.9063     1.16   +04
 9.1    -09 0.98481    1.400  +04
 9.1    -09 0.96593    1.33   +04
 9.1    -09 0.93969    1.33   +04
 9.1    -09 0.90631    1.34   +04
 9.1    -09 0.86603    1.38   +04
 9.1    -09 0.81915    1.36   +04
 9.1    -09 0.76604    1.34   +04
 9.1    -09 0.70711    1.290  +04
 9.1    -09 0.64279    1.29   +04
 9.1    -09 0.57358    1.26   +04
 9.1    -09 0.50000    1.26   +04
 9.1    -09 0.42262    1.25   +04
 9.1    -09 0.34202    1.19   +04
 9.1    -09 0.25882    1.180  +04
 9.1    -09 0.17365    1.14   +04
 9.1    -09 0.08716    1.09   +04
 9.1    -09 0.00000    1.070  +04
 9.1    -09-0.1908     1.14   +04
 9.1    -09-0.2588     1.10   +04
 9.1    -09-0.3420     1.10   +04
 9.1    -09-0.4226     1.13   +04
 9.1    -09-0.5000     1.050  +04
 9.1    -09-0.5736     1.05   +04
 9.1    -09-0.6428     9.7    +03
 9.1    -09-0.7071     1.00   +04
 9.1    -09-0.7660     9.4    +03
 9.1    -09-0.8192     9.9    +03
 9.1    -09-0.8660     9.7    +03
 9.1    -09-0.9063     1.03   +04
 1.23   -08 0.98481    1.31   +04
 1.23   -08 0.96593    1.29   +04
 1.23   -08 0.93969    1.28   +04
 1.23   -08 0.90631    1.29   +04
 1.23   -08 0.86603    1.33   +04
 1.23   -08 0.81915    1.30   +04
 1.23   -08 0.76604    1.29   +04
 1.23   -08 0.70711    1.25   +04
 1.23   -08 0.64279    1.23   +04
 1.23   -08 0.57358    1.20   +04
 1.23   -08 0.50000    1.20   +04
 1.23   -08 0.42262    1.19   +04
 1.23   -08 0.34202    1.14   +04
 1.23   -08 0.25882    1.11   +04
 1.23   -08 0.17365    1.07   +04
 1.23   -08 0.08716    1.02   +04
 1.23   -08 0.00000    1.06   +04
 1.23   -08-0.1908     1.06   +04
 1.23   -08-0.2588     1.02   +04
 1.23   -08-0.3420     9.9    +03
 1.23   -08-0.4226     1.01   +04
 1.23   -08-0.5000     9.5    +03
 1.23   -08-0.5736     9.4    +03
 1.23   -08-0.6428     8.8    +03
 1.23   -08-0.7071     8.9    +03
 1.23   -08-0.7660     8.4    +03
 1.23   -08-0.8192     8.9    +03
 1.23   -08-0.8660     8.5    +03
 1.23   -08-0.9063     9.2    +03
 1.69   -08 0.98481    1.24   +04
 1.69   -08 0.96593    1.25   +04
 1.69   -08 0.93969    1.23   +04
 1.69   -08 0.90631    1.24   +04
 1.69   -08 0.86603    1.27   +04
 1.69   -08 0.81915    1.25   +04
 1.69   -08 0.76604    1.23   +04
 1.69   -08 0.70711    1.20   +04
 1.69   -08 0.64279    1.18   +04
 1.69   -08 0.57358    1.15   +04
 1.69   -08 0.50000    1.14   +04
 1.69   -08 0.42262    1.12   +04
 1.69   -08 0.34202    1.07   +04
 1.69   -08 0.25882    1.03   +04
 1.69   -08 0.17365    9.8    +03
 1.69   -08 0.08716    9.5    +03
 1.69   -08 0.00000    9.6    +03
 1.69   -08-0.1908     9.7    +03
 1.69   -08-0.2588     9.2    +03
 1.69   -08-0.3420     9.0    +03
 1.69   -08-0.4226     8.9    +03
 1.69   -08-0.5000     8.7    +03
 1.69   -08-0.5736     8.4    +03
 1.69   -08-0.6428     7.9    +03
 1.69   -08-0.7071     8.1    +03
 1.69   -08-0.7660     7.5    +03
 1.69   -08-0.8192     7.7    +03
 1.69   -08-0.8660     7.4    +03
 1.69   -08-0.9063     8.0    +03
 2.05   -08 0.98481    1.23   +04
 2.05   -08 0.96593    1.24   +04
 2.05   -08 0.93969    1.22   +04
 2.05   -08 0.90631    1.22   +04
 2.05   -08 0.86603    1.25   +04
 2.05   -08 0.81915    1.23   +04
 2.05   -08 0.76604    1.20   +04
 2.05   -08 0.70711    1.18   +04
 2.05   -08 0.64279    1.15   +04
 2.05   -08 0.57358    1.13   +04
 2.05   -08 0.50000    1.10   +04
 2.05   -08 0.42262    1.06   +04
 2.05   -08 0.34202    1.01   +04
 2.05   -08 0.25882    9.8    +03
 2.05   -08 0.17365    9.2    +03
 2.05   -08 0.08716    8.9    +03
 2.05   -08 0.00000    8.9    +03
 2.05   -08-0.1908     9.0    +03
 2.05   -08-0.2588     8.5    +03
 2.05   -08-0.3420     8.3    +03
 2.05   -08-0.4226     8.1    +03
 2.05   -08-0.5000     7.9    +03
 2.05   -08-0.5736     7.5    +03
 2.05   -08-0.6428     7.1    +03
 2.05   -08-0.7071     7.3    +03
 2.05   -08-0.7660     6.8    +03
 2.05   -08-0.8192     6.8    +03
 2.05   -08-0.8660     6.5    +03
 2.05   -08-0.9063     7.0    +03
 2.53   -08 0.98481    1.190  +04
 2.53   -08 0.96593    1.20   +04
 2.53   -08 0.93969    1.18   +04
 2.53   -08 0.90631    1.18   +04
 2.53   -08 0.86603    1.20   +04
 2.53   -08 0.81915    1.19   +04
 2.53   -08 0.76604    1.16   +04
 2.53   -08 0.70711    1.130  +04
 2.53   -08 0.64279    1.10   +04
 2.53   -08 0.57358    1.08   +04
 2.53   -08 0.50000    1.03   +04
 2.53   -08 0.42262    9.9    +03
 2.53   -08 0.34202    9.3    +03
 2.53   -08 0.25882    9.10   +03
 2.53   -08 0.17365    8.4    +03
 2.53   -08 0.08716    8.2    +03
 2.53   -08 0.00000    8.10   +03
 2.53   -08-0.1908     8.1    +03
 2.53   -08-0.2588     7.5    +03
 2.53   -08-0.3420     7.3    +03
 2.53   -08-0.4226     7.1    +03
 2.53   -08-0.5000     6.80   +03
 2.53   -08-0.5736     6.6    +03
 2.53   -08-0.6428     6.2    +03
 2.53   -08-0.7071     6.3    +03
 2.53   -08-0.7662     5.8    +03
 2.53   -08-0.8192     5.8    +03
 2.53   -08-0.8660     5.5    +03
 2.53   -08-0.9063     6.0    +03
 3.06   -08 0.98481    1.17   +04
 3.06   -08 0.96593    1.18   +04
 3.06   -08 0.93969    1.15   +04
 3.06   -08 0.90631    1.14   +04
 3.06   -08 0.86603    1.17   +04
 3.06   -08 0.81915    1.14   +04
 3.06   -08 0.76604    1.11   +04
 3.06   -08 0.70711    1.08   +04
 3.06   -08 0.64279    1.05   +04
 3.06   -08 0.57358    1.03   +04
 3.06   -08 0.50000    9.7    +03
 3.06   -08 0.42262    9.3    +03
 3.06   -08 0.34202    8.6    +03
 3.06   -08 0.25882    8.5    +03
 3.06   -08 0.17365    7.8    +03
 3.06   -08 0.08716    7.5    +03
 3.06   -08 0.00000    7.4    +03
 3.06   -08-0.1908     7.1    +03
 3.06   -08-0.2588     6.6    +03
 3.06   -08-0.3420     6.5    +03
 3.06   -08-0.4226     6.3    +03
 3.06   -08-0.5000     5.8    +03
 3.06   -08-0.5736     5.5    +03
 3.06   -08-0.6428     5.4    +03
 3.06   -08-0.7071     5.5    +03
 3.06   -08-0.7662     4.9    +03
 3.06   -08-0.8192     5.1    +03
 3.06   -08-0.8660     4.8    +03
 3.06   -08-0.9063     5.2    +03
 3.64   -08 0.98481    1.17   +04
 3.64   -08 0.96593    1.18   +04
 3.64   -08 0.93969    1.15   +04
 3.64   -08 0.90631    1.13   +04
 3.64   -08 0.86603    1.16   +04
 3.64   -08 0.81915    1.14   +04
 3.64   -08 0.76604    1.10   +04
 3.64   -08 0.70711    1.07   +04
 3.64   -08 0.64279    1.03   +04
 3.64   -08 0.57358    1.00   +04
 3.64   -08 0.50000    9.3    +03
 3.64   -08 0.42262    9.0    +03
 3.64   -08 0.34202    8.2    +03
 3.64   -08 0.25882    8.1    +03
 3.64   -08 0.17365    7.4    +03
 3.64   -08 0.08716    7.1    +03
 3.64   -08 0.00000    6.9    +03
 3.64   -08-0.1908     6.5    +03
 3.64   -08-0.2588     6.0    +03
 3.64   -08-0.3420     5.9    +03
 3.64   -08-0.4226     5.7    +03
 3.64   -08-0.5000     5.3    +03
 3.64   -08-0.5736     5.0    +03
 3.64   -08-0.6428     4.8    +03
 3.64   -08-0.7071     5.0    +03
 3.64   -08-0.7660     4.4    +03
 3.64   -08-0.8192     4.6    +03
 3.64   -08-0.8660     4.25   +03
 3.64   -08-0.9063     4.6    +03
 4.28   -08 0.98481    1.16   +04
 4.28   -08 0.96593    1.18   +04
 4.28   -08 0.93969    1.14   +04
 4.28   -08 0.90631    1.12   +04
 4.28   -08 0.86603    1.15   +04
 4.28   -08 0.81915    1.13   +04
 4.28   -08 0.76604    1.08   +04
 4.28   -08 0.70711    1.04   +04
 4.28   -08 0.64279    1.00   +04
 4.28   -08 0.57358    9.6    +03
 4.28   -08 0.50000    8.9    +03
 4.28   -08 0.42262    8.6    +03
 4.28   -08 0.34202    7.7    +03
 4.28   -08 0.25882    7.6    +03
 4.28   -08 0.17365    7.0    +03
 4.28   -08 0.08716    6.5    +03
 4.28   -08 0.00000    6.4    +03
 4.28   -08-0.1908     5.9    +03
 4.28   -08-0.2588     5.5    +03
 4.28   -08-0.3420     5.3    +03
 4.28   -08-0.4226     5.2    +03
 4.28   -08-0.5000     4.8    +03
 4.28   -08-0.5736     4.6    +03
 4.28   -08-0.6428     4.3    +03
 4.28   -08-0.7071     4.5    +03
 4.28   -08-0.7660     4.0    +03
 4.28   -08-0.8192     4.2    +03
 4.28   -08-0.8660     3.85   +03
 4.28   -08-0.9063     4.2    +03
 4.96   -08 0.98481    1.17   +04
 4.96   -08 0.96593    1.19   +04
 4.96   -08 0.93969    1.15   +04
 4.96   -08 0.90631    1.12   +04
 4.96   -08 0.86603    1.15   +04
 4.96   -08 0.81915    1.13   +04
 4.96   -08 0.76604    1.07   +04
 4.96   -08 0.70711    1.02   +04
 4.96   -08 0.64279    9.8    +03
 4.96   -08 0.57358    9.3    +03
 4.96   -08 0.50000    8.6    +03
 4.96   -08 0.42262    8.2    +03
 4.96   -08 0.34202    7.4    +03
 4.96   -08 0.25882    7.2    +03
 4.96   -08 0.17365    6.7    +03
 4.96   -08 0.08716    6.0    +03
 4.96   -08 0.00000    5.9    +03
 4.96   -08-0.1908     5.5    +03
 4.96   -08-0.2588     5.1    +03
 4.96   -08-0.3420     5.0    +03
 4.96   -08-0.4226     4.8    +03
 4.96   -08-0.5000     4.4    +03
 4.96   -08-0.5736     4.2    +03
 4.96   -08-0.6428     4.0    +03
 4.96   -08-0.7071     4.2    +03
 4.96   -08-0.7660     3.65   +03
 4.96   -08-0.8192     3.86   +03
 4.96   -08-0.8660     3.5    +03
 4.96   -08-0.9063     3.84   +03
 5.69   -08 0.98481    1.190  +04
 5.69   -08 0.96593    1.21   +04
 5.69   -08 0.93969    1.16   +04
 5.69   -08 0.90631    1.14   +04
 5.69   -08 0.86603    1.16   +04
 5.69   -08 0.81915    1.14   +04
 5.69   -08 0.76604    1.07   +04
 5.69   -08 0.70711    1.020  +04
 5.69   -08 0.64279    9.6    +03
 5.69   -08 0.57358    9.2    +03
 5.69   -08 0.50000    8.4    +03
 5.69   -08 0.42262    8.0    +03
 5.69   -08 0.34202    7.1    +03
 5.69   -08 0.25882    6.90   +03
 5.69   -08 0.17365    6.5    +03
 5.69   -08 0.08716    5.7    +03
 5.69   -08 0.00000    5.60   +03
 5.69   -08-0.1908     5.2    +03
 5.69   -08-0.2588     4.8    +03
 5.69   -08-0.3420     4.63   +03
 5.69   -08-0.4226     4.4    +03
 5.69   -08-0.5000     4.10   +03
 5.69   -08-0.5736     3.95   +03
 5.69   -08-0.6428     3.7    +03
 5.69   -08-0.7071     3.9    +03
 5.69   -08-0.7660     3.4    +03
 5.69   -08-0.8192     3.6    +03
 5.69   -08-0.8660     3.30   +03
 5.69   -08-0.9063     3.56   +03
 6.52   -08 0.98481    1.20   +04
 6.52   -08 0.96593    1.21   +04
 6.52   -08 0.93969    1.17   +04
 6.52   -08 0.90631    1.14   +04
 6.52   -08 0.86603    1.16   +04
 6.52   -08 0.81915    1.13   +04
 6.52   -08 0.76604    1.06   +04
 6.52   -08 0.70711    1.00   +04
 6.52   -08 0.64279    9.4    +03
 6.52   -08 0.57358    8.9    +03
 6.52   -08 0.50000    8.1    +03
 6.52   -08 0.42262    7.6    +03
 6.52   -08 0.34202    6.8    +03
 6.52   -08 0.25882    6.5    +03
 6.52   -08 0.17365    6.2    +03
 6.52   -08 0.08176    5.3    +03
 6.52   -08 0.00000    5.3    +03
 6.52   -08-0.1908     4.9    +03
 6.52   -08-0.2588     4.5    +03
 6.52   -08-0.3420     4.4    +03
 6.52   -08-0.4226     4.1    +03
 6.52   -08-0.5000     3.9    +03
 6.52   -08-0.5736     3.66   +03
 6.52   -08-0.6428     3.4    +03
 6.52   -08-0.7071     3.6    +03
 6.52   -08-0.7660     3.16   +03
 6.52   -08-0.8192     3.34   +03
 6.52   -08-0.8660     3.0    +03
 6.52   -08-0.9063     3.3    +03
 7.48   -08 0.98481    1.21   +04
 7.48   -08 0.96593    1.22   +04
 7.48   -08 0.93969    1.18   +04
 7.48   -08 0.90631    1.16   +04
 7.48   -08 0.86603    1.17   +04
 7.48   -08 0.81915    1.13   +04
 7.48   -08 0.76604    1.06   +04
 7.48   -08 0.70711    9.9    +03
 7.48   -08 0.64279    9.2    +03
 7.48   -08 0.57358    8.7    +03
 7.48   -08 0.50000    7.9    +03
 7.48   -08 0.42262    7.3    +03
 7.48   -08 0.34202    6.5    +03
 7.48   -08 0.25882    6.2    +03
 7.48   -08 0.17365    5.9    +03
 7.48   -08 0.08716    5.1    +03
 7.48   -08 0.00000    5.0    +03
 7.48   -08-0.1908     4.6    +03
 7.48   -08-0.2588     4.2    +03
 7.48   -08-0.3420     4.1    +03
 7.48   -08-0.4226     3.9    +03
 7.48   -08-0.5000     3.65   +03
 7.48   -08-0.5736     3.4    +03
 7.48   -08-0.6428     3.1    +03
 7.48   -08-0.7071     3.3    +03
 7.48   -08-0.7660     2.9    +03
 7.48   -08-0.8192     3.1    +03
 7.48   -08-0.8660     2.8    +03
 7.48   -08-0.9063     3.0    +03
 8.61   -08 0.98481    1.23   +04
 8.61   -08 0.96593    1.23   +04
 8.61   -08 0.93969    1.19   +04
 8.61   -08 0.90631    1.16   +04
 8.61   -08 0.86603    1.17   +04
 8.61   -08 0.81915    1.14   +04
 8.61   -08 0.76604    1.06   +04
 8.61   -08 0.70711    9.8    +03
 8.61   -08 0.64279    9.1    +03
 8.61   -08 0.57358    8.6    +03
 8.61   -08 0.50000    7.7    +03
 8.61   -08 0.42262    7.2    +03
 8.61   -08 0.34202    6.2    +03
 8.61   -08 0.25882    6.0    +03
 8.61   -08 0.17365    5.7    +03
 8.61   -08 0.08716    4.9    +03
 8.61   -08 0.00000    4.9    +03
 8.61   -08-0.1908     4.4    +03
 8.61   -08-0.2588     4.0    +03
 8.61   -08-0.3420     3.8    +03
 8.61   -08-0.4226     3.6    +03
 8.61   -08-0.5000     3.4    +03
 8.61   -08-0.5736     3.15   +03
 8.61   -08-0.6428     2.85   +03
 8.61   -08-0.7071     3.1    +03
 8.61   -08-0.7660     2.7    +03
 8.61   -08-0.8192     2.84   +03
 8.61   -08-0.8660     2.6    +03
 8.61   -08-0.9063     2.76   +03
 9.9    -08 0.98481    1.22   +04
 9.9    -08 0.96593    1.23   +04
 9.9    -08 0.93969    1.19   +04
 9.9    -08 0.90631    1.17   +04
 9.9    -08 0.86603    1.17   +04
 9.9    -08 0.81915    1.12   +04
 9.9    -08 0.76604    1.04   +04
 9.9    -08 0.70711    9.6    +03
 9.9    -08 0.64279    8.8    +03
 9.9    -08 0.57358    8.2    +03
 9.9    -08 0.50000    7.4    +03
 9.9    -08 0.42262    6.9    +03
 9.9    -08 0.34202    5.9    +03
 9.9    -08 0.25882    5.7    +03
 9.9    -08 0.17365    5.4    +03
 9.9    -08 0.08716    4.7    +03
 9.9    -08 0.00000    4.6    +03
 9.9    -08-0.1908     4.1    +03
 9.9    -08-0.2588     3.66   +03
 9.9    -08-0.3420     3.5    +03
 9.9    -08-0.4226     3.36   +03
 9.9    -08-0.5000     3.16   +03
 9.9    -08-0.5736     2.9    +03
 9.9    -08-0.6428     2.6    +03
 9.9    -08-0.7071     2.8    +03
 9.9    -08-0.7660     2.46   +03
 9.9    -08-0.8192     2.6    +03
 9.9    -08-0.8660     2.4    +03
 9.9    -08-0.9063     2.47   +03
 1.14   -07 0.98481    1.240  +04
 1.14   -07 0.96593    1.25   +04
 1.14   -07 0.93969    1.20   +04
 1.14   -07 0.90631    1.19   +04
 1.14   -07 0.86603    1.18   +04
 1.14   -07 0.81915    1.13   +04
 1.14   -07 0.76604    1.04   +04
 1.14   -07 0.70711    9.60   +03
 1.14   -07 0.64279    8.7    +03
 1.14   -07 0.57358    8.1    +03
 1.14   -07 0.50000    7.2    +03
 1.14   -07 0.42262    6.7    +03
 1.14   -07 0.34202    5.8    +03
 1.14   -07 0.25882    5.50   +03
 1.14   -07 0.17365    5.3    +03
 1.14   -07 0.08716    4.6    +03
 1.14   -07 0.00000    4.60   +03
 1.14   -07-0.1908     3.9    +03
 1.14   -07-0.2588     3.5    +03
 1.14   -07-0.3420     3.34   +03
 1.14   -07-0.4226     3.2    +03
 1.14   -07-0.5000     2.96   +03
 1.14   -07-0.5736     2.7    +03
 1.14   -07-0.6428     2.44   +03
 1.14   -07-0.7071     2.6    +03
 1.14   -07-0.7660     2.27   +03
 1.14   -07-0.8192     2.4    +03
 1.14   -07-0.8660     2.25   +03
 1.14   -07-0.9063     2.27   +03
 1.31   -07 0.98481    1.27   +04
 1.31   -07 0.96593    1.26   +04
 1.31   -07 0.93969    1.22   +04
 1.31   -07 0.90631    1.20   +04
 1.31   -07 0.86603    1.20   +04
 1.31   -07 0.81915    1.13   +04
 1.31   -07 0.76604    1.04   +04
 1.31   -07 0.70711    9.5    +03
 1.31   -07 0.64279    8.6    +03
 1.31   -07 0.57358    8.0    +03
 1.31   -07 0.50000    7.1    +03
 1.31   -07 0.42262    6.6    +03
 1.31   -07 0.34202    5.6    +03
 1.31   -07 0.25882    5.3    +03
 1.31   -07 0.17365    5.1    +03
 1.31   -07 0.08716    4.4    +03
 1.31   -07 0.00000    4.4    +03
 1.31   -07-0.1908     3.7    +03
 1.31   -07-0.2588     3.26   +03
 1.31   -07-0.3420     3.1    +03
 1.31   -07-0.4226     3.0    +03
 1.31   -07-0.5000     2.8    +03
 1.31   -07-0.5736     2.5    +03
 1.31   -07-0.6428     2.3    +03
 1.31   -07-0.7071     2.4    +03
 1.31   -07-0.7660     2.07   +03
 1.31   -07-0.8192     2.2    +03
 1.31   -07-0.8660     2.1    +03
 1.31   -07-0.9063     2.07   +03
 1.53   -07 0.98481    1.27   +04
 1.53   -07 0.96593    1.26   +04
 1.53   -07 0.93969    1.22   +04
 1.53   -07 0.90631    1.19   +04
 1.53   -07 0.86603    1.18   +04
 1.53   -07 0.81915    1.11   +04
 1.53   -07 0.76604    1.02   +04
 1.53   -07 0.70711    9.2    +03
 1.53   -07 0.64279    8.3    +03
 1.53   -07 0.57358    7.7    +03
 1.53   -07 0.50000    6.8    +03
 1.53   -07 0.42262    6.6    +03
 1.53   -07 0.34202    5.3    +03
 1.53   -07 0.25882    5.0    +03
 1.53   -07 0.17365    4.8    +03
 1.53   -07 0.08716    4.05   +03
 1.53   -07 0.00000    4.1    +03
 1.53   -07-0.1908     3.5    +03
 1.53   -07-0.2588     3.0    +03
 1.53   -07-0.3420     2.9    +03
 1.53   -07-0.4226     2.77   +03
 1.53   -07-0.5000     2.5    +03
 1.53   -07-0.5736     2.3    +03
 1.53   -07-0.6428     2.1    +03
 1.53   -07-0.7071     2.16   +03
 1.53   -07-0.7660     1.87   +03
 1.53   -07-0.8192     2.0    +03
 1.53   -07-0.8660     1.9    +03
 1.53   -07-0.9063     1.86   +03
 1.79   -07 0.98481    1.29   +04
 1.79   -07 0.96593    1.28   +04
 1.79   -07 0.93969    1.24   +04
 1.79   -07 0.90631    1.20   +04
 1.79   -07 0.86603    1.19   +04
 1.79   -07 0.81915    1.11   +04
 1.79   -07 0.76604    1.01   +04
 1.79   -07 0.70711    9.0    +03
 1.79   -07 0.64279    8.2    +03
 1.79   -07 0.57358    7.5    +03
 1.79   -07 0.50000    6.6    +03
 1.79   -07 0.42262    6.3    +03
 1.79   -07 0.34202    5.2    +03
 1.79   -07 0.25882    4.9    +03
 1.79   -07 0.17365    4.6    +03
 1.79   -07 0.08716    3.8    +03
 1.79   -07 0.00000    3.8    +03
 1.79   -07-0.1908     3.3    +03
 1.79   -07-0.2588     2.8    +03
 1.79   -07-0.3420     2.67   +03
 1.79   -07-0.4226     2.56   +03
 1.79   -07-0.5000     2.33   +03
 1.79   -07-0.5736     2.1    +03
 1.79   -07-0.6428     1.93   +03
 1.79   -07-0.7071     1.96   +03
 1.79   -07-0.7660     1.72   +03
 1.79   -07-0.8192     1.8    +03
 1.79   -07-0.8660     1.75   +03
 1.79   -07-0.9063     1.70   +03
 2.13   -07 0.98481    1.30   +04
 2.13   -07 0.96593    1.29   +04
 2.13   -07 0.93969    1.25   +04
 2.13   -07 0.90631    1.20   +04
 2.13   -07 0.86603    1.19   +04
 2.13   -07 0.81915    1.09   +04
 2.13   -07 0.76604    9.9    +03
 2.13   -07 0.70711    8.8    +03
 2.13   -07 0.64279    8.0    +03
 2.13   -07 0.57358    7.3    +03
 2.13   -07 0.50000    6.4    +03
 2.13   -07 0.42262    6.1    +03
 2.13   -07 0.34202    5.0    +03
 2.13   -07 0.25882    4.8    +03
 2.13   -07 0.17365    4.3    +03
 2.13   -07 0.08716    3.5    +03
 2.13   -07 0.00000    3.5    +03
 2.13   -07-0.1908     3.04   +03
 2.13   -07-0.2588     2.55   +03
 2.13   -07-0.3420     2.46   +03
 2.13   -07-0.4226     2.3    +03
 2.13   -07-0.5000     2.1    +03
 2.13   -07-0.5736     1.9    +03
 2.13   -07-0.6428     1.76   +03
 2.13   -07-0.7071     1.77   +03
 2.13   -07-0.7660     1.55   +03
 2.13   -07-0.8192     1.6    +03
 2.13   -07-0.8660     1.57   +03
 2.13   -07-0.9063     1.50   +03
 2.55   -07 0.98481    1.30   +04
 2.55   -07 0.96593    1.29   +04
 2.55   -07 0.93969    1.26   +04
 2.55   -07 0.90631    1.19   +04
 2.55   -07 0.86603    1.18   +04
 2.55   -07 0.81915    1.07   +04
 2.55   -07 0.76604    9.6    +03
 2.55   -07 0.70711    8.6    +03
 2.55   -07 0.64279    7.8    +03
 2.55   -07 0.57358    7.0    +03
 2.55   -07 0.50000    6.2    +03
 2.55   -07 0.42262    5.8    +03
 2.55   -07 0.34202    4.7    +03
 2.55   -07 0.25882    4.7    +03
 2.55   -07 0.17365    4.0    +03
 2.55   -07 0.08716    3.2    +03
 2.55   -07 0.00000    3.2    +03
 2.55   -07-0.1908     2.8    +03
 2.55   -07-0.2588     2.3    +03
 2.55   -07-0.3422     2.26   +03
 2.55   -07-0.4226     2.1    +03
 2.55   -07-0.5000     1.86   +03
 2.55   -07-0.5736     1.7    +03
 2.55   -07-0.6428     1.57   +03
 2.55   -07-0.7071     1.56   +03
 2.55   -07-0.7660     1.40   +03
 2.55   -07-0.8192     1.44   +03
 2.55   -07-0.8660     1.38   +03
 2.55   -07-0.9063     1.34   +03
 3.08   -07 0.98481    1.29   +04
 3.08   -07 0.96593    1.28   +04
 3.08   -07 0.93969    1.24   +04
 3.08   -07 0.90631    1.16   +04
 3.08   -07 0.86603    1.15   +04
 3.08   -07 0.81915    1.05   +04
 3.08   -07 0.76604    9.3    +03
 3.08   -07 0.70711    8.4    +03
 3.08   -07 0.64279    7.6    +03
 3.08   -07 0.57358    6.7    +03
 3.08   -07 0.50000    5.9    +03
 3.08   -07 0.42262    5.3    +03
 3.08   -07 0.34202    4.5    +03
 3.08   -07 0.25882    4.60   +03
 3.08   -07 0.17365    3.7    +03
 3.08   -07 0.08716    2.96   +03
 3.08   -07 0.00000    2.86   +03
 3.08   -07-0.1908     2.55   +03
 3.08   -07-0.2588     2.1    +03
 3.08   -07-0.3420     2.05   +03
 3.08   -07-0.4226     1.86   +03
 3.08   -07-0.5000     1.66   +03
 3.08   -07-0.5736     1.55   +03
 3.08   -07-0.6428     1.40   +03
 3.08   -07-0.7071     1.40   +03
 3.08   -07-0.7660     1.24   +03
 3.08   -07-0.8192     1.27   +03
 3.08   -07-0.8660     1.23   +03
 3.08   -07-0.9063     1.2    +03
 3.76   -07 0.98481    1.29   +04
 3.76   -07 0.96593    1.27   +04
 3.76   -07 0.93969    1.23   +04
 3.76   -07 0.90631    1.14   +04
 3.76   -07 0.86603    1.13   +04
 3.76   -07 0.81915    1.04   +04
 3.76   -07 0.76604    9.3    +03
 3.76   -07 0.70711    8.3    +03
 3.76   -07 0.64279    7.5    +03
 3.76   -07 0.57358    6.6    +03
 3.76   -07 0.50000    5.8    +03
 3.76   -07 0.42262    5.1    +03
 3.76   -07 0.34202    4.3    +03
 3.76   -07 0.25882    4.3    +03
 3.76   -07 0.17365    3.5    +03
 3.76   -07 0.08716    2.8    +03
 3.76   -07 0.00000    2.6    +03
 3.76   -07-0.1908     2.35   +03
 3.76   -07-0.2588     1.93   +03
 3.76   -07-0.3420     1.87   +03
 3.76   -07-0.4226     1.68   +03
 3.76   -07-0.5000     1.47   +03
 3.76   -07-0.5736     1.42   +03
 3.76   -07-0.6428     1.25   +03
 3.76   -07-0.7071     1.28   +03
 3.76   -07-0.7660     1.12   +03
 3.76   -07-0.8192     1.15   +03
 3.76   -07-0.8660     1.1    +03
 3.76   -07-0.9063     1.08   +03
 4.62   -07 0.98481    1.31   +04
 4.62   -07 0.96593    1.29   +04
 4.62   -07 0.93969    1.24   +04
 4.62   -07 0.90631    1.14   +04
 4.62   -07 0.86603    1.11   +04
 4.62   -07 0.81915    1.04   +04
 4.62   -07 0.76604    9.3    +03
 4.62   -07 0.70711    8.4    +03
 4.62   -07 0.64279    7.5    +03
 4.62   -07 0.57358    6.5    +03
 4.62   -07 0.50000    5.7    +03
 4.62   -07 0.42262    4.9    +03
 4.62   -07 0.34202    4.2    +03
 4.62   -07 0.25882    4.1    +03
 4.62   -07 0.17365    3.4    +03
 4.62   -07 0.08716    2.63   +03
 4.62   -07 0.00000    2.4    +03
 4.62   -07-0.1908     2.16   +03
 4.62   -07-0.2588     1.8    +03
 4.62   -07-0.3420     1.73   +03
 4.62   -07-0.4226     1.56   +03
 4.62   -07-0.5000     1.34   +03
 4.62   -07-0.5736     1.28   +03
 4.62   -07-0.6428     1.14   +03
 4.62   -07-0.7071     1.14   +03
 4.62   -07-0.7660     1.02   +03
 4.62   -07-0.8192     1.04   +03
 4.62   -07-0.8660     9.7    +02
 4.62   -07-0.9063     9.9    +02
 5.70   -07 0.98481    1.35   +04
 5.70   -07 0.96593    1.30   +04
 5.70   -07 0.93969    1.24   +04
 5.70   -07 0.90631    1.15   +04
 5.70   -07 0.86603    1.11   +04
 5.70   -07 0.81915    1.05   +04
 5.70   -07 0.76604    9.5    +03
 5.70   -07 0.70711    8.4    +03
 5.70   -07 0.64279    7.5    +03
 5.70   -07 0.57358    6.4    +03
 5.70   -07 0.50000    5.6    +03
 5.70   -07 0.42262    4.8    +03
 5.70   -07 0.34202    4.0    +03
 5.70   -07 0.25882    4.0    +03
 5.70   -07 0.17365    3.2    +03
 5.70   -07 0.08716    2.5    +03
 5.70   -07 0.00000    2.23   +03
 5.70   -07-0.1908     1.94   +03
 5.70   -07-0.2588     1.65   +03
 5.70   -07-0.3420     1.56   +03
 5.70   -07-0.4226     1.4    +03
 5.70   -07-0.5000     1.2    +03
 5.70   -07-0.5736     1.14   +03
 5.70   -07-0.6428     1.02   +03
 5.70   -07-0.7071     1.03   +03
 5.70   -07-0.7660     9.3    +02
 5.70   -07-0.8192     9.4    +02
 5.70   -07-0.8660     8.7    +02
 5.70   -07-0.9063     9.0    +02
 7.07   -07 0.98481    1.38   +04
 7.07   -07 0.96593    1.31   +04
 7.07   -07 0.93969    1.24   +04
 7.07   -07 0.90631    1.16   +04
 7.07   -07 0.86603    1.14   +04
 7.07   -07 0.81915    1.06   +04
 7.07   -07 0.76604    9.6    +03
 7.07   -07 0.70711    8.5    +03
 7.07   -07 0.64279    7.5    +03
 7.07   -07 0.57358    6.4    +03
 7.07   -07 0.50000    5.6    +03
 7.07   -07 0.42262    4.7    +03
 7.07   -07 0.34202    3.9    +03
 7.07   -07 0.25882    3.9    +03
 7.07   -07 0.17365    3.1    +03
 7.07   -07 0.08716    2.4    +03
 7.07   -07 0.00000    2.1    +03
 7.07   -07-0.1908     1.75   +03
 7.07   -07-0.2588     1.53   +03
 7.07   -07-0.3420     1.4    +03
 7.07   -07-0.4226     1.3    +03
 7.07   -07-0.5000     1.1    +03
 7.07   -07-0.5736     1.05   +03
 7.07   -07-0.6428     9.3    +02
 7.07   -07-0.7071     9.3    +02
 7.07   -07-0.7660     8.4    +02
 7.07   -07-0.8192     8.3    +02
 7.07   -07-0.8660     7.9    +02
 7.07   -07-0.9063     8.2    +02
 8.50   -07 0.98481    1.41   +04
 8.50   -07 0.96593    1.31   +04
 8.50   -07 0.93969    1.22   +04
 8.50   -07 0.90631    1.16   +04
 8.50   -07 0.86603    1.15   +04
 8.50   -07 0.81915    1.05   +04
 8.50   -07 0.76604    9.7    +03
 8.50   -07 0.70711    8.4    +03
 8.50   -07 0.64279    7.4    +03
 8.50   -07 0.57358    6.4    +03
 8.50   -07 0.50000    5.5    +03
 8.50   -07 0.42262    4.5    +03
 8.50   -07 0.34202    3.8    +03
 8.50   -07 0.25882    3.70   +03
 8.50   -07 0.17365    2.96   +03
 8.50   -07 0.08716    2.3    +03
 8.50   -07 0.00000    1.92   +03
 8.50   -07-0.1908     1.6    +03
 8.50   -07-0.2588     1.4    +03
 8.50   -07-0.3420     1.28   +03
 8.50   -07-0.4226     1.16   +03
 8.50   -07-0.5000     1.00   +03
 8.50   -07-0.5736     9.3    +02
 8.50   -07-0.6428     8.3    +02
 8.50   -07-0.7071     8.5    +02
 8.50   -07-0.7660     7.6    +02
 8.50   -07-0.8192     7.6    +02
 8.50   -07-0.8660     7.1    +02
 8.50   -07-0.9063     7.5    +02
 1.000  -06 0.98481    1.44   +04
 1.000  -06 0.96593    1.31   +04
 1.000  -06 0.93969    1.29   +04
 1.000  -06 0.90631    1.18   +04
 1.000  -06 0.86603    1.17   +04
 1.000  -06 0.81915    1.06   +04
 1.000  -06 0.76604    9.7    +03
 1.000  -06 0.70711    8.5    +03
 1.000  -06 0.64279    7.4    +03
 1.000  -06 0.57358    6.4    +03
 1.000  -06 0.50000    5.5    +03
 1.000  -06 0.42262    4.5    +03
 1.000  -06 0.34202    3.7    +03
 1.000  -06 0.25882    3.6    +03
 1.000  -06 0.17365    2.6    +03
 1.000  -06 0.08716    2.2    +03
 1.000  -06 0.00000    1.82   +03
 1.000  -06-0.1908     1.56   +03
 1.000  -06-0.2588     1.33   +03
 1.000  -06-0.3420     1.2    +03
 1.000  -06-0.4226     1.1    +03
 1.000  -06-0.5000     9.6    +02
 1.000  -06-0.5736     8.7    +02
 1.000  -06-0.6428     7.7    +02
 1.000  -06-0.7071     8.1    +02
 1.000  -06-0.7660     7.1    +02
 1.000  -06-0.8192     7.1    +02
 1.000  -06-0.8660     6.7    +02
 1.000  -06-0.9063     7.1    +02
 1.15   -06 0.98481    1.47   +04
 1.15   -06 0.96593    1.30   +04
 1.15   -06 0.93969    1.19   +04
 1.15   -06 0.90631    1.18   +04
 1.15   -06 0.86603    1.18   +04
 1.15   -06 0.81915    1.05   +04
 1.15   -06 0.76604    9.8    +03
 1.15   -06 0.70711    8.6    +03
 1.15   -06 0.64279    7.4    +03
 1.15   -06 0.57358    6.5    +03
 1.15   -06 0.50000    5.5    +03
 1.15   -06 0.42262    4.4    +03
 1.15   -06 0.34202    3.6    +03
 1.15   -06 0.25882    3.3    +03
 1.15   -06 0.17365    2.83   +03
 1.15   -06 0.08716    2.1    +03
 1.15   -06 0.00000    1.7    +03
 1.15   -06-0.1908     1.48   +03
 1.15   -06-0.2588     1.25   +03
 1.15   -06-0.3420     1.1    +03
 1.15   -06-0.4226     1.03   +03
 1.15   -06-0.5000     8.9    +02
 1.15   -06-0.5736     8.1    +02
 1.15   -06-0.6428     7.3    +02
 1.15   -06-0.7071     7.6    +02
 1.15   -06-0.7660     6.1    +02
 1.15   -06-0.8192     6.8    +02
 1.15   -06-0.8660     6.3    +02
 1.15   -06-0.9063     6.8    +02
 1.30   -06 0.98481    1.50   +04
 1.30   -06 0.96593    1.31   +04
 1.30   -06 0.93969    1.19   +04
 1.30   -06 0.90631    1.18   +04
 1.30   -06 0.86603    1.19   +04
 1.30   -06 0.81915    1.06   +04
 1.30   -06 0.76604    9.9    +03
 1.30   -06 0.70711    8.7    +03
 1.30   -06 0.64279    7.5    +03
 1.30   -06 0.57358    6.5    +03
 1.30   -06 0.50000    5.5    +03
 1.30   -06 0.42262    4.5    +03
 1.30   -06 0.34202    3.6    +03
 1.30   -06 0.25882    3.3    +03
 1.30   -06 0.17365    2.65   +03
 1.30   -06 0.08716    2.1    +03
 1.30   -06 0.00000    1.67   +03
 1.30   -06-0.1908     1.44   +03
 1.30   -06-0.2588     1.2    +03
 1.30   -06-0.3420     1.05   +03
 1.30   -06-0.4226     9.9    +02
 1.30   -06-0.5000     8.7    +02
 1.30   -06-0.5736     7.8    +02
 1.30   -06-0.6428     6.9    +02
 1.30   -06-0.7071     7.4    +02
 1.30   -06-0.7660     6.4    +02
 1.30   -06-0.8192     6.6    +02
 1.30   -06-0.8660     5.9    +02
 1.30   -06-0.9063     6.5    +02
 1.45   -06 0.98481    1.54   +04
 1.45   -06 0.96593    1.32   +04
 1.45   -06 0.93969    1.19   +04
 1.45   -06 0.90631    1.19   +04
 1.45   -06 0.86603    1.19   +04
 1.45   -06 0.81915    1.07   +04
 1.45   -06 0.76604    1.00   +04
 1.45   -06 0.70711    8.8    +03
 1.45   -06 0.64279    7.6    +03
 1.45   -06 0.57358    6.7    +03
 1.45   -06 0.50000    5.6    +03
 1.45   -06 0.42262    4.5    +03
 1.45   -06 0.34202    3.6    +03
 1.45   -06 0.25882    3.3    +03
 1.45   -06 0.17365    2.65   +03
 1.45   -06 0.08716    2.1    +03
 1.45   -06 0.00000    1.63   +03
 1.45   -06-0.1908     1.4    +03
 1.45   -06-0.2588     1.2    +03
 1.45   -06-0.3420     1.00   +03
 1.45   -06-0.4226     9.5    +02
 1.45   -06-0.5000     8.4    +02
 1.45   -06-0.5736     7.6    +02
 1.45   -06-0.6428     6.7    +02
 1.45   -06-0.7071     7.3    +02
 1.45   -06-0.7660     6.0    +02
 1.45   -06-0.8192     6.4    +02
 1.45   -06-0.8660     5.7    +02
 1.45   -06-0.9063     6.3    +02
 1.60   -06 0.98481    1.58   +04
 1.60   -06 0.96593    1.32   +04
 1.60   -06 0.93969    1.19   +04
 1.60   -06 0.90631    1.19   +04
 1.60   -06 0.86603    1.19   +04
 1.60   -06 0.81915    1.08   +04
 1.60   -06 0.76604    1.00   +04
 1.60   -06 0.70711    8.9    +03
 1.60   -06 0.64279    7.7    +03
 1.60   -06 0.57358    6.7    +03
 1.60   -06 0.50000    5.6    +03
 1.60   -06 0.42262    4.6    +03
 1.60   -06 0.34202    3.6    +03
 1.60   -06 0.25882    3.30   +03
 1.60   -06 0.17365    2.65   +03
 1.60   -06 0.08716    2.05   +03
 1.60   -06 0.00000    1.57   +03
 1.60   -06-0.1908     1.37   +03
 1.60   -06-0.2588     1.15   +03
 1.60   -06-0.3420     9.8    +02
 1.60   -06-0.4226     9.2    +02
 1.60   -06-0.5000     8.2    +02
 1.60   -06-0.5736     7.3    +02
 1.60   -06-0.6428     6.5    +02
 1.60   -06-0.7071     7.1    +02
 1.60   -06-0.7660     5.8    +02
 1.60   -06-0.8192     6.2    +02
 1.60   -06-0.8660     5.6    +02
 1.60   -06-0.9063     6.2    +02
 1.75   -06 0.98481    1.61   +04
 1.75   -06 0.96593    1.32   +04
 1.75   -06 0.93969    1.18   +04
 1.75   -06 0.90631    1.18   +04
 1.75   -06 0.86603    1.18   +04
 1.75   -06 0.81915    1.08   +04
 1.75   -06 0.76604    1.00   +04
 1.75   -06 0.70711    8.9    +03
 1.75   -06 0.64279    7.7    +03
 1.75   -06 0.57358    6.8    +03
 1.75   -06 0.50000    5.6    +03
 1.75   -06 0.42262    4.6    +03
 1.75   -06 0.34202    3.6    +03
 1.75   -06 0.25882    3.3    +03
 1.75   -06 0.17365    2.6    +03
 1.75   -06 0.08716    2.0    +03
 1.75   -06 0.00000    1.53   +03
 1.75   -06-0.1908     1.34   +03
 1.75   -06-0.2588     1.12   +03
 1.75   -06-0.3420     9.5    +02
 1.75   -06-0.4226     8.9    +02
 1.75   -06-0.5000     8.0    +02
 1.75   -06-0.5736     7.2    +02
 1.75   -06-0.6428     6.4    +02
 1.75   -06-0.7071     6.9    +02
 1.75   -06-0.7660     5.4    +02
 1.75   -06-0.8192     6.0    +02
 1.75   -06-0.8660     5.5    +02
 1.75   -06-0.9063     6.1    +02
 1.90   -06 0.98481    1.63   +04
 1.90   -06 0.96593    1.32   +04
 1.90   -06 0.93969    1.17   +04
 1.90   -06 0.90631    1.17   +04
 1.90   -06 0.86603    1.17   +04
 1.90   -06 0.81915    1.07   +04
 1.90   -06 0.76604    1.00   +04
 1.90   -06 0.70711    9.0    +03
 1.90   -06 0.64279    7.7    +03
 1.90   -06 0.57358    6.8    +03
 1.90   -06 0.50000    5.7    +03
 1.90   -06 0.42262    4.6    +03
 1.90   -06 0.34202    3.6    +03
 1.90   -06 0.25882    3.2    +03
 1.90   -06 0.17365    2.57   +03
 1.90   -06 0.08716    1.97   +03
 1.90   -06 0.00000    1.5    +03
 1.90   -06-0.1908     1.3    +03
 1.90   -06-0.2588     1.08   +03
 1.90   -06-0.3420     9.2    +02
 1.90   -06-0.4226     8.6    +02
 1.90   -06-0.5000     7.7    +02
 1.90   -06-0.5736     7.1    +02
 1.90   -06-0.6428     6.2    +02
 1.90   -06-0.7071     6.9    +02
 1.90   -06-0.7660     5.4    +02
 1.90   -06-0.8192     5.9    +02
 1.90   -06-0.8660     5.3    +02
 1.90   -06-0.9063     6.0    +02
 2.05   -06 0.98481    1.70   +04
 2.05   -06 0.96593    1.35   +04
 2.05   -06 0.93969    1.19   +04
 2.05   -06 0.90631    1.19   +04
 2.05   -06 0.86603    1.19   +04
 2.05   -06 0.81915    1.10   +04
 2.05   -06 0.76604    1.02   +04
 2.05   -06 0.70711    9.2    +03
 2.05   -06 0.64279    7.9    +03
 2.05   -06 0.57358    7.0    +03
 2.05   -06 0.50000    5.8    +03
 2.05   -06 0.42262    4.7    +03
 2.05   -06 0.34202    3.6    +03
 2.05   -06 0.25882    3.3    +03
 2.05   -06 0.17365    2.6    +03
 2.05   -06 0.08716    2.0    +03
 2.05   -06 0.00000    1.5    +03
 2.05   -06-0.1908     1.3    +03
 2.05   -06-0.2588     1.07   +03
 2.05   -06-0.3420     9.1    +02
 2.05   -06-0.4226     8.5    +02
 2.05   -06-0.5000     7.8    +02
 2.05   -06-0.5736     7.2    +02
 2.05   -06-0.6428     6.2    +02
 2.05   -06-0.7071     6.9    +02
 2.05   -06-0.7660     5.2    +02
 2.05   -06-0.8192     5.9    +02
 2.05   -06-0.8660     5.4    +02
 2.05   -06-0.9063     6.0    +02
 2.20   -06 0.98481    1.68   +04
 2.20   -06 0.96593    1.31   +04
 2.20   -06 0.93969    1.15   +04
 2.20   -06 0.90631    1.15   +04
 2.20   -06 0.86603    1.14   +04
 2.20   -06 0.81915    1.06   +04
 2.20   -06 0.76604    9.9    +03
 2.20   -06 0.70711    8.9    +03
 2.20   -06 0.64279    7.7    +03
 2.20   -06 0.57358    6.8    +03
 2.20   -06 0.50000    5.7    +03
 2.20   -06 0.42262    4.6    +03
 2.20   -06 0.34202    3.5    +03
 2.20   -06 0.25882    3.2    +03
 2.20   -06 0.17365    2.5    +03
 2.20   -06 0.08716    1.9    +03
 2.20   -06 0.00000    1.5    +03
 2.20   -06-0.1908     1.24   +03
 2.20   -06-0.2588     1.04   +03
 2.20   -06-0.3420     8.6    +02
 2.20   -06-0.4226     8.1    +02
 2.20   -06-0.5000     7.5    +02
 2.20   -06-0.5736     6.9    +02
 2.20   -06-0.6428     5.9    +02
 2.20   -06-0.7071     6.6    +02
 2.20   -06-0.7660     4.9    +02
 2.20   -06-0.8192     5.7    +02
 2.20   -06-0.8660     5.1    +02
 2.20   -06-0.9063     5.7    +02
ENDDATA           1046
ENDSUBENT         1053
ENDENTRY             2
