ENTRY            11062   19860326              20050926       0000
SUBENT        11062001   19860326              20050926       0000
BIB                  8         10
INSTITUTE  (1USAUI )
REFERENCE  (J,PR,89,1194,5303)
AUTHOR     (M.E.REMLEY,W.K.JENTSCHKE,P.G.KRUGER)
TITLE      NEUTRON-PROTON SCATTERING USING ORGANIC CRYSTAL
           SCINTILLATION DETECTORS.
INC-SOURCE (D-D)
DETECTOR   (SCIN) ANTHRACENE OR STILBENE SCINTILLATOR CRYSTAL.
STATUS     (SCSRS)
HISTORY    (760628T) TRANSLATED FROM SCISRS
           (820106A) CONVERTED TO REACTION FORMALISM
ENDBIB              10
NOCOMMON             0          0
ENDSUBENT           13
SUBENT        11062002   19860326              20050926       0000
BIB                  4         10
REACTION   (1-H-0(N,EL)1-H-0,,DA)
MONITOR    (1-H-0(N,EL)1-H-0,,SIG)
            NORMALIZED BY HESS, REV.MOD.PHYS.30,368
            (1958) TO 4*PI*C/S(36DEG PROTON ANGLE) = 695MB FOR
            13.7MEV AND 4*PI*C/S(87 DEG PROTON ANGLE)=342MB FOR
            28.4MEV.
COMMENT    ANGLES TABULATED BY HESS ARE RECOIL PROTON ANGLES. THE
            ANGLES IN TABLE ARE CORRECT NEUTRON ANGLES.
HISTORY    (840123A) DATA SORTED
           (860326A) BIB UPDATE.
ENDBIB              10
NOCOMMON             0          0
DATA                 6         19
EN         EN-RSL     ANG-CM     ANG-RSL    DATA-CM    DATA-ERR
MEV        MEV        ADEG       ADEG       MB/SR      MB/SR
 1.37   +01 8.     -01  93.7      1.2        5.90   +01 4.7    +00
 1.37   +01 8.     -01 100.3      1.4        5.29   +01 3.0    +00
 1.37   +01 8.     -01 106.6      1.6        5.90   +01 2.2    +00
 1.37   +01 8.     -01 113.0      1.8        5.51   +01 2.0    +00
 1.37   +01 8.     -01 119.8      2.0        5.57   +01 1.9    +00
 1.37   +01 8.     -01 127.2      2.4        5.07   +01 1.3    +00
 1.37   +01 8.     -01 135.0      2.8        5.40   +01 1.5    +00
 1.37   +01 8.     -01 143.9      3.7        5.51   +01 1.2    +00
 1.37   +01 8.     -01 164.3      2.1        3.36   +01 8.8    +00
 2.84   +01 5.     -01  85.8      0.9        2.46   +01 3.8    +00
 2.84   +01 5.     -01  93.0      1.3        2.72   +01 1.8    +00
 2.84   +01 5.     -01  99.8      1.5        2.92   +01 1.5    +00
 2.84   +01 5.     -01 106.5      1.7        2.84   +01 1.0    +00
 2.84   +01 5.     -01 113.5      2.1        2.84   +01 8.     -01
 2.84   +01 5.     -01 121.2      2.4        2.61   +01 8.     -01
 2.84   +01 5.     -01 129.7      2.6        2.69   +01 8.     -01
 2.84   +01 5.     -01 139.0      3.5        2.84   +01 6.     -01
 2.84   +01 5.     -01 150.7      5.3        2.77   +01 5.     -01
 2.84   +01 5.     -01 168.7      3.8        3.33   +01 9.5    +00
ENDDATA             21
ENDSUBENT           36
ENDENTRY             2
