ENTRY            10012   19990617   19990622
SUBENT        10012001   19990617   19990622
BIB                  8         15
INSTITUTE  (1USAWIS)
REFERENCE  (J,NP/A,124,369,196902)
AUTHOR     (S.M.GRIMES)
TITLE      Fluctuations in the neutron cross sections of Si.
FACILITY   (VDGT) Tandem Van-de-Graaff.
ERR-ANALYS Energy spread uncertain to about 10% due to uncertainty
            in energy loss straggling in entrance foil.
STATUS     (APRVD) Approved by author.
           Data taken from private communication, Barschall, 6/68.
HISTORY    (19690818C)
           (19731231A) Energy resolution added to proper
             subentries.  BIB corrections.
           (19750905A) BIB corrections
           (19800813A) Converted to REACTION formalism
           (19850307A) BIB corrections.
ENDBIB              15
NOCOMMON             0          0
ENDSUBENT           18
SUBENT        10012002   19990617   19990622
BIB                  6          9
REACTION   (14-SI-0(N,EL)14-SI-0,,DA)
INC-SOURCE (D-D) Deuterons on D2 gas target.
SAMPLE     Solid Si cylinder.
DETECTOR   (SCIN) Liquid hydrogenous scintillator viewed by
           photomultiplier tubes with pulse shape discriminator.
CORRECTION Corrected for multiple scattering. corrected for
            attenuation in scattered intensity produced by
            absorption in sample.
HISTORY    (19860424A) REACTION SF4 added.
ENDBIB               9
COMMON               4          3
ANG        ANG-RSL    EN-RSL     DATA-ERR
ADEG       ADEG       MEV        PER-CENT
 15.        1.6       0.03        10.
ENDCOMMON            3
DATA                 2        254
EN         DATA
MEV        MB/SR
6.64       362.
6.67       487.
6.70       701.
6.73       779.
6.76       629.
6.79       553.
6.82       462.
6.85       442.
6.88       514.
6.91       362.
6.94       348.
6.97       700.
6.99       537.
7.02       519.
7.05       572.
7.08       529.
7.11       560.
7.14       385.
7.17       352.
7.20       481.
7.23       534.
7.26       576.
7.29       598.
7.32       716.
7.35       906.
7.38       912.
7.41       751.
7.44       743.
7.47       705.
7.50       639.
7.53       728.
7.56       654.
7.59       704.
7.62       798.
7.65       841.
7.68       735.
7.71       674.
7.74       816.
7.77       824.
7.80       870.
7.83       718.
7.86       763.
7.89       750.
7.92       785.
7.95       768.
7.98       816.
8.01       751.
8.04       688.
8.06       718.
8.09       623.
8.12       605.
8.15       589.
8.18       654.
8.21       647.
8.24       726.
8.27       775.
8.30       760.
8.33       678.
8.36       785.
8.39       821.
8.42       717.
8.45       706.
8.48       762.
8.51       678.
8.54       670.
8.57       678.
8.60       649.
8.63       809.
8.66       593.
8.69       775.
8.72       675.
8.75       564.
8.78       611.
8.81       434.
8.84       474.
8.87       539.
8.90       649.
8.93       680.
8.96       653.
8.99       832.
9.02       763.
9.04       702.
9.07       661.
9.10       542.
9.13       477.
9.16       572.
9.19       490.
9.22       470.
9.25       440.
9.28       400.
9.30       370.
9.33       430.
9.36       480.
9.39       490.
9.42       510.
9.45       550.
9.48       690.
9.51       530.
9.54       490.
9.56       540.
9.59       560.
9.62       470.
9.65       400.
9.68       440.
9.71       410.
9.74       480.
9.77       520.
9.80       530.
9.83       540.
9.86       550.
9.89       470.
9.91       530.
9.94       670.
9.97       620.
10.00      630.
10.03      570.
10.06      620.
10.09      540.
10.12      670.
10.15      570.
10.17      630.
10.20      700.
10.23      600.
10.26      530.
10.28      580.
10.31      480.
10.34      610.
10.37      610.
10.40      570.
10.43      570.
10.46      470.
10.49      440.
10.52      420.
10.55      470.
10.58      470.
10.61      460.
10.64      530.
10.67      470.
10.69      480.
10.72      500.
10.75      560.
10.78      570.
10.81      610.
10.84      620.
10.87      540.
10.90      570.
10.92      600.
10.95      580.
10.98      600.
11.01      540.
11.04      560.
11.07      520.
11.10      490.
11.13      410.
11.16      440.
11.19      470.
11.22      490.
11.25      490.
11.28      520.
11.31      630.
11.33      610.
11.36      580.
11.39      580.
11.42      600.
11.45      580.
11.48      530.
11.51      550.
11.54      600.
11.57      670.
11.60      590.
11.63      610.
11.66      580.
11.68      500.
11.71      490.
11.74      520.
11.77      550.
11.80      490.
11.83      470.
11.86      580.
11.88      540.
11.91      530.
11.94      530.
11.97      550.
12.00      600.
12.03      620.
12.06      600.
12.08      690.
12.11      740.
12.14      600.
12.17      610.
12.20      670.
12.23      600.
12.25      580.
12.28      630.
12.31      600.
12.34      650.
12.37      740.
12.40      690.
12.43      620.
12.46      630.
12.49      540.
12.52      520.
12.55      550.
12.58      630.
12.61      670.
12.63      620.
12.66      580.
12.69      590.
12.72      570.
12.75      510.
12.78      560.
12.81      600.
12.84      590.
12.87      630.
12.89      620.
12.92      580.
12.95      540.
12.98      550.
13.00      570.
13.03      600.
13.06      620.
13.09      620.
13.12      550.
13.15      570.
13.17      540.
13.20      540.
13.23      560.
13.26      580.
13.29      570.
13.32      610.
13.35      670.
13.38      620.
13.41      590.
13.44      540.
13.47      550.
13.50      590.
13.53      550.
13.56      530.
13.59      590.
13.62      660.
13.65      610.
13.68      560.
13.71      530.
13.74      500.
13.77      520.
13.80      570.
13.82      650.
13.85      610.
13.88      560.
13.91      570.
13.94      540.
13.96      580.
13.99      600.
14.02      630.
ENDDATA            256
ENDSUBENT          274
SUBENT        10012003   19990617   19990622
BIB                  6          9
REACTION   (14-SI-0(N,EL)14-SI-0,,DA)
INC-SOURCE (D-D) Deuterons on D2 gas target.
SAMPLE     Solid Si cylinder.
DETECTOR   (SCIN) Liquid hydrogenous scintillator viewed by
           photomultiplier tubes with pulse shape discriminator.
CORRECTION Corrected for multiple scattering. Corrected for
            attenuation in scattered intensity produced by
            absorption in sample.
HISTORY    (19860424A) REACTION SF4 added.
ENDBIB               9
COMMON               4          3
ANG        ANG-RSL    EN-RSL     DATA-ERR
ADEG       ADEG       MEV        PER-CENT
 30.        1.6       0.03        10.
ENDCOMMON            3
DATA                 2        254
EN         DATA
MEV        MB/SR
6.64       233.
6.67       329.
6.70       482.
6.73       556.
6.76       456.
6.79       377.
6.82       318.
6.85       257.
6.88       298.
6.91       219.
6.94       264.
6.97       565.
6.99       402.
7.02       292.
7.05       377.
7.08       390.
7.11       351.
7.14       301.
7.17       282.
7.20       393.
7.23       400.
7.26       423.
7.29       456.
7.32       523.
7.35       659.
7.38       603.
7.41       573.
7.44       570.
7.47       520.
7.50       432.
7.53       483.
7.56       446.
7.59       446.
7.62       504.
7.65       528.
7.68       504.
7.71       479.
7.74       563.
7.77       619.
7.80       552.
7.83       440.
7.86       461.
7.89       486.
7.92       534.
7.95       467.
7.98       457.
8.01       400.
8.04       382.
8.06       365.
8.09       352.
8.12       320.
8.15       329.
8.18       355.
8.21       377.
8.24       416.
8.27       463.
8.30       459.
8.33       418.
8.36       413.
8.39       416.
8.42       466.
8.45       363.
8.48       404.
8.51       363.
8.54       396.
8.57       366.
8.60       352.
8.63       439.
8.66       370.
8.69       366.
8.72       372.
8.75       329.
8.78       370.
8.81       281.
8.84       352.
8.87       381.
8.90       419.
8.93       449.
8.96       420.
8.99       513.
9.02       453.
9.04       430.
9.07       395.
9.10       383.
9.13       279.
9.16       362.
9.19       360.
9.22       330.
9.25       340.
9.28       310.
9.30       250.
9.33       340.
9.36       370.
9.39       390.
9.42       430.
9.45       380.
9.48       470.
9.51       400.
9.54       350.
9.56       400.
9.59       360.
9.62       320.
9.65       280.
9.68       300.
9.71       310.
9.74       380.
9.77       380.
9.80       410.
9.83       360.
9.86       400.
9.89       350.
9.91       340.
9.94       380.
9.97       360.
10.00      400.
10.03      360.
10.06      290.
10.09      360.
10.12      330.
10.15      320.
10.17      380.
10.20      350.
10.23      390.
10.26      360.
10.28      310.
10.31      260.
10.34      320.
10.37      390.
10.40      360.
10.43      340.
10.46      310.
10.49      300.
10.52      270.
10.55      310.
10.58      330.
10.61      280.
10.64      350.
10.67      300.
10.69      320.
10.72      330.
10.75      340.
10.78      370.
10.81      410.
10.84      410.
10.87      380.
10.90      420.
10.92      420.
10.95      410.
10.98      330.
11.01      320.
11.04      350.
11.07      280.
11.10      310.
11.13      270.
11.16      310.
11.19      310.
11.22      320.
11.25      350.
11.28      300.
11.31      380.
11.33      370.
11.36      350.
11.39      340.
11.42      350.
11.45      340.
11.48      390.
11.51      390.
11.54      410.
11.57      440.
11.60      410.
11.63      350.
11.66      330.
11.68      320.
11.71      330.
11.74      310.
11.77      300.
11.80      290.
11.83      270.
11.86      330.
11.89      330.
11.91      350.
11.94      310.
11.97      340.
12.00      360.
12.03      400.
12.06      370.
12.08      430.
12.11      440.
12.14      410.
12.17      400.
12.20      370.
12.23      340.
12.25      320.
12.28      340.
12.31      340.
12.34      350.
12.37      380.
12.40      360.
12.43      350.
12.46      370.
12.49      310.
12.52      330.
12.55      360.
12.58      380.
12.61      410.
12.63      350.
12.66      320.
12.69      320.
12.72      290.
12.75      290.
12.78      310.
12.81      330.
12.84      350.
12.87      370.
12.89      360.
12.92      340.
12.95      310.
12.98      310.
13.00      310.
13.03      340.
13.06      370.
13.09      390.
13.12      360.
13.15      330.
13.17      290.
13.20      310.
13.23      320.
13.26      300.
13.29      260.
13.32      290.
13.35      320.
13.38      310.
13.41      320.
13.44      330.
13.47      320.
13.50      320.
13.53      280.
13.56      260.
13.59      310.
13.62      320.
13.65      290.
13.68      280.
13.71      260.
13.74      230.
13.77      250.
13.80      280.
13.82      300.
13.85      300.
13.88      280.
13.91      250.
13.94      210.
13.96      220.
13.99      230.
14.02      250.
ENDDATA            256
ENDSUBENT          274
SUBENT        10012004   19990617   19990622
BIB                  6          7
REACTION   (14-SI-28(N,P)13-AL-28,PAR,SIG)
INC-SOURCE (D-D) Deuterons on D2 gas target.
MONITOR    (1-H-2(D,N)2-HE-3,,SIG) Flux monitor.
MONIT-REF  (,FOWLER+,J,RMP,28,103,1956)
SAMPLE     Si surface barrier detector served as both detector and
           target.
DETECTOR   (SOLST) Si surface barrier detector.
ENDBIB               7
COMMON               3          3
E-LVL      E-LVL      EN-RSL
MEV        MEV        MEV
 0.         0.031      0.03
ENDCOMMON            3
DATA                 2        232
EN         DATA
MEV        MB
6.64       179.4
6.67       161.4
6.70       92.4
6.73       108.0
6.76       114.0
6.79       143.4
6.82       162.6
6.85       175.2
6.88       250.2
6.91       234.6
6.94       169.2
6.97       192.6
7.00       138.0
7.03       147.1
7.05       116.8
7.08       143.1
7.11       160.8
7.14       170.1
7.17       198.6
7.20       183.3
7.23       126.8
7.26       172.0
7.29       167.8
7.32       159.0
7.35       223.0
7.38       160.2
7.41       172.6
7.44       187.0
7.47       198.2
7.50       172.0
7.53       141.2
7.56       161.7
7.59       164.1
7.62       171.5
7.65       144.4
7.68       137.2
7.71       150.4
7.74       148.8
7.77       144.4
7.80       156.4
7.83       144.4
7.86       124.6
7.89       118.4
7.92       130.6
7.95       109.2
7.98       100.2
8.01       82.9
8.04       73.2
8.06       79.2
8.09       69.6
8.12       63.0
8.15       58.4
8.18        69.8
8.21        67.8
8.24       79.0
8.27       68.3
8.30       59.2
8.33       54.0
8.36       63.2
8.39       83.1
8.42       77.4
8.45       79.5
8.48       80.0
8.51       82.0
8.57       81.4
8.60       87.0
8.63       83.7
8.66       95.0
8.69       98.0
8.72       89.1
8.75       78.1
8.78       62.6
8.81       66.9
8.84       67.6
8.87       51.5
8.90       77.7
8.93       64.6
8.96       55.3
8.99       46.0
9.02       61.3
9.04       65.1
9.07       66.5
9.10       63.4
9.13       58.5
9.16       57.3
9.19       68.4
9.22       68.6
9.25       80.1
9.28       69.6
9.31       75.1
9.34       85.1
9.37       89.7
9.40       76.4
9.43       94.6
9.46       89.9
9.49       63.6
9.52       46.9
9.55       51.2
9.58       66.0
9.61       61.1
9.64       73.1
9.67       73.3
9.70       74.6
9.73       62.2
9.76       57.3
9.78       61.9
9.81       65.8
9.84       83.1
9.87       73.7
9.90       81.2
9.93       73.8
9.96       60.6
9.99       59.3
10.02      63.8
10.05      55.3
10.09      46.3
10.10      34.7
10.13      45.0
10.16      43.1
10.19      48.4
10.22      58.3
10.25      82.6
10.28      87.1
10.30      80.2
10.33      98.3
10.36      74.6
10.39      57.6
10.42      35.3
10.45      41.4
10.48      46.6
10.51      43.7
10.54      55.3
10.57      63.1
10.60      51.4
10.63      77.7
10.66      47.4
10.69      39.8
10.72      41.4
10.75      48.7
10.78      60.3
10.80      62.0
10.83      71.7
10.86      50.4
10.89      56.4
10.92      51.4
10.95      46.4
10.98      46.4
11.01      48.4
11.04      37.5
11.06      44.2
11.09      45.8
11.12      36.0
11.15      37.7
11.18      20.2
11.21      24.3
11.24      23.7
11.27      36.6
11.30      34.2
11.33      41.7
11.36      38.7
11.39      37.1
11.42      33.3
11.45      47.1
11.48      48.6
11.51      53.6
11.54      42.1
11.57      39.6
11.60      37.7
11.63      33.2
11.66      31.0
11.69      33.6
11.72      32.3
11.74      30.7
11.77      27.4
11.80      28.0
11.83      32.8
11.86      29.2
11.89      25.4
11.91      24.3
11.94      24.1
11.97      20.9
12.00      22.6
12.03      26.7
12.06      27.0
12.09      29.4
12.11      27.1
12.14      23.3
12.17      21.6
12.20      25.8
12.23      31.2
12.26      25.8
12.29      23.8
12.31      27.3
12.34      27.5
12.37      26.2
12.40      25.5
12.43      22.8
12.46      19.6
12.49      20.0
12.52      26.5
12.55      23.0
12.58      19.6
12.61      13.6
12.64      14.4
12.67      15.9
12.70      18.2
12.72      21.6
12.75      22.1
12.78      21.0
12.81      19.8
12.84      14.6
12.87      16.7
12.89      12.8
12.92      13.2
12.95      14.5
12.98      14.4
13.01      15.2
13.04      16.4
13.07      19.4
13.10      19.0
13.13      18.9
13.15      16.6
13.18      13.9
13.21      13.9
13.24      14.4
13.27      15.5
13.30      18.9
13.32      19.3
13.35      18.9
13.38      17.1
13.41      16.8
13.44      13.4
ENDDATA            234
ENDSUBENT          250
SUBENT        10012005   19990617   19990622
BIB                  7          8
REACTION   (14-SI-28(N,P)13-AL-28,PAR,SIG)
INC-SOURCE (D-D) Deuterons on D2 gas target.
MONITOR    (1-H-2(D,N)2-HE-3,,SIG) Flux monitor.
MONIT-REF  (,FOWLER+,J,RMP,28,103,1956)
SAMPLE     Si surface barrier detector served as both detector and
            target.
DETECTOR   (SOLST) Si surface barrier detector.
HISTORY    (19850307A) Energy levels corrected.
ENDBIB               8
COMMON               3          3
E-LVL      E-LVL      EN-RSL
MEV        MEV        MEV
 0.97       1.02       0.03
ENDCOMMON            3
DATA                 2        233
EN         DATA
MEV        MB
6.64       24.4
6.67       17.8
6.70       25.3
6.73       41.9
6.76       33.8
6.79       35.8
6.82       33.6
6.85       42.0
6.88       59.0
6.91       76.2
6.94       78.6
6.97       63.6
7.00       45.6
7.03       24.1
7.05       27.8
7.08       24.1
7.11       36.9
7.14       40.8
7.17       52.5
7.20       57.6
7.23       54.2
7.26       74.5
7.29       41.6
7.32       65.8
7.35       87.0
7.38       55.2
7.41       66.5
7.44       72.1
7.47       46.3
7.50       43.2
7.53       54.8
7.56       46.1
7.59       60.3
7.62       52.5
7.65       65.6
7.68       87.4
7.71       94.8
7.74       64.2
7.77       62.0
7.80       85.4
7.83       107.2
7.86       95.0
7.89       73.0
7.92       71.0
7.95       68.6
7.98       47.6
8.01       46.1
8.04       66.8
8.06       60.2
8.09       62.0
8.12       57.2
8.15       58.2
8.18       69.6
8.21       59.6
8.24       41.3
8.27       46.7
8.30       38.1
8.33       35.3
8.36       20.3
8.39       24.8
8.42       26.1
8.45       39.3
8.48       48.9
8.51       39.6
8.54       22.1
8.57       20.6
8.60       25.8
8.63       22.7
8.66       17.9
8.69       17.7
8.72       21.3
8.75       23.1
8.78       16.6
8.81       18.4
8.84       20.4
8.87       31.3
8.90       29.7
8.93       26.6
8.96       24.7
8.99       38.4
9.02       41.4
9.04       49.7
9.07       43.9
9.10       37.8
9.13       32.7
9.16       30.8
9.19       28.8
9.22       23.9
9.25       31.5
9.28       34.4
9.31       36.2
9.34       26.5
9.37       32.4
9.40       23.0
9.43       19.0
9.46       32.8
9.49       43.2
9.52       54.8
9.55       52.3
9.58       63.5
9.61       45.5
9.64       39.2
9.67       53.1
9.70       45.6
9.73       29.5
9.76       28.7
9.78       29.2
9.81       24.1
9.84       24.5
9.87       37.3
9.90       45.9
9.93       37.8
9.96       42.7
9.99       29.7
10.02      35.9
10.05      29.8
10.09      29.8
10.10      25.4
10.13      26.9
10.16      18.7
10.19      26.9
10.22      37.7
10.25      47.4
10.28      44.3
10.30      44.9
10.33      28.8
10.36      22.6
10.39      20.8
10.42      27.4
10.45      29.8
10.48      30.7
10.51      33.9
10.54      43.4
10.57      37.2
10.60      29.4
10.63      32.3
10.66      31.2
10.69      32.5
10.72      42.4
10.75      40.9
10.78      40.6
10.80      34.7
10.83      29.0
10.86      33.3
10.89      26.1
10.92      21.3
10.95      31.9
10.98      37.8
11.01      35.9
11.04      29.9
11.06      18.9
11.09      20.7
11.12      17.6
11.15      16.0
11.18      23.0
11.21      28.0
11.24      26.3
11.27      23.6
11.30      21.1
11.33      20.3
11.36      21.1
11.39      20.3
11.42      22.1
11.45      22.4
11.48      20.7
11.51      19.4
11.54      19.7
11.57      15.1
11.60      18.9
11.63      20.5
11.66      22.4
11.69      28.8
11.72      22.9
11.74      17.7
11.77      24.2
11.80      28.2
11.83      24.4
11.86      18.0
11.89      15.8
11.91      12.0
11.94      11.4
11.97      10.5
12.00      12.2
12.03      9.8
12.06      11.8
12.09      13.9
12.11      15.5
12.14      15.2
12.17      11.7
12.20      14.2
12.23      17.3
12.26      20.6
12.29      22.9
12.31      19.2
12.34      18.0
12.37      18.8
12.40      21.3
12.43      16.0
12.46      17.2
12.49      21.7
12.52      18.0
12.55      18.3
12.58      22.1
12.61      18.8
12.64      17.3
12.67      15.3
12.70      13.2
12.72      14.2
12.75      16.0
12.78      18.0
12.81      14.2
12.84      16.9
12.87      18.3
12.89      12.2
12.92      11.5
12.95      9.5
12.98      11.0
13.01      13.0
13.04      13.3
13.07      12.6
13.10      13.6
13.13      12.1
13.15      10.6
13.18      9.9
13.21      8.5
13.24      8.8
13.27      11.3
13.30      10.8
13.32      12.4
13.35      10.0
13.38      13.4
13.41      13.2
13.44      11.5
ENDDATA            235
ENDSUBENT          252
SUBENT        10012006   19990617   19990622
BIB                  4          6
REACTION   (14-SI-0(N,TOT),,SIG)
INC-SOURCE (D-D) Above 6.7 MeV deuterons on deuterium gas target.
           (P-T) Below 6.7 MeV T(p,n) source.
DETECTOR   (SCIN) Liquid scintillator.
CORRECTION Corrected for room-scattered neutrons and for neutrons
            not produced in target cell.
ENDBIB               6
COMMON               1          3
DATA-ERR
PER-CENT
 3.
ENDCOMMON            3
DATA                 3        311
EN         EN-RSL     DATA
MEV        MEV        B
 4.75   +00 4.     -02 3.01   +00
 4.79   +00 4.     -02 3.30   +00
 4.83   +00 4.     -02 3.06   +00
 4.87   +00 4.     -02 2.67   +00
 4.91   +00 4.     -02 2.55   +00
 4.95   +00 4.     -02 2.58   +00
 4.99   +00 4.     -02 2.21   +00
 5.03   +00 4.     -02 2.52   +00
 5.07   +00 4.     -02 2.05   +00
 5.11   +00 4.     -02 2.31   +00
 5.16   +00 4.     -02 2.47   +00
 5.20   +00 4.     -02 2.79   +00
 5.24   +00 4.     -02 2.30   +00
 5.28   +00 4.     -02 2.11   +00
 5.32   +00 4.     -02 1.97   +00
 5.36   +00 4.     -02 1.81   +00
 5.40   +00 4.     -02 1.70   +00
 5.44   +00 4.     -02 1.80   +00
 5.48   +00 4.     -02 1.49   +00
 5.52   +00 4.     -02 2.12   +00
 5.56   +00 4.     -02 2.04   +00
 5.60   +00 4.     -02 2.03   +00
 5.64   +00 4.     -02 2.10   +00
 5.68   +00 4.     -02 2.15   +00
 5.72   +00 4.     -02 2.70   +00
 5.75   +00 3.     -02 2.58   +00
 5.76   +00 4.     -02 2.45   +00
 5.78   +00 3.     -02 2.37   +00
 5.80   +00 4.     -02 2.32   +00
 5.81   +00 3.     -02 2.42   +00
 5.84   +00 3.     -02 2.40   +00
 5.87   +00 3.     -02 2.61   +00
 5.90   +00 3.     -02 2.20   +00
 5.93   +00 3.     -02 2.00   +00
 5.96   +00 3.     -02 1.91   +00
 5.99   +00 3.     -02 2.03   +00
 6.02   +00 3.     -02 2.17   +00
 6.05   +00 3.     -02 2.44   +00
 6.08   +00 3.     -02 2.38   +00
 6.11   +00 3.     -02 2.12   +00
 6.14   +00 3.     -02 1.66   +00
 6.17   +00 3.     -02 1.77   +00
 6.20   +00 3.     -02 1.98   +00
 6.23   +00 3.     -02 2.25   +00
 6.26   +00 3.     -02 2.67   +00
 6.29   +00 3.     -02 2.83   +00
 6.32   +00 3.     -02 2.40   +00
 6.35   +00 3.     -02 2.10   +00
 6.38   +00 3.     -02 2.16   +00
 6.41   +00 3.     -02 1.91   +00
 6.44   +00 3.     -02 2.28   +00
 6.47   +00 3.     -02 1.67   +00
 6.50   +00 3.     -02 1.67   +00
 6.53   +00 3.     -02 1.71   +00
 6.56   +00 3.     -02 1.54   +00
 6.58   +00 3.     -02 1.33   +00
 6.61   +00 3.     -02 1.26   +00
 6.64   +00 3.     -02 1.46   +00
 6.67   +00 3.     -02 2.00   +00
 6.70   +00 3.     -02 2.34   +00
 6.73   +00 3.     -02 2.13   +00
 6.76   +00 3.     -02 2.06   +00
 6.79   +00 3.     -02 2.09   +00
 6.82   +00 3.     -02 1.88   +00
 6.85   +00 3.     -02 1.87   +00
 6.88   +00 3.     -02 1.97   +00
 6.91   +00 3.     -02 1.74   +00
 6.94   +00 3.     -02 1.60   +00
 6.97   +00 3.     -02 2.02   +00
 6.99   +00 3.     -02 1.98   +00
 7.02   +00 3.     -02 1.91   +00
 7.05   +00 3.     -02 2.12   +00
 7.08   +00 3.     -02 2.08   +00
 7.11   +00 3.     -02 1.90   +00
 7.14   +00 3.     -02 1.53   +00
 7.17   +00 3.     -02 1.77   +00
 7.20   +00 3.     -02 1.92   +00
 7.23   +00 3.     -02 1.97   +00
 7.26   +00 3.     -02 2.03   +00
 7.29   +00 3.     -02 2.10   +00
 7.32   +00 3.     -02 2.30   +00
 7.35   +00 3.     -02 2.11   +00
 7.38   +00 3.     -02 2.15   +00
 7.41   +00 3.     -02 2.01   +00
 7.44   +00 3.     -02 2.10   +00
 7.47   +00 3.     -02 1.97   +00
 7.50   +00 3.     -02 1.87   +00
 7.53   +00 3.     -02 1.94   +00
 7.56   +00 3.     -02 1.89   +00
 7.59   +00 3.     -02 1.93   +00
 7.62   +00 3.     -02 1.90   +00
 7.65   +00 3.     -02 2.10   +00
 7.68   +00 3.     -02 1.97   +00
 7.71   +00 3.     -02 1.94   +00
 7.74   +00 3.     -02 2.11   +00
 7.77   +00 3.     -02 2.12   +00
 7.80   +00 3.     -02 2.04   +00
 7.83   +00 3.     -02 1.97   +00
 7.86   +00 3.     -02 2.00   +00
 7.89   +00 3.     -02 2.11   +00
 7.92   +00 3.     -02 2.24   +00
 7.95   +00 3.     -02 2.16   +00
 7.98   +00 3.     -02 2.04   +00
 8.01   +00 3.     -02 2.07   +00
 8.04   +00 3.     -02 1.93   +00
 8.06   +00 3.     -02 1.79   +00
 8.09   +00 3.     -02 1.67   +00
 8.12   +00 3.     -02 1.71   +00
 8.15   +00 3.     -02 1.81   +00
 8.18   +00 3.     -02 1.77   +00
 8.21   +00 3.     -02 1.88   +00
 8.24   +00 3.     -02 1.86   +00
 8.27   +00 3.     -02 1.96   +00
 8.30   +00 3.     -02 1.89   +00
 8.33   +00 3.     -02 1.93   +00
 8.36   +00 3.     -02 2.12   +00
 8.39   +00 3.     -02 2.18   +00
 8.42   +00 3.     -02 2.12   +00
 8.45   +00 3.     -02 2.07   +00
 8.48   +00 3.     -02 2.04   +00
 8.51   +00 3.     -02 1.95   +00
 8.54   +00 3.     -02 1.93   +00
 8.57   +00 3.     -02 1.89   +00
 8.60   +00 3.     -02 2.03   +00
 8.63   +00 3.     -02 1.91   +00
 8.66   +00 3.     -02 1.93   +00
 8.69   +00 3.     -02 1.86   +00
 8.72   +00 3.     -02 1.81   +00
 8.75   +00 3.     -02 1.68   +00
 8.78   +00 3.     -02 1.59   +00
 8.81   +00 3.     -02 1.63   +00
 8.84   +00 3.     -02 1.67   +00
 8.87   +00 3.     -02 1.78   +00
 8.90   +00 3.     -02 2.11   +00
 8.93   +00 3.     -02 2.02   +00
 8.96   +00 3.     -02 1.97   +00
 8.99   +00 3.     -02 2.09   +00
 9.02   +00 3.     -02 2.08   +00
 9.04   +00 3.     -02 2.14   +00
 9.07   +00 3.     -02 2.01   +00
 9.10   +00 3.     -02 1.83   +00
 9.13   +00 3.     -02 1.84   +00
 9.16   +00 3.     -02 1.83   +00
 9.19   +00 3.     -02 1.76   +00
 9.22   +00 3.     -02 1.77   +00
 9.25   +00 3.     -02 1.68   +00
 9.28   +00 3.     -02 1.66   +00
 9.30   +00 3.     -02 1.68   +00
 9.33   +00 3.     -02 1.72   +00
 9.36   +00 3.     -02 2.03   +00
 9.39   +00 3.     -02 1.87   +00
 9.42   +00 3.     -02 1.89   +00
 9.45   +00 3.     -02 2.06   +00
 9.48   +00 3.     -02 2.05   +00
 9.51   +00 3.     -02 1.99   +00
 9.54   +00 3.     -02 1.88   +00
 9.56   +00 3.     -02 1.97   +00
 9.59   +00 3.     -02 1.89   +00
 9.62   +00 3.     -02 1.80   +00
 9.65   +00 3.     -02 1.76   +00
 9.68   +00 3.     -02 1.67   +00
 9.71   +00 3.     -02 1.72   +00
 9.74   +00 3.     -02 1.77   +00
 9.77   +00 3.     -02 1.72   +00
 9.80   +00 3.     -02 1.80   +00
 9.83   +00 3.     -02 1.86   +00
 9.86   +00 3.     -02 1.82   +00
 9.89   +00 3.     -02 1.79   +00
 9.91   +00 3.     -02 1.80   +00
 9.94   +00 3.     -02 1.86   +00
 9.97   +00 3.     -02 1.99   +00
 1.000  +01 3.     -02 1.91   +00
 1.003  +01 3.     -02 1.74   +00
 1.006  +01 3.     -02 1.83   +00
 1.009  +01 3.     -02 1.88   +00
 1.012  +01 3.     -02 1.86   +00
 1.015  +01 3.     -02 1.89   +00
 1.017  +01 3.     -02 1.87   +00
 1.020  +01 3.     -02 1.84   +00
 1.023  +01 3.     -02 1.94   +00
 1.026  +01 3.     -02 1.91   +00
 1.028  +01 3.     -02 1.81   +00
 1.031  +01 3.     -02 1.94   +00
 1.034  +01 3.     -02 2.00   +00
 1.037  +01 3.     -02 1.92   +00
 1.040  +01 3.     -02 1.86   +00
 1.043  +01 3.     -02 1.71   +00
 1.046  +01 3.     -02 1.71   +00
 1.049  +01 3.     -02 1.70   +00
 1.052  +01 3.     -02 1.67   +00
 1.055  +01 3.     -02 1.73   +00
 1.058  +01 3.     -02 1.86   +00
 1.061  +01 3.     -02 1.76   +00
 1.064  +01 3.     -02 1.68   +00
 1.067  +01 3.     -02 1.70   +00
 1.069  +01 3.     -02 1.74   +00
 1.072  +01 3.     -02 1.77   +00
 1.075  +01 3.     -02 1.85   +00
 1.078  +01 3.     -02 1.84   +00
 1.081  +01 3.     -02 1.86   +00
 1.084  +01 3.     -02 1.87   +00
 1.087  +01 3.     -02 1.90   +00
 1.090  +01 3.     -02 1.92   +00
 1.092  +01 3.     -02 1.91   +00
 1.095  +01 3.     -02 1.87   +00
 1.098  +01 3.     -02 1.79   +00
 1.101  +01 3.     -02 1.80   +00
 1.104  +01 3.     -02 1.81   +00
 1.107  +01 3.     -02 1.72   +00
 1.110  +01 3.     -02 1.68   +00
 1.113  +01 3.     -02 1.67   +00
 1.116  +01 3.     -02 1.69   +00
 1.119  +01 3.     -02 1.71   +00
 1.122  +01 3.     -02 1.77   +00
 1.125  +01 3.     -02 1.72   +00
 1.128  +01 3.     -02 1.77   +00
 1.131  +01 3.     -02 1.83   +00
 1.133  +01 3.     -02 1.85   +00
 1.136  +01 3.     -02 1.86   +00
 1.139  +01 3.     -02 1.89   +00
 1.142  +01 3.     -02 1.85   +00
 1.145  +01 3.     -02 1.79   +00
 1.148  +01 3.     -02 1.74   +00
 1.151  +01 3.     -02 1.80   +00
 1.154  +01 3.     -02 1.87   +00
 1.157  +01 3.     -02 1.85   +00
 1.160  +01 3.     -02 1.80   +00
 1.163  +01 3.     -02 1.85   +00
 1.166  +01 3.     -02 1.84   +00
 1.168  +01 3.     -02 1.85   +00
 1.171  +01 3.     -02 1.85   +00
 1.174  +01 3.     -02 1.81   +00
 1.177  +01 3.     -02 1.84   +00
 1.180  +01 3.     -02 1.86   +00
 1.183  +01 3.     -02 1.80   +00
 1.186  +01 3.     -02 1.75   +00
 1.188  +01 3.     -02 1.75   +00
 1.191  +01 3.     -02 1.78   +00
 1.194  +01 3.     -02 1.70   +00
 1.197  +01 3.     -02 1.75   +00
 1.200  +01 3.     -02 1.85   +00
 1.203  +01 3.     -02 1.89   +00
 1.206  +01 3.     -02 1.84   +00
 1.208  +01 3.     -02 1.78   +00
 1.211  +01 3.     -02 1.77   +00
 1.214  +01 3.     -02 1.79   +00
 1.217  +01 3.     -02 1.78   +00
 1.220  +01 3.     -02 1.78   +00
 1.223  +01 3.     -02 1.79   +00
 1.225  +01 3.     -02 1.80   +00
 1.228  +01 3.     -02 1.81   +00
 1.231  +01 3.     -02 1.86   +00
 1.234  +01 3.     -02 1.90   +00
 1.237  +01 3.     -02 1.91   +00
 1.240  +01 3.     -02 1.83   +00
 1.243  +01 3.     -02 1.77   +00
 1.246  +01 3.     -02 1.73   +00
 1.249  +01 3.     -02 1.69   +00
 1.252  +01 3.     -02 1.75   +00
 1.255  +01 3.     -02 1.73   +00
 1.258  +01 3.     -02 1.78   +00
 1.261  +01 3.     -02 1.83   +00
 1.263  +01 3.     -02 1.87   +00
 1.266  +01 3.     -02 1.90   +00
 1.269  +01 3.     -02 1.87   +00
 1.272  +01 3.     -02 1.88   +00
 1.275  +01 3.     -02 1.91   +00
 1.278  +01 3.     -02 1.87   +00
 1.281  +01 3.     -02 1.87   +00
 1.284  +01 3.     -02 1.81   +00
 1.287  +01 3.     -02 1.84   +00
 1.289  +01 3.     -02 1.85   +00
 1.292  +01 3.     -02 1.88   +00
 1.295  +01 3.     -02 1.91   +00
 1.298  +01 3.     -02 1.89   +00
 1.300  +01 3.     -02 1.82   +00
 1.303  +01 3.     -02 1.77   +00
 1.306  +01 3.     -02 1.76   +00
 1.309  +01 3.     -02 1.75   +00
 1.312  +01 3.     -02 1.83   +00
 1.315  +01 3.     -02 1.79   +00
 1.317  +01 3.     -02 1.83   +00
 1.320  +01 3.     -02 1.83   +00
 1.323  +01 3.     -02 1.85   +00
 1.326  +01 3.     -02 1.83   +00
 1.329  +01 3.     -02 1.85   +00
 1.332  +01 3.     -02 1.87   +00
 1.335  +01 3.     -02 1.82   +00
 1.338  +01 3.     -02 1.82   +00
 1.341  +01 3.     -02 1.84   +00
 1.344  +01 3.     -02 1.83   +00
 1.347  +01 3.     -02 1.78   +00
 1.350  +01 3.     -02 1.82   +00
 1.353  +01 3.     -02 1.83   +00
 1.356  +01 3.     -02 1.86   +00
 1.359  +01 3.     -02 1.89   +00
 1.362  +01 3.     -02 1.86   +00
 1.365  +01 3.     -02 1.87   +00
 1.368  +01 3.     -02 1.85   +00
 1.371  +01 3.     -02 1.82   +00
 1.374  +01 3.     -02 1.77   +00
 1.377  +01 3.     -02 1.81   +00
 1.380  +01 3.     -02 1.86   +00
 1.382  +01 3.     -02 1.89   +00
 1.385  +01 3.     -02 1.92   +00
 1.388  +01 3.     -02 1.88   +00
 1.391  +01 3.     -02 1.88   +00
 1.394  +01 3.     -02 1.89   +00
 1.396  +01 3.     -02 1.84   +00
 1.399  +01 3.     -02 1.83   +00
 1.402  +01 3.     -02 1.83   +00
ENDDATA            313
ENDSUBENT          328
SUBENT        10012007   19990617   19990622
BIB                  3          3
REACTION   (14-SI-28(N,A)12-MG-25,PAR,SIG)
DETECTOR   (SOLST) Si surface barrier detector.
ERR-ANALYS Absolute data error given.
ENDBIB               3
COMMON               2          3
E-LVL      DATA-ERR
MEV        PER-CENT
 0.         20.
ENDCOMMON            3
DATA                 2        233
EN         DATA
MEV        B
 6.64   +00 4.67   -02
 6.67   +00 4.17   -02
 6.70   +00 3.60   -02
 6.73   +00 3.80   -02
 6.76   +00 4.87   -02
 6.79   +00 4.41   -02
 6.82   +00 4.35   -02
 6.85   +00 5.12   -02
 6.88   +00 4.52   -02
 6.91   +00 4.11   -02
 6.94   +00 4.16   -02
 6.97   +00 5.74   -02
 7.00   +00 7.00   -02
 7.03   +00 5.19   -02
 7.05   +00 4.50   -02
 7.08   +00 5.58   -02
 7.11   +00 6.36   -02
 7.14   +00 4.68   -02
 7.17   +00 4.65   -02
 7.20   +00 5.13   -02
 7.23   +00 5.66   -02
 7.26   +00 4.37   -02
 7.29   +00 5.47   -02
 7.32   +00 8.88   -02
 7.35   +00 9.81   -02
 7.38   +00 6.04   -02
 7.41   +00 7.20   -02
 7.44   +00 9.07   -02
 7.47   +00 9.44   -02
 7.50   +00 9.54   -02
 7.53   +00 1.144  -01
 7.56   +00 1.041  -01
 7.59   +00 1.196  -01
 7.62   +00 1.505  -01
 7.65   +00 1.648  -01
 7.68   +00 1.568  -01
 7.71   +00 1.184  -01
 7.74   +00 9.48   -02
 7.77   +00 9.26   -02
 7.80   +00 9.76   -02
 7.83   +00 1.012  -01
 7.86   +00 1.174  -01
 7.89   +00 1.362  -01
 7.92   +00 1.492  -01
 7.95   +00 1.372  -01
 7.98   +00 1.342  -01
 8.01   +00 1.117  -01
 8.04   +00 1.224  -01
 8.06   +00 1.216  -01
 8.09   +00 1.118  -01
 8.12   +00 8.80   -02
 8.15   +00 8.40   -02
 8.18   +00 1.030  -01
 8.21   +00 9.54   -02
 8.24   +00 9.78   -02
 8.27   +00 9.89   -02
 8.30   +00 8.98   -02
 8.33   +00 8.60   -02
 8.36   +00 9.34   -02
 8.39   +00 9.71   -02
 8.42   +00 1.229  -01
 8.45   +00 1.073  -01
 8.48   +00 8.36   -02
 8.51   +00 1.126  -01
 8.54   +00 1.228  -01
 8.57   +00 1.227  -01
 8.60   +00 1.120  -01
 8.63   +00 1.095  -01
 8.66   +00 8.53   -02
 8.69   +00 8.65   -02
 8.72   +00 9.40   -02
 8.75   +00 9.38   -02
 8.78   +00 8.36   -02
 8.81   +00 9.42   -02
 8.84   +00 8.73   -02
 8.87   +00 7.83   -02
 8.90   +00 9.29   -02
 8.93   +00 9.38   -02
 8.96   +00 1.041  -01
 8.99   +00 1.135  -01
 9.02   +00 1.151  -01
 9.04   +00 1.113  -01
 9.07   +00 1.014  -01
 9.10   +00 1.111  -01
 9.13   +00 8.54   -02
 9.16   +00 6.98   -02
 9.19   +00 5.88   -02
 9.22   +00 5.40   -02
 9.25   +00 4.83   -02
 9.28   +00 4.11   -02
 9.31   +00 5.07   -02
 9.34   +00 5.33   -02
 9.37   +00 5.93   -02
 9.40   +00 9.55   -02
 9.43   +00 8.90   -02
 9.46   +00 1.205  -01
 9.49   +00 1.124  -01
 9.52   +00 1.169  -01
 9.55   +00 1.088  -01
 9.58   +00 1.207  -01
 9.61   +00 7.36   -02
 9.64   +00 8.36   -02
 9.67   +00 8.33   -02
 9.70   +00 4.99   -02
 9.73   +00 6.65   -02
 9.76   +00 7.34   -02
 9.78   +00 7.61   -02
 9.81   +00 7.26   -02
 9.84   +00 9.99   -02
 9.87   +00 8.83   -02
 9.90   +00 8.43   -02
 9.93   +00 7.90   -02
 9.96   +00 7.85   -02
 9.99   +00 8.66   -02
 1.002  +01 1.051  -01
 1.005  +01 1.195  -01
 1.009  +01 8.31   -02
 1.010  +01 8.88   -02
 1.013  +01 1.208  -01
 1.016  +01 1.144  -01
 1.019  +01 1.393  -01
 1.022  +01 1.240  -01
 1.025  +01 1.232  -01
 1.028  +01 8.44   -02
 1.030  +01 8.85   -02
 1.033  +01 1.114  -01
 1.036  +01 9.38   -02
 1.039  +01 6.68   -02
 1.042  +01 7.67   -02
 1.045  +01 6.68   -02
 1.048  +01 8.43   -02
 1.051  +01 5.23   -02
 1.054  +01 4.87   -02
 1.057  +01 6.76   -02
 1.060  +01 6.50   -02
 1.063  +01 4.78   -02
 1.066  +01 4.96   -02
 1.069  +01 5.50   -02
 1.072  +01 6.46   -02
 1.075  +01 4.50   -02
 1.078  +01 3.72   -02
 1.080  +01 4.25   -02
 1.083  +01 5.34   -02
 1.086  +01 4.50   -02
 1.089  +01 4.91   -02
 1.092  +01 5.32   -02
 1.095  +01 5.03   -02
 1.098  +01 4.47   -02
 1.101  +01 4.83   -02
 1.104  +01 4.64   -02
 1.106  +01 4.19   -02
 1.109  +01 4.45   -02
 1.112  +01 3.88   -02
 1.115  +01 3.08   -02
 1.118  +01 3.98   -02
 1.121  +01 4.15   -02
 1.124  +01 4.69   -02
 1.127  +01 4.19   -02
 1.130  +01 4.42   -02
 1.133  +01 4.13   -02
 1.136  +01 3.54   -02
 1.139  +01 3.15   -02
 1.142  +01 3.35   -02
 1.145  +01 3.63   -02
 1.148  +01 4.13   -02
 1.151  +01 4.15   -02
 1.154  +01 5.07   -02
 1.157  +01 4.59   -02
 1.160  +01 4.51   -02
 1.163  +01 4.74   -02
 1.166  +01 4.34   -02
 1.169  +01 4.62   -02
 1.172  +01 5.32   -02
 1.174  +01 4.66   -02
 1.177  +01 4.39   -02
 1.180  +01 3.93   -02
 1.183  +01 4.00   -02
 1.186  +01 4.92   -02
 1.189  +01 5.48   -02
 1.191  +01 5.52   -02
 1.194  +01 5.09   -02
 1.197  +01 5.16   -02
 1.200  +01 5.21   -02
 1.203  +01 4.84   -02
 1.206  +01 4.57   -02
 1.209  +01 4.40   -02
 1.211  +01 4.34   -02
 1.214  +01 4.46   -02
 1.217  +01 4.41   -02
 1.220  +01 4.10   -02
 1.223  +01 3.70   -02
 1.226  +01 4.14   -02
 1.229  +01 4.59   -02
 1.231  +01 4.28   -02
 1.234  +01 3.80   -02
 1.237  +01 3.52   -02
 1.240  +01 4.01   -02
 1.243  +01 3.74   -02
 1.246  +01 3.58   -02
 1.249  +01 3.32   -02
 1.252  +01 2.95   -02
 1.255  +01 2.57   -02
 1.258  +01 2.59   -02
 1.261  +01 3.04   -02
 1.264  +01 3.24   -02
 1.267  +01 3.55   -02
 1.270  +01 3.63   -02
 1.272  +01 3.54   -02
 1.275  +01 3.35   -02
 1.278  +01 3.25   -02
 1.281  +01 2.90   -02
 1.284  +01 2.63   -02
 1.287  +01 2.72   -02
 1.289  +01 2.70   -02
 1.292  +01 2.48   -02
 1.295  +01 2.02   -02
 1.298  +01 1.85   -02
 1.301  +01 1.97   -02
 1.304  +01 2.14   -02
 1.307  +01 2.47   -02
 1.310  +01 2.71   -02
 1.313  +01 2.47   -02
 1.315  +01 2.21   -02
 1.318  +01 1.96   -02
 1.321  +01 2.18   -02
 1.324  +01 2.46   -02
 1.327  +01 2.29   -02
 1.330  +01 2.24   -02
 1.332  +01 2.12   -02
 1.335  +01 1.97   -02
 1.338  +01 2.09   -02
 1.341  +01 1.95   -02
 1.344  +01 1.59   -02
ENDDATA            235
ENDSUBENT          247
SUBENT        10012008   19990617   19990622
BIB                  3          3
REACTION   (14-SI-28(N,A)12-MG-25,PAR,SIG)
DETECTOR   (SOLST) Si surface barrier detector.
ERR-ANALYS Absolute data error given.
ENDBIB               3
COMMON               2          3
E-LVL      DATA-ERR
MEV        PER-CENT
 0.58       20.
ENDCOMMON            3
DATA                 2        233
EN         DATA
MEV        B
 6.64   +00 5.2    -03
 6.67   +00 6.1    -03
 6.70   +00 5.2    -03
 6.73   +00 3.7    -03
 6.76   +00 3.9    -03
 6.79   +00 6.8    -03
 6.82   +00 1.84   -02
 6.85   +00 1.63   -02
 6.88   +00 1.19   -02
 6.91   +00 1.94   -02
 6.94   +00 2.61   -02
 6.97   +00 2.07   -02
 7.00   +00 2.08   -02
 7.03   +00 3.08   -02
 7.05   +00 2.08   -02
 7.08   +00 2.01   -02
 7.11   +00 1.70   -02
 7.14   +00 1.44   -02
 7.17   +00 1.34   -02
 7.20   +00 1.56   -02
 7.23   +00 1.74   -02
 7.26   +00 1.83   -02
 7.29   +00 1.96   -02
 7.32   +00 2.15   -02
 7.35   +00 2.96   -02
 7.38   +00 1.38   -02
 7.41   +00 2.40   -02
 7.44   +00 2.48   -02
 7.47   +00 2.85   -02
 7.50   +00 3.54   -02
 7.53   +00 3.81   -02
 7.56   +00 2.67   -02
 7.59   +00 2.62   -02
 7.62   +00 3.10   -02
 7.65   +00 2.58   -02
 7.68   +00 2.98   -02
 7.71   +00 3.44   -02
 7.74   +00 3.06   -02
 7.77   +00 3.24   -02
 7.80   +00 2.70   -02
 7.83   +00 3.14   -02
 7.86   +00 3.86   -02
 7.89   +00 3.68   -02
 7.92   +00 3.14   -02
 7.95   +00 2.50   -02
 7.98   +00 2.84   -02
 8.01   +00 3.52   -02
 8.04   +00 3.88   -02
 8.06   +00 3.74   -02
 8.09   +00 3.42   -02
 8.12   +00 4.12   -02
 8.15   +00 4.58   -02
 8.18   +00 4.04   -02
 8.21   +00 2.58   -02
 8.24   +00 3.65   -02
 8.27   +00 3.08   -02
 8.30   +00 3.12   -02
 8.33   +00 2.30   -02
 8.36   +00 2.99   -02
 8.39   +00 2.43   -02
 8.42   +00 2.37   -02
 8.45   +00 1.54   -02
 8.48   +00 2.25   -02
 8.51   +00 2.91   -02
 8.54   +00 2.10   -02
 8.57   +00 1.74   -02
 8.60   +00 3.17   -02
 8.63   +00 3.80   -02
 8.66   +00 3.58   -02
 8.69   +00 4.53   -02
 8.72   +00 3.71   -02
 8.75   +00 3.92   -02
 8.78   +00 3.34   -02
 8.81   +00 4.63   -02
 8.84   +00 3.23   -02
 8.87   +00 2.28   -02
 8.90   +00 2.46   -02
 8.93   +00 2.22   -02
 8.96   +00 1.99   -02
 8.99   +00 2.02   -02
 9.02   +00 2.44   -02
 9.04   +00 2.86   -02
 9.07   +00 2.27   -02
 9.10   +00 2.61   -02
 9.13   +00 3.44   -02
 9.16   +00 4.06   -02
 9.19   +00 4.42   -02
 9.22   +00 4.19   -02
 9.25   +00 3.78   -02
 9.28   +00 2.93   -02
 9.31   +00 4.54   -02
 9.34   +00 4.29   -02
 9.37   +00 4.47   -02
 9.40   +00 4.05   -02
 9.43   +00 3.25   -02
 9.46   +00 2.32   -02
 9.49   +00 2.87   -02
 9.52   +00 3.16   -02
 9.55   +00 3.02   -02
 9.58   +00 2.25   -02
 9.61   +00 2.66   -02
 9.64   +00 2.16   -02
 9.67   +00 2.28   -02
 9.70   +00 1.79   -02
 9.73   +00 1.42   -02
 9.76   +00 2.21   -02
 9.78   +00 2.01   -02
 9.81   +00 2.78   -02
 9.84   +00 4.40   -02
 9.87   +00 6.30   -02
 9.90   +00 5.57   -02
 9.93   +00 5.65   -02
 9.96   +00 4.47   -02
 9.99   +00 2.47   -02
 1.002  +01 2.75   -02
 1.005  +01 2.75   -02
 1.007  +01 2.46   -02
 1.010  +01 2.70   -02
 1.013  +01 2.59   -02
 1.016  +01 3.37   -02
 1.019  +01 3.06   -02
 1.022  +01 2.77   -02
 1.025  +01 2.50   -02
 1.028  +01 2.63   -02
 1.030  +01 3.73   -02
 1.033  +01 4.77   -02
 1.036  +01 3.24   -02
 1.039  +01 4.63   -02
 1.042  +01 2.79   -02
 1.045  +01 2.63   -02
 1.048  +01 2.80   -02
 1.051  +01 1.91   -02
 1.054  +01 2.67   -02
 1.057  +01 3.77   -02
 1.060  +01 3.98   -02
 1.063  +01 4.23   -02
 1.066  +01 3.11   -02
 1.069  +01 1.64   -02
 1.072  +01 2.00   -02
 1.075  +01 3.47   -02
 1.078  +01 2.96   -02
 1.080  +01 3.06   -02
 1.083  +01 3.21   -02
 1.086  +01 2.21   -02
 1.089  +01 2.09   -02
 1.092  +01 2.39   -02
 1.095  +01 2.20   -02
 1.098  +01 2.22   -02
 1.101  +01 1.98   -02
 1.104  +01 1.77   -02
 1.106  +01 1.65   -02
 1.109  +01 1.32   -02
 1.112  +01 1.55   -02
 1.115  +01 1.18   -02
 1.118  +01 9.7    -03
 1.121  +01 7.9    -03
 1.124  +01 1.00   -02
 1.127  +01 1.48   -02
 1.130  +01 1.87   -02
 1.133  +01 3.12   -02
 1.136  +01 2.30   -02
 1.139  +01 3.61   -02
 1.142  +01 4.25   -02
 1.145  +01 4.57   -02
 1.148  +01 3.33   -02
 1.151  +01 2.53   -02
 1.154  +01 1.34   -02
 1.157  +01 1.26   -02
 1.160  +01 5.3    -03
 1.163  +01 7.8    -03
 1.166  +01 7.0    -03
 1.169  +01 7.2    -03
 1.172  +01 3.7    -03
 1.174  +01 4.3    -03
 1.177  +01 4.8    -03
 1.180  +01 7.7    -03
 1.183  +01 9.1    -03
 1.186  +01 6.4    -03
 1.189  +01 1.01   -02
 1.191  +01 8.5    -03
 1.194  +01 1.17   -02
 1.197  +01 1.25   -02
 1.200  +01 9.4    -03
 1.203  +01 9.2    -03
 1.206  +01 7.5    -03
 1.209  +01 1.51   -02
 1.211  +01 1.75   -02
 1.214  +01 1.55   -02
 1.217  +01 1.59   -02
 1.220  +01 1.44   -02
 1.223  +01 1.34   -02
 1.226  +01 1.12   -02
 1.229  +01 1.26   -02
 1.231  +01 8.6    -03
 1.234  +01 1.02   -02
 1.237  +01 6.1    -03
 1.240  +01 6.2    -03
 1.243  +01 7.9    -03
 1.246  +01 5.7    -03
 1.249  +01 4.2    -03
 1.252  +01 5.9    -03
 1.255  +01 5.4    -03
 1.258  +01 3.9    -03
 1.261  +01 5.5    -03
 1.264  +01 5.2    -03
 1.267  +01 6.0    -03
 1.270  +01 8.4    -03
 1.272  +01 8.5    -03
 1.275  +01 1.00   -02
 1.278  +01 1.01   -02
 1.281  +01 6.4    -03
 1.284  +01 5.9    -03
 1.287  +01 7.3    -03
 1.289  +01 4.7    -03
 1.292  +01 5.3    -03
 1.295  +01 5.6    -03
 1.298  +01 5.9    -03
 1.301  +01 5.0    -03
 1.304  +01 6.3    -03
 1.307  +01 3.7    -03
 1.310  +01 5.2    -03
 1.313  +01 3.7    -03
 1.315  +01 4.9    -03
 1.318  +01 3.9    -03
 1.321  +01 5.9    -03
 1.324  +01 4.7    -03
 1.327  +01 3.0    -03
 1.330  +01 3.0    -03
 1.332  +01 4.1    -03
 1.335  +01 3.5    -03
 1.338  +01 6.0    -03
 1.341  +01 7.0    -03
 1.344  +01 5.1    -03
ENDDATA            235
ENDSUBENT          247
SUBENT        10012009   19990617   19990622
BIB                  3          3
REACTION   (14-SI-28(N,A)12-MG-25,PAR,SIG)
DETECTOR   (SOLST) Si surface barrier detector.
ERR-ANALYS Absolute data error given.
ENDBIB               3
COMMON               2          3
E-LVL      DATA-ERR
MEV        PER-CENT
 0.96       20.
ENDCOMMON            3
DATA                 2        233
EN         DATA
MEV        B
 6.64   +00 5.1    -03
 6.67   +00 3.9    -03
 6.70   +00 4.3    -03
 6.73   +00 3.6    -03
 6.76   +00 4.4    -03
 6.79   +00 6.7    -03
 6.82   +00 1.32   -02
 6.85   +00 2.00   -02
 6.88   +00 1.15   -02
 6.91   +00 9.2    -03
 6.94   +00 5.8    -03
 6.97   +00 6.9    -03
 7.00   +00 8.8    -03
 7.03   +00 1.22   -02
 7.05   +00 9.6    -03
 7.08   +00 7.3    -03
 7.11   +00 8.1    -03
 7.14   +00 1.16   -02
 7.17   +00 6.6    -03
 7.20   +00 5.5    -03
 7.23   +00 1.73   -02
 7.26   +00 1.02   -02
 7.29   +00 1.79   -02
 7.32   +00 1.83   -02
 7.35   +00 2.66   -02
 7.38   +00 2.45   -02
 7.41   +00 2.16   -02
 7.44   +00 1.36   -02
 7.47   +00 1.89   -02
 7.50   +00 1.66   -02
 7.53   +00 1.43   -02
 7.56   +00 1.25   -02
 7.59   +00 2.09   -02
 7.62   +00 1.75   -02
 7.65   +00 1.25   -02
 7.68   +00 1.47   -02
 7.71   +00 1.50   -02
 7.74   +00 3.01   -02
 7.77   +00 2.76   -02
 7.80   +00 3.85   -02
 7.83   +00 3.02   -02
 7.86   +00 3.71   -02
 7.89   +00 3.66   -02
 7.92   +00 2.39   -02
 7.95   +00 2.42   -02
 7.98   +00 1.62   -02
 8.01   +00 2.96   -02
 8.04   +00 2.77   -02
 8.06   +00 1.97   -02
 8.09   +00 1.05   -02
 8.12   +00 1.32   -02
 8.15   +00 1.82   -02
 8.18   +00 1.24   -02
 8.21   +00 1.46   -02
 8.24   +00 3.12   -02
 8.27   +00 3.73   -02
 8.30   +00 3.12   -02
 8.33   +00 3.06   -02
 8.36   +00 3.38   -02
 8.39   +00 5.01   -02
 8.42   +00 4.90   -02
 8.45   +00 5.00   -02
 8.48   +00 4.38   -02
 8.51   +00 4.05   -02
 8.54   +00 3.98   -02
 8.57   +00 3.21   -02
 8.60   +00 2.92   -02
 8.63   +00 3.60   -02
 8.66   +00 4.15   -02
 8.69   +00 3.58   -02
 8.72   +00 4.68   -02
 8.75   +00 4.37   -02
 8.78   +00 3.37   -02
 8.81   +00 2.85   -02
 8.84   +00 2.49   -02
 8.87   +00 2.25   -02
 8.90   +00 2.31   -02
 8.93   +00 3.00   -02
 8.96   +00 3.77   -02
 8.99   +00 4.01   -02
 9.02   +00 3.92   -02
 9.04   +00 3.97   -02
 9.07   +00 3.59   -02
 9.10   +00 3.39   -02
 9.13   +00 2.62   -02
 9.16   +00 2.77   -02
 9.19   +00 2.91   -02
 9.22   +00 2.62   -02
 9.25   +00 2.82   -02
 9.28   +00 3.27   -02
 9.31   +00 3.38   -02
 9.34   +00 4.26   -02
 9.37   +00 3.64   -02
 9.40   +00 4.34   -02
 9.43   +00 5.78   -02
 9.46   +00 5.78   -02
 9.49   +00 4.23   -02
 9.52   +00 3.51   -02
 9.55   +00 3.24   -02
 9.58   +00 2.77   -02
 9.61   +00 3.53   -02
 9.64   +00 4.20   -02
 9.67   +00 3.35   -02
 9.70   +00 4.66   -02
 9.73   +00 5.54   -02
 9.76   +00 5.69   -02
 9.78   +00 4.54   -02
 9.81   +00 3.77   -02
 9.84   +00 3.51   -02
 9.87   +00 3.10   -02
 9.90   +00 2.82   -02
 9.93   +00 2.69   -02
 9.96   +00 3.12   -02
 9.99   +00 4.84   -02
 1.002  +01 4.76   -02
 1.005  +01 2.91   -02
 1.007  +01 3.02   -02
 1.010  +01 2.45   -02
 1.013  +01 2.69   -02
 1.016  +01 2.78   -02
 1.019  +01 2.87   -02
 1.022  +01 2.77   -02
 1.025  +01 3.29   -02
 1.028  +01 3.56   -02
 1.030  +01 3.20   -02
 1.033  +01 4.19   -02
 1.036  +01 4.29   -02
 1.039  +01 3.76   -02
 1.042  +01 3.78   -02
 1.045  +01 3.14   -02
 1.048  +01 3.08   -02
 1.051  +01 3.18   -02
 1.054  +01 2.79   -02
 1.057  +01 2.70   -02
 1.060  +01 2.22   -02
 1.063  +01 2.42   -02
 1.066  +01 2.95   -02
 1.069  +01 3.15   -02
 1.072  +01 2.50   -02
 1.075  +01 3.53   -02
 1.078  +01 3.61   -02
 1.080  +01 3.25   -02
 1.083  +01 3.66   -02
 1.086  +01 3.63   -02
 1.089  +01 3.15   -02
 1.092  +01 3.04   -02
 1.095  +01 2.75   -02
 1.098  +01 2.67   -02
 1.101  +01 2.55   -02
 1.104  +01 2.55   -02
 1.106  +01 2.09   -02
 1.109  +01 2.51   -02
 1.112  +01 2.34   -02
 1.115  +01 1.88   -02
 1.118  +01 1.77   -02
 1.121  +01 1.86   -02
 1.124  +01 2.13   -02
 1.127  +01 1.83   -02
 1.130  +01 1.89   -02
 1.133  +01 1.32   -02
 1.136  +01 1.93   -02
 1.139  +01 2.39   -02
 1.142  +01 3.07   -02
 1.145  +01 3.30   -02
 1.148  +01 2.25   -02
 1.151  +01 1.64   -02
 1.154  +01 1.31   -02
 1.157  +01 1.23   -02
 1.160  +01 1.21   -02
 1.163  +01 1.34   -02
 1.166  +01 1.52   -02
 1.169  +01 2.04   -02
 1.172  +01 2.21   -02
 1.174  +01 1.78   -02
 1.177  +01 1.60   -02
 1.180  +01 2.16   -02
 1.183  +01 2.33   -02
 1.186  +01 2.21   -02
 1.189  +01 1.87   -02
 1.191  +01 1.58   -02
 1.194  +01 1.13   -02
 1.197  +01 1.23   -02
 1.200  +01 1.10   -02
 1.203  +01 1.42   -02
 1.206  +01 1.53   -02
 1.209  +01 1.32   -02
 1.211  +01 1.60   -02
 1.214  +01 2.13   -02
 1.217  +01 2.34   -02
 1.220  +01 2.08   -02
 1.223  +01 1.81   -02
 1.226  +01 1.72   -02
 1.229  +01 1.68   -02
 1.231  +01 1.48   -02
 1.234  +01 1.21   -02
 1.237  +01 1.35   -02
 1.240  +01 1.02   -02
 1.243  +01 8.9    -03
 1.246  +01 8.9    -03
 1.249  +01 9.5    -03
 1.252  +01 1.09   -02
 1.255  +01 1.18   -02
 1.258  +01 1.20   -02
 1.261  +01 9.4    -03
 1.264  +01 1.04   -02
 1.267  +01 1.11   -02
 1.270  +01 1.03   -02
 1.272  +01 1.06   -02
 1.275  +01 8.3    -03
 1.278  +01 7.8    -03
 1.281  +01 9.3    -03
 1.284  +01 1.16   -02
 1.287  +01 1.40   -02
 1.289  +01 1.24   -02
 1.292  +01 1.21   -02
 1.295  +01 1.13   -02
 1.298  +01 7.8    -03
 1.301  +01 9.8    -03
 1.304  +01 7.3    -03
 1.307  +01 7.9    -03
 1.310  +01 8.4    -03
 1.313  +01 8.8    -03
 1.315  +01 8.0    -03
 1.318  +01 1.11   -02
 1.321  +01 1.01   -02
 1.324  +01 1.17   -02
 1.327  +01 8.1    -03
 1.330  +01 8.5    -03
 1.332  +01 9.0    -03
 1.335  +01 8.9    -03
 1.338  +01 8.7    -03
 1.341  +01 5.3    -03
 1.344  +01 5.7    -03
ENDDATA            235
ENDSUBENT          247
SUBENT        10012010   19990617   19990622
BIB                  3          3
REACTION   (14-SI-28(N,A)12-MG-25,PAR,SIG)
DETECTOR   (SOLST) Si surface barrier detector.
ERR-ANALYS Absolute data error given.
ENDBIB               3
COMMON               2          3
E-LVL      DATA-ERR
MEV        PER-CENT
 1.61       20.
ENDCOMMON            3
DATA                 2        213
EN         DATA
MEV        B
 7.17   +00 1.1    -03
 7.26   +00 1.3    -03
 7.29   +00 2.1    -03
 7.32   +00 4.2    -03
 7.35   +00 3.1    -03
 7.38   +00 1.14   -02
 7.41   +00 8.7    -03
 7.44   +00 1.22   -02
 7.47   +00 6.3    -03
 7.50   +00 5.3    -03
 7.53   +00 5.2    -03
 7.56   +00 3.7    -03
 7.59   +00 1.18   -02
 7.62   +00 1.24   -02
 7.65   +00 1.79   -02
 7.68   +00 8.0    -03
 7.71   +00 1.06   -02
 7.74   +00 8.0    -03
 7.77   +00 1.91   -02
 7.80   +00 7.9    -03
 7.83   +00 1.67   -02
 7.86   +00 1.99   -02
 7.89   +00 2.26   -02
 7.92   +00 1.81   -02
 7.95   +00 3.14   -02
 7.98   +00 1.87   -02
 8.01   +00 1.91   -02
 8.04   +00 2.00   -02
 8.06   +00 2.14   -02
 8.09   +00 1.99   -02
 8.12   +00 2.16   -02
 8.15   +00 1.63   -02
 8.18   +00 1.94   -02
 8.21   +00 2.10   -02
 8.24   +00 1.27   -02
 8.27   +00 1.75   -02
 8.30   +00 1.12   -02
 8.33   +00 1.56   -02
 8.36   +00 1.74   -02
 8.39   +00 2.25   -02
 8.42   +00 1.52   -02
 8.45   +00 1.41   -02
 8.48   +00 1.94   -02
 8.51   +00 1.22   -02
 8.54   +00 1.92   -02
 8.57   +00 2.60   -02
 8.60   +00 2.46   -02
 8.63   +00 2.67   -02
 8.66   +00 2.08   -02
 8.69   +00 2.19   -02
 8.72   +00 2.58   -02
 8.75   +00 2.28   -02
 8.78   +00 1.64   -02
 8.81   +00 1.28   -02
 8.84   +00 2.75   -02
 8.87   +00 2.13   -02
 8.90   +00 2.79   -02
 8.93   +00 2.20   -02
 8.96   +00 2.25   -02
 8.99   +00 1.84   -02
 9.02   +00 2.85   -02
 9.04   +00 3.33   -02
 9.07   +00 3.39   -02
 9.10   +00 2.82   -02
 9.13   +00 2.90   -02
 9.16   +00 2.43   -02
 9.19   +00 1.84   -02
 9.22   +00 3.00   -02
 9.25   +00 3.08   -02
 9.28   +00 2.86   -02
 9.31   +00 3.85   -02
 9.34   +00 3.52   -02
 9.37   +00 3.70   -02
 9.40   +00 3.47   -02
 9.43   +00 4.02   -02
 9.46   +00 5.27   -02
 9.49   +00 4.23   -02
 9.52   +00 6.28   -02
 9.55   +00 4.86   -02
 9.58   +00 5.73   -02
 9.61   +00 4.37   -02
 9.64   +00 4.14   -02
 9.67   +00 3.29   -02
 9.70   +00 5.08   -02
 9.73   +00 4.58   -02
 9.76   +00 4.04   -02
 9.78   +00 3.79   -02
 9.81   +00 2.76   -02
 9.84   +00 4.33   -02
 9.87   +00 5.37   -02
 9.90   +00 4.72   -02
 9.93   +00 2.78   -02
 9.96   +00 3.92   -02
 9.99   +00 3.97   -02
 1.002  +01 4.44   -02
 1.005  +01 4.28   -02
 1.007  +01 5.29   -02
 1.010  +01 4.93   -02
 1.013  +01 4.42   -02
 1.016  +01 4.26   -02
 1.019  +01 3.19   -02
 1.022  +01 4.39   -02
 1.025  +01 5.09   -02
 1.028  +01 4.66   -02
 1.030  +01 5.83   -02
 1.033  +01 7.26   -02
 1.036  +01 3.52   -02
 1.039  +01 3.28   -02
 1.042  +01 2.75   -02
 1.045  +01 3.38   -02
 1.048  +01 5.05   -02
 1.051  +01 4.63   -02
 1.054  +01 5.29   -02
 1.057  +01 6.62   -02
 1.060  +01 5.37   -02
 1.063  +01 4.83   -02
 1.066  +01 3.28   -02
 1.069  +01 3.65   -02
 1.072  +01 4.18   -02
 1.075  +01 4.21   -02
 1.078  +01 4.51   -02
 1.080  +01 4.66   -02
 1.083  +01 4.22   -02
 1.086  +01 4.71   -02
 1.089  +01 4.35   -02
 1.092  +01 3.96   -02
 1.095  +01 2.95   -02
 1.098  +01 2.48   -02
 1.101  +01 2.18   -02
 1.104  +01 1.68   -02
 1.106  +01 1.94   -02
 1.109  +01 2.58   -02
 1.112  +01 3.36   -02
 1.115  +01 3.14   -02
 1.118  +01 3.72   -02
 1.121  +01 3.56   -02
 1.124  +01 2.86   -02
 1.127  +01 2.14   -02
 1.130  +01 2.71   -02
 1.133  +01 5.16   -02
 1.136  +01 6.00   -02
 1.139  +01 5.49   -02
 1.142  +01 3.03   -02
 1.145  +01 2.82   -02
 1.148  +01 3.77   -02
 1.151  +01 3.65   -02
 1.154  +01 3.14   -02
 1.157  +01 2.88   -02
 1.160  +01 2.43   -02
 1.163  +01 2.82   -02
 1.166  +01 2.47   -02
 1.169  +01 1.79   -02
 1.172  +01 1.90   -02
 1.174  +01 2.74   -02
 1.177  +01 3.32   -02
 1.180  +01 2.43   -02
 1.183  +01 2.02   -02
 1.186  +01 1.89   -02
 1.189  +01 2.22   -02
 1.191  +01 1.84   -02
 1.194  +01 1.48   -02
 1.197  +01 1.52   -02
 1.200  +01 2.50   -02
 1.203  +01 2.92   -02
 1.206  +01 1.46   -02
 1.209  +01 1.36   -02
 1.211  +01 1.82   -02
 1.214  +01 2.41   -02
 1.217  +01 3.20   -02
 1.220  +01 2.78   -02
 1.223  +01 2.20   -02
 1.226  +01 1.87   -02
 1.229  +01 2.12   -02
 1.231  +01 2.13   -02
 1.234  +01 2.87   -02
 1.237  +01 2.45   -02
 1.240  +01 2.08   -02
 1.243  +01 2.58   -02
 1.246  +01 1.38   -02
 1.249  +01 1.25   -02
 1.252  +01 1.39   -02
 1.255  +01 1.62   -02
 1.258  +01 2.04   -02
 1.261  +01 1.85   -02
 1.264  +01 1.48   -02
 1.267  +01 1.59   -02
 1.270  +01 1.21   -02
 1.272  +01 1.56   -02
 1.275  +01 1.40   -02
 1.278  +01 1.78   -02
 1.281  +01 1.45   -02
 1.284  +01 2.28   -02
 1.287  +01 2.28   -02
 1.289  +01 2.55   -02
 1.292  +01 2.33   -02
 1.295  +01 2.46   -02
 1.298  +01 1.68   -02
 1.301  +01 1.72   -02
 1.304  +01 1.64   -02
 1.307  +01 1.23   -02
 1.310  +01 1.35   -02
 1.313  +01 1.24   -02
 1.315  +01 1.02   -02
 1.318  +01 9.7    -03
 1.321  +01 9.4    -03
 1.324  +01 1.45   -02
 1.327  +01 1.27   -02
 1.330  +01 1.55   -02
 1.332  +01 1.52   -02
 1.335  +01 1.29   -02
 1.338  +01 1.16   -02
 1.341  +01 9.3    -03
 1.344  +01 7.8    -03
ENDDATA            215
ENDSUBENT          227
ENDENTRY            10
