ENTRY            11910     771029              20050926       0000
SUBENT        11910001     771029              20050926       0000
BIB                  7          8
INSTITUTE  (1USAANL)
REFERENCE  (J,PR,109,1258,5802)
AUTHOR     (A.SAPLAKOGLU,L.M.BOLLINGER,R.E.COTE)
TITLE      PROPERTIES OF S-WAVE AND P-WAVE NEUTRON RESONANCES IN
            NIOBUIM.
FACILITY   (CHOPF) FAST CHOPPER
STATUS     (SCSRS)
HISTORY    (760802T) TRANSLATED FROM SCISRS
ENDBIB               8
NOCOMMON             0          0
ENDSUBENT           11
SUBENT        11910002     771029              20050926       0000
BIB                  2          2
REACTION   (41-NB-93(N,TOT),,SIG)
METHOD     (TOF)      TIME-OF-FLIGHT
ENDBIB               2
COMMON               1          3
EN-RSL
NSEC/M
 40.
ENDCOMMON            3
DATA                 3        634
EN         DATA       THICKNESS
MEV        B          G/CM-SQ
 2.90   -05 6.4    +0021.672
 2.92   -05 6.7    +0021.672
 2.94   -05 6.3    +0021.672
 2.96   -05 6.4    +0021.672
 2.98   -05 6.6    +0021.672
 3.02   -05 6.6    +0021.672
 3.03   -05 6.1    +0021.672
 3.06   -05 6.6    +0021.672
 3.09   -05 6.5    +0021.672
 3.10   -05 6.2    +0021.672
 3.13   -05 6.4    +0021.672
 3.15   -05 6.4    +0021.672
 3.18   -05 6.4    +0021.672
 3.20   -05 6.7    +0021.672
 3.23   -05 6.6    +0021.672
 3.25   -05 6.4    +0021.672
 3.28   -05 6.4    +0021.672
 3.31   -05 6.4    +0021.672
 3.33   -05 6.5    +0021.672
 3.36   -05 6.4    +0021.672
 3.37   -05 6.2    +0021.672
 3.38   -05 6.7    +0021.672
 3.39   -05 6.7    +0021.672
 3.40   -05 6.5    +0021.672
 3.43   -05 6.4    +0021.672
 3.44   -05 6.7    +0021.672
 3.45   -05 6.9    +0021.672
 3.46   -05 6.9    +0021.672
 3.47   -05 7.1    +0021.672
 3.48   -05 7.1    +0021.672
 3.49   -05 7.2    +0021.672
 3.50   -05 7.7    +0021.672
 3.51   -05 8.2    +0021.672
 3.52   -05 8.2    +0021.672
 3.53   -05 8.2    +0021.672
 3.54   -05 8.9    +00 2.725
 3.55   -05 1.02   +01 2.725
 3.56   -05 1.08   +01 2.725
 3.57   -05 1.55   +01 2.725
 3.58   -05 1.88   +01 2.725
 3.59   -05 2.14   +01 2.725
 3.60   -05 1.64   +01 2.725
 3.61   -05 1.48   +01 2.725
 3.62   -05 1.08   +01 2.725
 3.63   -05 7.9    +00 2.725
 3.64   -05 7.3    +0021.672
 3.65   -05 7.4    +0021.672
 3.66   -05 6.9    +0021.672
 3.69   -05 6.6    +0021.672
 3.71   -05 6.5    +0021.672
 3.72   -05 6.4    +0021.672
 3.75   -05 6.4    +0021.672
 3.76   -05 6.3    +0021.672
 3.77   -05 6.5    +0021.672
 3.78   -05 6.3    +0021.672
 3.79   -05 6.5    +0021.672
 3.80   -05 5.9    +0021.672
 3.81   -05 6.1    +0021.672
 3.83   -05 6.4    +0021.672
 3.84   -05 6.3    +0021.672
 3.85   -05 6.1    +0021.672
 3.99   -05 6.4    +0021.672
 4.00   -05 6.5    +0021.672
 4.01   -05 6.3    +0021.672
 4.02   -05 6.5    +0021.672
 4.03   -05 6.7    +0021.672
 4.05   -05 6.5    +0021.672
 4.06   -05 6.5    +0021.672
 4.07   -05 6.4    +0021.672
 4.08   -05 6.5    +0021.672
 4.09   -05 6.5    +0021.672
 4.11   -05 6.9    +0021.672
 4.12   -05 6.0    +0021.672
 4.13   -05 6.5    +0021.672
 4.14   -05 6.4    +0021.672
 4.16   -05 7.2    +0021.672
 4.17   -05 7.7    +0021.672
 4.18   -05 8.4    +0021.672
 4.19   -05 9.4    +0021.672
 4.21   -05 1.10   +0121.672
 4.22   -05 1.19   +0121.672
 4.23   -05 1.05   +0121.672
 4.24   -05 9.7    +0021.672
 4.26   -05 8.3    +0021.672
 4.27   -05 6.9    +0021.672
 4.29   -05 6.4    +0021.672
 4.30   -05 6.4    +0021.672
 4.31   -05 6.6    +0021.672
 4.34   -05 6.1    +0021.672
 4.38   -05 6.2    +0021.672
 4.42   -05 6.1    +0021.672
 4.46   -05 6.2    +0021.672
 4.50   -05 6.4    +0021.672
 4.55   -05 6.1    +0021.672
 4.59   -05 6.2    +0021.672
 4.63   -05 6.4    +0021.672
 4.68   -05 6.0    +0021.672
 4.71   -05 6.5    +0021.672
 4.77   -05 6.3    +0021.672
 4.82   -05 6.3    +0021.672
 4.86   -05 6.4    +0021.672
 4.91   -05 6.3    +0021.672
 5.01   -05 6.2    +0021.672
 5.06   -05 6.1    +0021.672
 5.11   -05 6.1    +0021.672
 5.16   -05 6.1    +0021.672
 5.22   -05 6.0    +0021.672
 5.27   -05 6.1    +0021.672
 5.32   -05 6.1    +0021.672
 5.38   -05 6.1    +0021.672
 5.43   -05 6.0    +0021.672
 5.47   -05 6.3    +0021.672
 5.55   -05 6.2    +0021.672
 5.61   -05 6.2    +0021.672
 5.67   -05 6.4    +0021.672
 5.73   -05 6.3    +0021.672
 5.79   -05 6.1    +0021.672
 5.85   -05 6.1    +0021.672
 5.91   -05 6.3    +0021.672
 5.98   -05 6.3    +0021.672
 6.04   -05 6.1    +0021.672
 6.11   -05 6.2    +0021.672
 6.18   -05 6.1    +0021.672
 6.25   -05 6.2    +0021.672
 6.32   -05 6.1    +0021.672
 6.39   -05 6.2    +0021.672
 6.46   -05 6.1    +0021.672
 6.54   -05 6.1    +0021.672
 6.61   -05 6.4    +0021.672
 6.69   -05 6.3    +0021.672
 6.77   -05 6.1    +0021.672
 6.84   -05 6.2    +0021.672
 6.92   -05 6.2    +0021.672
 7.01   -05 6.0    +0021.672
 7.09   -05 6.3    +0021.672
 7.17   -05 6.2    +0021.672
 7.26   -05 6.2    +0021.672
 7.35   -05 6.1    +0021.672
 7.40   -05 6.0    +0021.672
 7.53   -05 6.2    +0021.672
 7.62   -05 6.2    +0021.672
 7.72   -05 6.5    +0021.672
 7.81   -05 6.3    +0021.672
 7.91   -05 6.3    +0021.672
 8.01   -05 6.4    +0021.672
 8.11   -05 6.1    +0021.672
 8.22   -05 6.3    +0021.672
 8.32   -05 6.4    +0021.672
 8.43   -05 6.3    +0021.672
 8.54   -05 6.3    +0021.672
 8.65   -05 5.9    +0021.672
 8.77   -05 6.3    +0021.672
 8.85   -05 6.3    +0021.672
 8.88   -05 6.4    +0021.672
 8.92   -05 6.0    +0021.672
 8.96   -05 6.5    +0021.672
 9.00   -05 6.3    +0021.672
 9.04   -05 6.0    +0021.672
 9.08   -05 6.1    +0021.672
 9.13   -05 6.1    +0021.672
 9.17   -05 6.1    +0021.672
 9.21   -05 6.4    +0021.672
 9.25   -05 6.3    +0021.672
 9.29   -05 6.8    +0021.672
 9.33   -05 7.6    +0021.672
 9.37   -05 9.3    +00 2.725
 9.41   -05 1.16   +01 2.725
 9.45   -05 1.26   +01 2.725
 9.49   -05 1.05   +01 2.725
 9.54   -05 9.6    +00 2.725
 9.59   -05 6.3    +0021.672
 9.64   -05 6.4    +0021.672
 9.68   -05 6.5    +0021.672
 9.73   -05 6.3    +0021.672
 9.77   -05 6.3    +0021.672
 1.005  -04 6.1    +0021.672
 1.010  -04 6.3    +0021.672
 1.014  -04 6.4    +0021.672
 1.019  -04 6.1    +0021.672
 1.024  -04 6.1    +0021.672
 1.029  -04 6.2    +0021.672
 1.034  -04 6.4    +0021.672
 1.039  -04 6.8    +00 2.725
 1.044  -04 7.8    +00 2.725
 1.049  -04 9.1    +00 2.725
 1.054  -04 1.07   +01 2.725
 1.059  -04 1.11   +01 2.725
 1.064  -04 9.7    +00 2.725
 1.069  -04 8.8    +00 2.725
 1.075  -04 7.8    +00 2.725
 1.080  -04 6.3    +0021.672
 1.085  -04 5.8    +0021.672
 1.090  -04 6.4    +0021.672
 1.096  -04 6.3    +0021.672
 1.101  -04 6.3    +0021.672
 1.107  -04 6.0    +0021.672
 1.112  -04 6.3    +0021.672
 1.118  -04 5.8    +0021.672
 1.123  -04 6.3    +0021.672
 1.129  -04 6.1    +0021.672
 1.152  -04 6.2    +0043.344
 1.157  -04 6.2    +0043.344
 1.161  -04 6.0    +0043.344
 1.165  -04 5.9    +0043.344
 1.170  -04 6.2    +0043.344
 1.174  -04 7.2    +0043.344
 1.179  -04 1.61   +01 2.725
 1.183  -04 2.13   +01 2.725
 1.189  -04 3.35   +01 2.725
 1.193  -04 3.42   +01 2.725
 1.197  -04 2.30   +01 2.725
 1.202  -04 1.90   +01 2.725
 1.206  -04 8.5    +00 2.725
 1.215  -04 6.5    +0043.344
 1.22   -04 6.2    +0043.344
 1.23   -04 5.7    +0043.344
 1.24   -04 5.8    +0043.344
 1.29   -04 5.8    +0043.344
 1.30   -04 5.6    +0043.344
 1.31   -04 5.8    +0043.344
 1.34   -04 5.9    +0043.344
 1.35   -04 5.8    +0043.344
 1.36   -04 5.9    +0043.344
 1.37   -04 5.6    +0043.344
 1.38   -04 6.0    +0043.344
 1.39   -04 6.0    +0043.344
 1.40   -04 6.0    +0043.344
 1.41   -04 6.0    +0043.344
 1.42   -04 5.8    +0043.344
 1.43   -04 5.9    +0043.344
 1.44   -04 5.9    +0043.344
 1.45   -04 6.0    +0043.344
 1.46   -04 6.0    +0043.344
 1.47   -04 5.8    +0043.344
 1.48   -04 5.9    +0043.344
 1.49   -04 6.0    +0043.344
 1.50   -04 5.9    +0043.344
 1.51   -04 6.0    +0043.344
 1.52   -04 6.0    +0043.344
 1.53   -04 6.1    +0043.344
 1.54   -04 5.9    +0043.344
 1.55   -04 5.9    +0043.344
 1.56   -04 5.8    +0043.344
 1.57   -04 5.8    +0043.344
 1.58   -04 6.0    +0043.344
 1.59   -04 5.8    +0043.344
 1.60   -04 6.0    +0043.344
 1.61   -04 6.1    +0043.344
 1.62   -04 5.9    +0043.344
 1.63   -04 5.9    +0043.344
 1.64   -04 6.0    +0043.344
 1.65   -04 6.1    +0043.344
 1.66   -04 6.0    +0043.344
 1.67   -04 6.4    +0043.344
 1.69   -04 5.9    +0043.344
 1.70   -04 6.1    +0043.344
 1.71   -04 5.9    +0043.344
 1.72   -04 6.0    +0043.344
 1.73   -04 6.1    +0043.344
 1.74   -04 6.5    +0043.344
 1.75   -04 6.2    +0043.344
 1.76   -04 6.1    +0043.344
 1.77   -04 5.8    +0043.344
 1.78   -04 5.9    +0043.344
 1.79   -04 5.8    +0043.344
 1.80   -04 5.7    +0043.344
 1.81   -04 5.9    +0043.344
 1.82   -04 5.6    +0043.344
 1.83   -04 5.8    +0043.344
 1.84   -04 5.7    +0043.344
 1.85   -04 5.7    +0043.344
 1.86   -04 5.7    +0043.344
 1.87   -04 5.7    +0043.344
 1.88   -04 5.9    +00 7.631
 1.89   -04 6.1    +00 7.631
 1.90   -04 7.1    +00 7.631
 1.91   -04 8.1    +00 7.631
 1.92   -04 1.63   +01 2.725
 1.93   -04 2.33   +01 2.725
 1.94   -04 3.84   +01 2.725
 1.95   -04 4.01   +01 2.725
 1.96   -04 3.28   +01 2.725
 1.97   -04 2.00   +01 2.725
 1.98   -04 1.27   +01 2.725
 1.99   -04 7.5    +0021.672
 2.00   -04 7.0    +0021.672
 2.01   -04 6.6    +0021.672
 2.03   -04 6.6    +0021.672
 2.04   -04 6.6    +0021.672
 2.05   -04 6.5    +0021.672
 2.06   -04 6.6    +0021.672
 2.07   -04 6.4    +0021.672
 2.08   -04 6.5    +0021.672
 2.09   -04 6.0    +0021.672
 2.10   -04 6.3    +0021.672
 2.11   -04 6.1    +0021.672
 2.12   -04 6.7    +0021.672
 2.13   -04 5.8    +0021.672
 2.14   -04 5.9    +0021.672
 2.15   -04 6.4    +0021.672
 2.16   -04 6.4    +0021.672
 2.17   -04 6.4    +0021.672
 2.19   -04 6.5    +0021.672
 2.20   -04 6.3    +0021.672
 2.21   -04 6.3    +0021.672
 2.22   -04 6.2    +0021.672
 2.23   -04 6.4    +0021.672
 2.24   -04 6.2    +0021.672
 2.26   -04 6.5    +0021.672
 2.27   -04 6.1    +0021.672
 2.28   -04 6.1    +0021.672
 2.29   -04 5.8    +0021.672
 2.30   -04 6.1    +0021.672
 2.32   -04 6.1    +0021.672
 2.33   -04 6.3    +0021.672
 2.34   -04 5.9    +0021.672
 2.35   -04 6.0    +0021.672
 2.37   -04 6.0    +0021.672
 2.38   -04 6.1    +0021.672
 2.39   -04 6.0    +0021.672
 2.41   -04 7.1    +00 7.631
 2.42   -04 7.7    +00 7.631
 2.43   -04 9.1    +00 7.631
 2.45   -04 8.6    +00 7.631
 2.46   -04 8.3    +00 7.631
 2.47   -04 6.6    +0021.672
 2.49   -04 6.4    +0021.672
 2.50   -04 5.8    +0021.672
 2.52   -04 6.1    +0021.672
 2.53   -04 6.2    +0021.672
 2.54   -04 6.2    +0021.672
 2.56   -04 5.7    +0021.672
 2.57   -04 5.8    +0021.672
 2.59   -04 5.9    +0021.672
 2.60   -04 6.2    +0021.672
 2.62   -04 6.1    +0021.672
 2.63   -04 5.8    +0021.672
 2.65   -04 5.5    +0021.672
 2.66   -04 5.8    +0021.672
 2.68   -04 6.2    +0021.672
 2.69   -04 6.3    +0021.672
 2.71   -04 6.1    +0021.672
 2.72   -04 6.2    +0021.672
 2.74   -04 6.0    +0021.672
 2.76   -04 5.8    +0021.672
 2.77   -04 5.9    +0021.672
 2.79   -04 6.0    +0021.672
 2.80   -04 5.9    +0021.672
 2.82   -04 6.1    +0021.672
 2.84   -04 5.8    +0021.672
 2.89   -04 5.7    +0021.672
 2.91   -04 5.9    +0021.672
 2.92   -04 6.1    +0021.672
 2.94   -04 5.9    +0021.672
 2.98   -04 5.8    +0021.672
 3.00   -04 5.8    +0021.672
 3.01   -04 5.8    +0021.672
 3.03   -04 6.0    +0021.672
 3.05   -04 6.0    +0021.672
 3.07   -04 5.8    +0021.672
 3.09   -04 5.9    +0021.672
 3.11   -04 6.0    +0021.672
 3.13   -04 6.1    +0021.672
 3.15   -04 6.2    +0021.672
 3.17   -04 6.5    +0021.672
 3.19   -04 6.8    +0021.672
 3.21   -04 6.8    +0021.672
 3.23   -04 6.6    +0021.672
 3.25   -04 5.7    +0021.672
 3.27   -04 5.8    +0021.672
 3.29   -04 6.6    +00 2.725
 3.31   -04 7.3    +00 2.725
 3.33   -04 1.16   +01 2.725
 3.35   -04 1.42   +01 2.725
 3.38   -04 1.49   +01 2.725
 3.40   -04 1.22   +01 2.725
 3.42   -04 7.3    +00 2.725
 3.44   -04 5.9    +0021.672
 3.46   -04 5.9    +0021.672
 3.49   -04 6.0    +0021.672
 3.51   -04 5.3    +0021.672
 3.53   -04 5.7    +0021.672
 3.56   -04 5.8    +0021.672
 3.58   -04 5.7    +0021.672
 3.60   -04 5.4    +0021.672
 3.63   -04 6.0    +0021.672
 3.65   -04 5.8    +0021.672
 3.68   -04 5.8    +0021.672
 3.70   -04 6.7    +00 2.725
 3.73   -04 9.0    +00 2.725
 3.75   -04 1.60   +01 2.725
 3.78   -04 2.09   +01 2.725
 3.81   -04 2.32   +01 2.725
 3.83   -04 1.83   +01 2.725
 3.86   -04 1.30   +01 2.725
 3.89   -04 1.07   +01 2.725
 3.91   -04 8.0    +0021.672
 3.94   -04 7.5    +0021.672
 3.97   -04 7.2    +0021.672
 4.00   -04 6.6    +0021.672
 4.02   -04 6.4    +0021.672
 4.08   -04 6.5    +0021.672
 4.11   -04 6.3    +0021.672
 4.14   -04 6.3    +0021.672
 4.17   -04 6.4    +0021.672
 4.20   -04 6.3    +0021.672
 4.23   -04 6.4    +0021.672
 4.26   -04 6.0    +0021.672
 4.29   -04 6.1    +0021.672
 4.32   -04 5.8    +0021.672
 4.36   -04 6.0    +0021.672
 4.39   -04 6.0    +0021.672
 4.42   -04 6.4    +0021.672
 4.45   -04 6.2    +0021.672
 4.49   -04 6.3    +0021.672
 4.59   -04 7.0    +0021.672
 4.62   -04 7.5    +0021.672
 4.66   -04 7.2    +0021.672
 4.69   -04 6.4    +0021.672
 4.73   -04 6.2    +0021.672
 4.77   -04 6.3    +0021.672
 4.80   -04 5.9    +0021.672
 4.84   -04 6.0    +0021.672
 4.87   -04 5.9    +0021.672
 4.92   -04 6.5    +0021.672
 4.96   -04 6.5    +0021.672
 4.99   -04 6.7    +0021.672
 5.03   -04 6.6    +0021.672
 5.07   -04 6.5    +0021.672
 5.11   -04 6.5    +0021.672
 5.16   -04 6.2    +0021.672
 5.20   -04 6.0    +0021.672
 5.24   -04 6.1    +0021.672
 5.28   -04 6.0    +0021.672
 5.32   -04 5.8    +0021.672
 5.37   -04 6.1    +0021.672
 5.41   -04 6.1    +0021.672
 5.46   -04 5.7    +0021.672
 5.50   -04 5.8    +0021.672
 5.55   -04 5.8    +0021.672
 5.59   -04 6.0    +0021.672
 5.64   -04 5.9    +0021.672
 5.69   -04 6.2    +0021.672
 5.74   -04 5.6    +0021.672
 5.78   -04 5.8    +0021.672
 5.83   -04 6.0    +0021.672
 5.88   -04 6.0    +0021.672
 5.93   -04 6.0    +0021.672
 5.99   -04 6.0    +0021.672
 6.04   -04 6.5    +0021.672
 6.09   -04 6.3    +0021.672
 6.14   -04 6.2    +0021.672
 6.20   -04 5.8    +0021.672
 6.25   -04 6.1    +0021.672
 6.31   -04 6.3    +0021.672
 6.36   -04 6.2    +0021.672
 6.42   -04 6.3    +0021.672
 6.48   -04 6.2    +0021.672
 6.54   -04 6.1    +0021.672
 6.60   -04 5.9    +0021.672
 6.66   -04 6.4    +0021.672
 6.72   -04 6.4    +0021.672
 6.78   -04 6.5    +0021.672
 6.84   -04 5.7    +0021.672
 6.90   -04 5.8    +0021.672
 6.97   -04 5.3    +0021.672
 7.03   -04 5.8    +0021.672
 7.10   -04 6.0    +0021.672
 7.16   -04 5.9    +0021.672
 7.23   -04 6.2    +0021.672
 7.25   -04 8.4    +00 2.725
 7.32   -04 1.01   +01 2.725
 7.39   -04 1.27   +01 2.725
 7.46   -04 1.04   +01 2.725
 7.53   -04 8.4    +00 2.725
 7.66   -04 6.6    +00 7.631
 7.74   -04 6.3    +00 7.631
 7.80   -04 6.6    +00 7.631
 7.88   -04 5.9    +00 7.631
 7.96   -04 6.2    +00 7.631
 8.04   -04 5.4    +00 7.631
 8.12   -04 5.0    +00 7.631
 8.20   -04 5.3    +00 7.631
 8.28   -04 5.5    +00 7.631
 8.54   -04 5.5    +00 7.631
 8.63   -04 5.9    +00 7.631
 8.72   -04 4.7    +00 7.631
 8.81   -04 4.9    +00 7.631
 8.90   -04 4.6    +00 7.631
 9.00   -04 5.5    +00 7.631
 9.09   -04 4.9    +00 7.631
 9.20   -04 5.9    +00 7.631
 9.29   -04 6.9    +00 7.631
 9.39   -04 9.3    +00 7.631
 9.49   -04 9.5    +00 7.631
 9.59   -04 8.2    +00 7.631
 9.70   -04 7.4    +00 7.631
 9.81   -04 6.2    +00 7.631
 9.92   -04 6.4    +00 7.631
 1.003  -03 7.6    +00 7.631
 1.014  -03 1.01   +01 7.631
 1.037  -03 9.1    +00 7.631
 1.049  -03 7.7    +00 7.631
 1.061  -03 6.0    +00 7.631
 1.073  -03 6.1    +00 7.631
 1.086  -03 6.0    +00 7.631
 1.098  -03 6.1    +00 7.631
 1.111  -03 6.0    +00 7.631
 1.125  -03 6.6    +00 7.631
 1.138  -03 7.4    +00 7.631
 1.152  -03 8.2    +00 7.631
 1.165  -03 9.4    +00 7.631
 1.180  -03 1.00   +01 7.631
 1.194  -03 9.5    +00 7.631
 1.209  -03 9.0    +00 7.631
 1.224  -03 7.6    +00 7.631
 1.239  -03 7.1    +00 7.631
 1.254  -03 6.7    +00 7.631
 1.270  -03 6.4    +00 7.631
 1.286  -03 6.1    +00 7.631
 1.302  -03 5.5    +00 7.631
 1.319  -03 5.9    +00 7.631
 1.336  -03 6.3    +00 7.631
 1.354  -03 5.7    +00 7.631
 1.372  -03 6.0    +00 7.631
 1.389  -03 6.4    +00 7.631
 1.408  -03 7.1    +00 7.631
 1.427  -03 7.0    +00 7.631
 1.446  -03 8.2    +00 7.631
 1.465  -03 8.9    +00 7.631
 1.485  -03 8.8    +00 7.631
 1.506  -03 8.1    +00 7.631
 1.526  -03 8.1    +00 7.631
 1.548  -03 7.3    +00 7.631
 1.569  -03 8.0    +00 7.631
 1.591  -03 7.0    +00 7.631
 1.614  -03 7.7    +00 7.631
 1.637  -03 6.8    +00 7.631
 1.661  -03 6.0    +00 7.631
 1.685  -03 5.9    +00 7.631
 1.709  -03 6.7    +00 7.631
 1.735  -03 5.9    +00 7.631
 1.760  -03 5.7    +00 7.631
 1.787  -03 6.0    +00 7.631
 1.813  -03 7.5    +00 7.631
 1.841  -03 7.3    +00 7.631
 1.869  -03 6.4    +00 7.631
 1.898  -03 6.4    +00 7.631
 1.927  -03 5.7    +00 7.631
 1.957  -03 5.7    +00 7.631
 1.988  -03 6.3    +00 7.631
 2.020  -03 6.7    +00 7.631
 2.053  -03 8.1    +00 7.631
 2.085  -03 7.9    +00 7.631
 2.190  -03 7.6    +00 7.631
 2.226  -03 6.8    +00 7.631
 2.264  -03 6.3    +00 7.631
 2.302  -03 6.1    +00 7.631
 2.341  -03 6.9    +00 7.631
 2.382  -03 7.7    +00 7.631
 2.423  -03 9.4    +00 7.631
 2.466  -03 9.6    +00 7.631
 2.509  -03 8.7    +00 7.631
 2.554  -03 8.1    +00 7.631
 2.600  -03 8.0    +00 7.631
 2.648  -03 9.0    +00 7.631
 2.696  -03 9.0    +00 7.631
 2.747  -03 8.9    +00 7.631
 2.798  -03 7.9    +00 7.631
 2.850  -03 6.7    +00 7.631
 2.905  -03 6.8    +00 7.631
 2.961  -03 6.8    +00 7.631
 3.018  -03 7.0    +00 7.631
 3.078  -03 6.7    +00 7.631
 3.139  -03 6.7    +00 7.631
 3.201  -03 5.9    +00 7.631
 3.266  -03 6.3    +00 7.631
 3.333  -03 6.2    +00 7.631
 3.402  -03 7.0    +00 7.631
 3.473  -03 7.3    +00 7.631
 3.546  -03 7.5    +00 7.631
 3.621  -03 6.6    +00 7.631
 3.699  -03 7.3    +00 7.631
 3.780  -03 6.6    +00 7.631
 3.863  -03 7.4    +00 7.631
 3.949  -03 7.5    +00 7.631
 4.038  -03 7.6    +00 7.631
 4.130  -03 7.5    +00 7.631
 4.225  -03 7.0    +00 7.631
 4.323  -03 6.6    +00 7.631
 4.425  -03 6.3    +00 7.631
 4.530  -03 6.3    +00 7.631
 4.640  -03 6.9    +00 7.631
 4.753  -03 7.3    +00 7.631
 5.118  -03 6.9    +00 7.631
 5.250  -03 6.9    +00 7.631
 5.387  -03 6.9    +00 7.631
 5.529  -03 6.6    +00 7.631
 5.677  -03 6.9    +00 7.631
 5.830  -03 7.1    +00 7.631
 5.990  -03 7.4    +00 7.631
 6.156  -03 8.6    +00 7.631
 6.330  -03 8.0    +00 7.631
 6.511  -03 7.9    +00 7.631
 6.700  -03 7.0    +00 7.631
 6.898  -03 7.5    +00 7.631
 7.103  -03 7.3    +00 7.631
 7.319  -03 6.4    +00 7.631
 7.545  -03 6.9    +00 7.631
 7.781  -03 7.3    +00 7.631
 8.028  -03 7.4    +00 7.631
 8.288  -03 6.7    +00 7.631
 8.560  -03 6.7    +00 7.631
 8.846  -03 7.4    +00 7.631
 9.146  -03 7.6    +00 7.631
 9.462  -03 7.4    +00 7.631
 9.795  -03 7.3    +00 7.631
 1.0145 -02 6.9    +00 7.631
 1.0515 -02 6.8    +00 7.631
 1.0905 -02 6.8    +00 7.631
 1.1317 -02 7.0    +00 7.631
 1.1753 -02 6.7    +00 7.631
 1.2215 -02 7.5    +00 7.631
 1.2704 -02 7.6    +00 7.631
 1.3224 -02 7.4    +00 7.631
 1.3776 -02 7.5    +00 7.631
 1.4363 -02 7.3    +00 7.631
 1.4989 -02 6.9    +00 7.631
 1.5657 -02 7.7    +00 7.631
 1.6370 -02 6.9    +00 7.631
 1.7133 -02 7.4    +00 7.631
 1.7950 -02 7.0    +00 7.631
 1.8828 -02 7.1    +00 7.631
 1.9772 -02 6.9    +00 7.631
ENDDATA            636
ENDSUBENT          647
SUBENT        11910003     771029              20050926       0000
BIB                  2          6
REACTION  1(41-NB-93(N,0),,EN)
          2(41-NB-93(N,TOT),,SIG,,RES)
          3(41-NB-93(N,TOT),,WID)
          4(41-NB-93(N,G),,WID)
          5(41-NB-93(N,EL),,WID,,2G)
ASSUMED    (ASSUM,41-NB-93(N,G),,WID)
ENDBIB               6
NOCOMMON             0          0
DATA                10         13
DATA      1DATA      2DATA-ERR  2DATA      3DATA-ERR  3DATA      4
DATA-ERR  4DATA      5DATA-ERR  5ASSUM
EV         B          B          MILLI-EV   MILLI-EV   MILLI-EV
MILLI-EV   MILLI-EV   MILLI-EV   MILLI-EV
 35.9       25.9       7.         206.       51.        205.
 51.         0.15      0.01
 42.2       10.7       3.         256.       84.        256.
 84.         0.13      0.01
 94.3       21.8       6.         220.       46.
             0.35      0.03       220.
106.        21.5       6.         220.       46.
             0.39      0.04       220.
119.       137.       50.         223.       46.
             2.8       0.5        220.
194.       810.       300.        250.       48.
            30.2       6.         220.
244.        39.         9.        222.       46.
             1.64      0.3        220.
320.        34.        10.        222.       46.
             1.85      0.4        220.
336.       350.       100.        242.       41.
            21.9       3.7        220.
381.         1.115 +03215.        327.       38.
           107.       14.         220.
462.        97.        37.        228.       46.
             7.8       2.3        220.
503.        85.        31.        227.       46.
             7.5       2.2        220.
744.       925.       128.        460.       38.
           240.       27.         220.
ENDDATA             30
ENDSUBENT           41
ENDENTRY             3
