ENTRY            11932   20221004   20230913   20230911       1505
SUBENT        11932001   20221004   20230913   20230911       1505
BIB                  8         20
TITLE      The Parameters for the Slow Neutron Resonance in
           Rhodium
AUTHOR     (V.L.Sailor)
REFERENCE  (J,PR,91,53,1953)
           #doi:10.1103/PhysRev.91.53
INSTITUTE  (1USABNL)
FACILITY   (SPECC,1USABNL) Crystal spectrometer.
SAMPLE     Samples of four different thicknesses. The rhodium
           specimen was of high purity; a spectroscopic analysis
           disclosed approximately 0.01% Ag, 0.01% Cu and traces
           of Pd and Pt. The specimens were in the form of metal
           foils which had been cut to carefully measured sizes.
           The thickness of each foil was determined by weighing.
ERR-ANALYS (DATA-ERR) Experimental errors.
HISTORY    (19760802T) Translated from SCISRS.
           (19830802A) Converted to reaction formalism.
           (20221004A) BP: Updated to new date formats,lower
           case. Corrections according last EXFOR rules and
           Dict. Added ERR-ANALYS, SAMPLE, doi, re-digitized
           data for subentry 4.
ENDBIB              20
NOCOMMON             0          0
ENDSUBENT           23
SUBENT        11932002   20221004   20230913   20230911       1505
BIB                  3          7
REACTION  1(45-RH-103(N,0),,EN)
          2(45-RH-103(N,TOT),,SIG,,RES)
          3(45-RH-103(N,TOT),,WID)
          4(45-RH-103(N,EL),,WID,,G)
STATUS     (TABLE,,V.L.Sailor,J,PR,91,53,1953)
            Table II, page 57 of J,PR,91,53,1953.
HISTORY    (20221004A) BP: Added STATUS.
ENDBIB               7
NOCOMMON             0          0
DATA                 8          1
DATA      1DATA-ERR  1DATA      2DATA-ERR  2DATA      3DATA-ERR  3
DATA      4DATA-ERR  4
MEV        MEV        B          B          MILLI-EV   MILLI-EV
MILLI-EV   MILLI-EV
   1.26E-06     4.E-08  5.000E+03   2.00E+02   1.56E+02         5.
    3.8E-01     2.E-02
ENDDATA              6
ENDSUBENT           18
SUBENT        11932003   20221004   20230913   20230911       1505
BIB                  3          4
REACTION   (45-RH-103(N,THS)45-RH-103,FA,SIG)
STATUS     (TABLE,,V.L.Sailor,J,PR,91,53,1953)
            Table II, page 57 of J,PR,91,53,1953.
HISTORY    (20221004A) BP: Added STATUS.
ENDBIB               4
NOCOMMON             0          0
DATA                 3          1
EN         DATA       DATA-ERR
EV         B          B
     0.0253        5.5        1.0
ENDDATA              3
ENDSUBENT           12
SUBENT        11932004   20221004   20230913   20230911       1505
BIB                  4          8
REACTION   (45-RH-103(N,TOT),,SIG)
STATUS     (CURVE,,V.L.Sailor,J,PR,91,53,1953)
            Fig. 1, page 55 of J,PR,91,53,1953.
COMMENT    Compiler's comment: digitized curve includes a
           background peak around 5.2 eV from silver
           contamination in the target.
HISTORY    (20221004A) BP: Replaced BNL-325 curve reading with
           digitized curve that includes uncertainties.
ENDBIB               8
NOCOMMON             0          0
DATA                 3         78
EN         DATA       DATA-ERR
EV         B          B
  1.883E-01  7.535E+01
  2.275E-01  7.387E+01
  2.524E-01  6.975E+01
  2.909E-01  7.037E+01
  3.198E-01  7.590E+01
  3.515E-01  7.235E+01
  3.652E-01  7.806E+01
  3.829E-01  8.107E+01
  4.249E-01  7.951E+01
  4.540E-01  7.948E+01
  5.185E-01  8.736E+01
  5.703E-01  9.881E+01
  6.154E-01  1.118E+02
  6.641E-01  1.241E+02
  7.098E-01  1.338E+02
  7.660E-01  1.514E+02
  8.268E-01  1.796E+02
  8.931E-01  2.504E+02
  9.370E-01  2.970E+02
  9.833E-01  3.695E+02
  1.042E+00  4.913E+02
  1.084E+00  6.787E+02
  1.128E+00  1.102E+03
  1.173E+00  1.551E+03
  1.197E+00  2.163E+03
  1.233E+00  3.133E+03
  1.246E+00  4.012E+03
  1.257E+00  3.683E+03
  1.258E+00  4.412E+03
  1.295E+00  4.851E+03
  1.344E+00  4.087E+03
  1.357E+00  4.286E+03
  1.369E+00  3.285E+03
  1.394E+00  2.639E+03
  1.418E+00  1.892E+03
  1.443E+00  1.199E+03
  1.496E+00  8.275E+02
  1.564E+00  4.095E+02
  1.636E+00  2.271E+02
  1.697E+00  1.675E+02
  1.760E+00  1.201E+02
  1.860E+00  8.131E+01
  1.984E+00  5.773E+01
  2.097E+00  3.984E+01
  2.239E+00  3.171E+01
  2.412E+00  2.499E+01
  2.575E+00  1.915E+01
  2.697E+00  1.509E+01
  2.990E+00  1.178E+01
  3.254E+00  1.081E+01
  4.926E+00  6.906E+00
  5.066E+00  6.585E+00
  5.167E+00  7.963E+00
  5.228E+00  1.382E+01
  5.478E+00  1.187E+01
  5.573E+00  7.737E+00
  5.896E+00  6.836E+00
  6.298E+00  6.517E+00  6.474E-01
  6.536E+00  5.388E+00
  6.981E+00  4.992E+00  6.226E-01
  7.396E+00  6.269E+00
  7.898E+00  5.487E+00
  8.363E+00  6.090E+00
  8.948E+00  8.491E+00  1.198E+00
  9.542E+00  5.179E+00  6.879E-01
  1.039E+01  5.747E+00
  1.098E+01  3.929E+00
  1.209E+01  5.910E+00  8.814E-01
  1.292E+01  5.688E+00
  1.407E+01  6.020E+00  9.944E-01
  1.559E+01  4.233E+00
  1.668E+01  5.167E+00  1.054E+00
  1.833E+01  5.116E+00
  2.032E+01  3.956E+00  9.244E-01
  2.255E+01  4.187E+00
  2.528E+01  5.013E+00  1.384E+00
  2.832E+01  4.870E+00
  3.206E+01  6.232E+00  1.456E+00
ENDDATA             80
ENDSUBENT           93
ENDENTRY             4
