ENTRY            11969     930316
SUBENT        11969001     930316              20050926       0000
BIB                  7          9
INSTITUTE  (1USABNL,1USACOL)
REFERENCE  (J,PR,109,417,5801)
AUTHOR     (J.A.MOORE)
TITLE      RESONANCE SCATTERING OF SLOW NEUTRONS ON INDIUM.
FACILITY   (SPECC,1USABNL)
STATUS     (SCSRS)
HISTORY    (760802T) TRANSLATED FROM SCISRS
           (830802A) CONVERTED TO REACTION FORMALISM
           (930316A) BIB UPDATE. CONVERTED TO LOWER CASE
ENDBIB               9
NOCOMMON             0          0
ENDSUBENT           12
NOSUBENT      11969002     830802              20050926       0000
SUBENT        11969003     830802              20050926       0000
BIB                  3          9
REACTION  1(49-IN-115(N,0),,EN)
          2(49-IN-115(N,0),,J)
          3(49-IN-115(N,TOT),,WID)
          4(49-IN-115(N,EL),,WID)
          5(49-IN-115(N,G),,WID)
          6(49-IN-115(N,TOT),,WID,,SQ/S0)
METHOD     SCATTERING AND TRANSMISSION
HISTORY    (790731A) ISOTOPE CORRECTED.
           (830222A) SUBENTRIES 2,3 COMBINED
ENDBIB               9
NOCOMMON             0          0
DATA                11          3
DATA      1DATA-ERR  1DATA      2DATA      3DATA-ERR  3DATA      4
DATA-ERR  4DATA      5DATA-ERR  5DATA      6DATA-ERR  6
MEV        MEV        NO-DIM     EV         EV         EV
EV         EV         EV         B*EV-SQ    B*EV-SQ
 1.456  -06 2.     -09 5.     +00 0.075      0.002      0.0030
 0.0001     0.072      0.002     213.        4.
 3.85   -06 2.     -08
                                  8.2       0.2
  9.0   -06
                                  19.7       0.3
ENDDATA             10
ENDSUBENT           24
SUBENT        11969004     830802              20050926       0000
BIB                  2          2
REACTION   (49-IN-0(N,TOT),,SIG)
STATUS     DATA ABOVE 1 EV READ FROM BNL-325 (1958).
ENDBIB               2
NOCOMMON             0          0
DATA                 2        133
EN         DATA
EV         B
 0.3299       90.33
 0.3465       90.93
 0.3644       91.08
 0.3838       92.23
 0.4048       94.33
 0.4277       95.03
 0.4659      100.43
 0.4869      101.43
 0.5018      101.3
 0.5028       99.6
 0.5076      101.1
 0.5175      101.9
 0.5175      102.6
 0.5256      100.6
 0.5339      106.4
 0.5339      103.8
 0.5446      105.2
 0.5511      107.5
 0.5511      105.7
 0.5600      105.1
 0.5692      111.5
 0.5692      112.1
 0.5810      110.7
 0.5882      111.2
 0.5882      111.8
 0.5944      112.9
 0.6082      115.1
 0.6082      116.4
 0.6186      116.2
 0.6293      117.9
 0.6293      120.6
 0.6402      120.0
 0.6472      124.5
 0.6515      122.3
 0.6616      126.8
 0.6749      125.6
 0.6749      131.8
 0.6902      130.7
 0.6997      133.7
 0.7061      137.0
 0.7142      134.8
 0.7258      143.4
 0.7258      142.9
 0.7395      149.8
 0.7535      153.7
 0.90        210.
 0.96        275.
 1.02        334.
 1.04        358.
 1.07        391.
 1.075       421.
 1.10        472.
 1.16        610.
 1.20        915.
 1.24       1180.
 1.66       1440.
 1.69       1150.
 1.69       1000.
 1.70        915.
 1.7077      816.3
 1.7077      814.1
 1.7201      738.2
 1.7201      754.8
 1.7327      700.1
 1.7453      628.4
 1.7453      645.3
 1.76        600.
 1.78        552.
 1.80        492.
 1.83        412.
 1.85        382.
 1.88        286.
 1.90        275.
 1.93        241.
 1.9636      197.2
 1.97        198.
 2.10        124.
 2.25         87.
 2.89         28.8
 2.90         27.7
 3.08         25.7
 3.18         24.9
 3.30         24.6
 3.40         26.9
 3.43         28.6
 3.54         35.9
 3.58         43.2
 3.60         45.9
 3.61         52.
 4.0          95.5
 4.15         39.
 4.18         35.1
 4.22         29.7
 4.23         26.2
 4.24         24.9
 4.30         22.9
 4.32         19.7
 4.51         16.6
 4.52         15.5
 4.60         17.9
 4.61         20.9
 4.62         22.8
 4.68         23.7
 4.72         21.4
 4.78         18.3
 4.80         16.
 4.9          11.8
 4.99         11.4
 8.0868       19.931
 8.0868       13.675
 8.1513        9.831
 8.1513       11.265
 8.2165       14.031
 8.2165       14.405
 8.2826       17.431
 8.2826       15.425
 8.3494       16.231
 8.3494       15.245
 8.4170       25.431
 8.4170       18.725
 8.45         37.
 8.4855       24.331
 8.4855       22.675
 8.5548       25.531
 8.5548       27.325
 8.6          56.2
 9.25         73.5
 9.2973       73.905
 9.3          50.7
 9.5          33.9
 9.7          17.2
 9.75         15.0
 9.8          13.1
ENDDATA            135
ENDSUBENT          142
ENDENTRY             4
