ENTRY            C2801   20220822   20231218   20231218       C228
SUBENT        C2801001   20220822   20231218   20231218       C228
BIB                  8         15
TITLE      Reexamination of 12C+alpha scattering near 9.85 MeV
           excitation in 16O
AUTHOR     (A.D.Frawley,J.D.Fox,K.W.Kemper,L.C.Dennis)
INSTITUTE  (1USAFSU)
REFERENCE  (J,PR/C,25,2935,1982)
           #doi:10.1103/PhysRevC.25.2935
FACILITY   (VDGT,1USAFSU) The Florida State University super-FN
           tandem Van de Graaff accelerator.
SAMPLE     The targets were self-supporting natural carbon foils,
           nominally of about 3-4 mu-g/cm thickness.
DETECTOR   (SIBAR) The detection system consisted of three
           surface barrier detectors, separated by 30 deg in the
           laboratory, mounted on a moveable table, and a fixed
           monitor detector set at (90+/-2) deg c.m.
HISTORY    (20220822C) OG
ENDBIB              15
NOCOMMON             0          0
ENDSUBENT           18
SUBENT        C2801002   20220822   20231218   20231218       C228
BIB                  4          5
REACTION   (6-C-12(A,EL)6-C-12,,DA)
FLAG       (1.) The data obtained with the monitor detector.
ERR-ANALYS (ERR-S) Statistical uncertainty
STATUS     (CURVE) Fig.1 (p.2936) in J,PR/C,25,2935,1982 was
           digitized by GSYS-2.4.9.
ENDBIB               5
NOCOMMON             0          0
DATA                 6        299
ANG-CM     ANG-ERR    EN         DATA-CM    ERR-S      FLAG
ADEG       ADEG       MEV        MB/SR      MB/SR      NO-DIM
        90.         2.       3.52  11.262E+0  23.464E+0
        90.         2.      3.520  1.258E+02                    1.
        90.         2.      3.524  1.273E+02                    1.
        90.         2.      3.525  1.250E+02  3.324E+00
        90.         2.      3.528  1.245E+02                    1.
        90.         2.      3.529  1.266E+02  3.603E+00
        90.         2.      3.532  1.209E+02                    1.
        90.         2.      3.533  1.277E+02  3.464E+00
        90.         2.      3.536  1.227E+02                    1.
        90.         2.      3.539  1.263E+02  3.602E+00
        90.         2.      3.540  1.249E+02                    1.
        90.         2.      3.541  1.222E+02  3.325E+00
        90.         2.      3.542  1.196E+02                    1.
        90.         2.      3.543  1.178E+02  3.602E+00
        90.         2.      3.544  1.188E+02                    1.
        90.         2.      3.545  1.272E+02  3.188E+00
        90.         2.      3.546  1.214E+02                    1.
        90.         2.      3.547  1.183E+02  3.187E+00
        90.         2.      3.548  1.214E+02                    1.
        90.         2.      3.549  1.175E+02  3.187E+00
        90.         2.      3.550  1.150E+02                    1.
        90.         2.      3.551  1.192E+02  2.772E+00
        90.         2.      3.552  1.113E+02                    1.
        90.         2.      3.553  1.155E+02  2.772E+00
        90.         2.      3.554  1.119E+02                    1.
        90.         2.      3.555  1.150E+02  3.048E+00
        90.         2.      3.556  1.046E+02                    1.
        90.         2.      3.557  1.119E+02  3.741E+00
        90.         2.      3.558  9.613E+01                    1.
        90.         2.      3.559  1.065E+02  2.634E+00
        90.         2.      3.560  9.807E+01                    1.
        90.         2.      3.561  9.696E+01  3.188E+00
        90.         2.      3.562  9.238E+01                    1.
        90.         2.      3.563  9.432E+01  3.187E+00
        90.         2.      3.566  1.140E+02  2.771E+00
        90.         2.      3.566  1.169E+02                    1.
        90.         2.      3.568  1.310E+02                    1.
        90.         2.      3.569  1.407E+02  2.771E+00
        90.         2.      3.570  1.429E+02                    1.
        90.         2.      3.571  1.439E+02  3.464E+00
        90.         2.      3.572  1.390E+02                    1.
        90.         2.      3.573  1.440E+02  3.465E+00
        90.         2.      3.574  1.375E+02                    1.
        90.         2.      3.575  1.406E+02  3.049E+00
        90.         2.      3.576  1.354E+02                    1.
        90.         2.      3.577  1.381E+02  2.771E+00
        90.         2.      3.579  1.374E+02  2.772E+00
        90.         2.      3.580  1.318E+02                    1.
        90.         2.      3.581  1.270E+02  3.602E+00
        90.         2.      3.582  1.306E+02                    1.
        90.         2.      3.583  1.322E+02  2.909E+00
        90.         2.      3.584  1.279E+02                    1.
        90.         2.      3.585  1.281E+02  2.909E+00
        90.         2.      3.587  1.288E+02                    1.
        90.         2.      3.587  1.326E+02  2.771E+00
        90.         2.      3.588  1.249E+02                    1.
        90.         2.      3.591  1.258E+02  2.356E+00
        90.         2.      3.592  1.236E+02                    1.
        90.         2.      3.594  1.273E+02                    1.
        90.         2.      3.595  1.235E+02  4.018E+00
        90.         2.      3.596  1.251E+02                    1.
        90.         2.      3.599  1.204E+02  3.881E+00
        90.         2.      3.600  1.240E+02                    1.
        90.         2.      3.603  1.301E+02  2.494E+00
        90.         2.      3.604  1.275E+02                    1.
        90.         2.      3.607  1.238E+02  2.909E+00
        90.         2.      3.608  1.297E+02                    1.
        90.         2.      3.611  1.227E+02  3.602E+00
        90.         2.      3.613  1.292E+02                    1.
        90.         2.      3.615  1.263E+02  2.772E+00
        90.         2.      3.616  1.235E+02                    1.
        90.         2.      3.619  1.285E+02  2.772E+00
        90.         2.      3.620  1.235E+02                    1.
      114.4                 3.521  2.051E+01  1.643E+00
      114.4                 3.525  1.954E+01  2.055E+00
      114.4                 3.529  2.171E+01  1.644E+00
      114.4                 3.533  2.019E+01  1.781E+00
      114.4                 3.539  2.017E+01  1.506E+00
      114.4                 3.541  2.058E+01  1.095E+00
      114.4                 3.544  1.879E+01  1.233E+00
      114.4                 3.545  1.988E+01  1.371E+00
      114.4                 3.547  2.056E+01  1.232E+00
      114.4                 3.549  2.110E+01  1.507E+00
      114.4                 3.552  2.109E+01  1.507E+00
      114.4                 3.553  2.149E+01  1.368E+00
      114.4                 3.555  1.861E+01  1.507E+00
      114.4                 3.557  1.861E+01  1.372E+00
      114.4                 3.559  1.873E+01  1.369E+00
      114.4                 3.561  2.065E+01  1.233E+00
      114.4                 3.563  2.434E+01  1.505E+00
      114.4                 3.566  3.186E+01  1.370E+00
      114.4                 3.569  3.418E+01  1.644E+00
      114.4                 3.571  2.993E+01  1.507E+00
      114.4                 3.573  2.841E+01  1.779E+00
      114.4                 3.575  2.608E+01  1.645E+00
      114.4                 3.577  2.607E+01  1.369E+00
      114.4                 3.579  2.552E+01  1.370E+00
      114.4                 3.581  2.510E+01  1.371E+00
      114.4                 3.583  2.331E+01  1.644E+00
      114.4                 3.587  2.193E+01  1.371E+00
      114.4                 3.591  2.095E+01  1.232E+00
      114.4                 3.595  2.204E+01  1.506E+00
      114.4                 3.599  2.463E+01  1.508E+00
      114.4                 3.603  2.447E+01  1.781E+00
      114.4                 3.607  2.323E+01  1.507E+00
      114.4                 3.611  2.335E+01  1.507E+00
      114.4                 3.615  2.498E+01  1.646E+00
      114.4                 3.619  2.442E+01  1.645E+00
      128.3                 3.520  4.127E+01  1.643E+00
      128.3                 3.524  4.098E+01  2.055E+00
      128.3                 3.529  3.877E+01  1.644E+00
      128.3                 3.533  4.191E+01  1.781E+00
      128.3                 3.536  4.134E+01  1.506E+00
      128.3                 3.540  4.160E+01  1.233E+00
      128.3                 3.543  4.077E+01  1.233E+00
      128.3                 3.545  4.104E+01  1.780E+00
      128.3                 3.546  3.939E+01  1.780E+00
      128.3                 3.549  3.910E+01  1.507E+00
      128.3                 3.551  3.841E+01  1.507E+00
      128.3                 3.553  3.881E+01  1.642E+00
      128.3                 3.554  4.182E+01  1.507E+00
      128.3                 3.556  3.880E+01  1.372E+00
      128.3                 3.558  3.975E+01  1.644E+00
      128.3                 3.560  3.645E+01  1.507E+00
      128.3                 3.562  3.699E+01  1.505E+00
      128.3                 3.566  3.684E+01  1.370E+00
      128.3                 3.569  3.546E+01  1.644E+00
      128.3                 3.570  3.887E+01  1.782E+00
      128.3                 3.573  4.010E+01  1.370E+00
      128.3                 3.574  4.228E+01  1.645E+00
      128.3                 3.576  4.104E+01  1.369E+00
      128.3                 3.579  4.185E+01  1.370E+00
      128.3                 3.581  3.965E+01  1.507E+00
      128.3                 3.582  4.184E+01  1.644E+00
      128.3                 3.585  4.005E+01  1.372E+00
      128.3                 3.586  3.744E+01  1.232E+00
      128.3                 3.589  3.907E+01  1.506E+00
      128.3                 3.591  4.016E+01  1.508E+00
      128.3                 3.593  4.125E+01  1.233E+00
      128.3                 3.594  3.987E+01  1.507E+00
      128.3                 3.597  4.055E+01  1.507E+00
      128.3                 3.601  3.889E+01  1.646E+00
      128.3                 3.605  4.188E+01  1.645E+00
      128.3                 3.609  4.187E+01  1.507E+00
      128.3                 3.613  3.952E+01  1.233E+00
      128.3                 3.617  4.293E+01  1.369E+00
      128.3                 3.620  4.360E+01  1.370E+00
      140.9                 3.522  7.691E+01  2.175E+00
      140.9                 3.526  8.097E+01  1.632E+00
      140.9                 3.530  7.836E+01  2.041E+00
      140.9                 3.534  7.889E+01  1.769E+00
      140.9                 3.538  7.764E+01  2.176E+00
      140.9                 3.540  7.981E+01  1.360E+00
      140.9                 3.542  8.048E+01  1.632E+00
      140.9                 3.544  7.924E+01  1.768E+00
      140.9                 3.546  7.719E+01  1.768E+00
      140.9                 3.548  7.936E+01  1.496E+00
      140.9                 3.550  7.554E+01  1.496E+00
      140.9                 3.552  7.893E+01  1.630E+00
      140.9                 3.554  7.606E+01  1.496E+00
      140.9                 3.556  7.537E+01  1.771E+00
      140.9                 3.558  7.413E+01  1.632E+00
      140.9                 3.560  7.494E+01  1.497E+00
      140.9                 3.562  6.962E+01  1.494E+00
      140.9                 3.564  6.294E+01  1.632E+00
      140.9                 3.567  6.442E+01  1.632E+00
      140.9                 3.570  7.679E+01  1.363E+00
      140.9                 3.572  8.154E+01  1.496E+00
      140.9                 3.574  8.207E+01  1.634E+00
      140.9                 3.576  8.233E+01  1.359E+00
      140.9                 3.578  8.164E+01  1.361E+00
      140.9                 3.580  8.122E+01  1.496E+00
      140.9                 3.582  7.632E+01  1.633E+00
      140.9                 3.584  7.794E+01  1.363E+00
      140.9                 3.586  7.820E+01  1.359E+00
      140.9                 3.588  7.982E+01  1.496E+00
      140.9                 3.592  7.952E+01  1.498E+00
      140.9                 3.596  7.937E+01  1.224E+00
      140.9                 3.600  7.894E+01  1.497E+00
      140.9                 3.604  7.756E+01  1.497E+00
      140.9                 3.607  7.795E+01  1.363E+00
      140.9                 3.612  7.955E+01  1.634E+00
      140.9                 3.616  8.130E+01  1.496E+00
      140.9                 3.620  7.910E+01  1.224E+00
      152.4                 3.520  1.259E+02  2.133E+00
      152.4                 3.523  1.265E+02  2.417E+00
      152.4                 3.528  1.290E+02  2.132E+00
      152.4                 3.532  1.223E+02  2.416E+00
      152.4                 3.536  1.259E+02  2.701E+00
      152.4                 3.540  1.210E+02  2.559E+00
      152.4                 3.542  1.212E+02  2.702E+00
      152.4                 3.544  1.192E+02  2.985E+00
      152.4                 3.546  1.230E+02  2.132E+00
      152.4                 3.548  1.145E+02  2.417E+00
      152.4                 3.550  1.178E+02  1.990E+00
      152.4                 3.551  1.188E+02  2.275E+00
      152.4                 3.554  1.176E+02  2.133E+00
      152.4                 3.556  1.055E+02  2.133E+00
      152.4                 3.558  1.084E+02  2.559E+00
      152.4                 3.560  9.912E+01  2.701E+00
      152.4                 3.562  9.855E+01  2.417E+00
      152.4                 3.566  1.142E+02  1.991E+00
      152.4                 3.568  1.267E+02  1.990E+00
      152.4                 3.570  1.327E+02  2.559E+00
      152.4                 3.572  1.329E+02  2.275E+00
      152.4                 3.574  1.349E+02  2.133E+00
      152.4                 3.576  1.327E+02  2.133E+00
      152.4                 3.578  1.321E+02  2.417E+00
      152.4                 3.580  1.304E+02  2.132E+00
      152.4                 3.582  1.231E+02  2.133E+00
      152.4                 3.584  1.248E+02  2.417E+00
      152.4                 3.586  1.244E+02  1.990E+00
      152.4                 3.588  1.268E+02  1.990E+00
      152.4                 3.590  1.205E+02  2.133E+00
      152.4                 3.592  1.235E+02  1.990E+00
      152.4                 3.594  1.232E+02  2.559E+00
      152.4                 3.596  1.231E+02  2.417E+00
      152.4                 3.600  1.214E+02  1.990E+00
      152.4                 3.604  1.210E+02  1.422E+00
      152.4                 3.608  1.255E+02  2.132E+00
      152.4                 3.612  1.232E+02  2.275E+00
      152.4                 3.616  1.215E+02  2.133E+00
      152.4                 3.620  1.269E+02  2.417E+00
      163.1                 3.521  1.609E+02  3.848E+00
      163.1                 3.525  1.621E+02  3.135E+00
      163.1                 3.528  1.606E+02  3.705E+00
      163.1                 3.533  1.639E+02  3.278E+00
      163.1                 3.537  1.629E+02  3.135E+00
      163.1                 3.539  1.672E+02  3.135E+00
      163.1                 3.541  1.603E+02  2.994E+00
      163.1                 3.543  1.606E+02  3.420E+00
      163.1                 3.545  1.574E+02  2.992E+00
      163.1                 3.547  1.547E+02  3.705E+00
      163.1                 3.549  1.523E+02  3.135E+00
      163.1                 3.551  1.556E+02  2.708E+00
      163.1                 3.553  1.522E+02  3.135E+00
      163.1                 3.555  1.456E+02  3.135E+00
      163.1                 3.557  1.472E+02  2.993E+00
      163.1                 3.559  1.407E+02  2.993E+00
      163.1                 3.561  1.305E+02  2.566E+00
      163.1                 3.563  1.353E+02  2.708E+00
      163.1                 3.566  1.547E+02  2.993E+00
      163.1                 3.569  1.873E+02  2.137E+00
      163.1                 3.571  1.927E+02  2.707E+00
      163.1                 3.573  1.919E+02  2.707E+00
      163.1                 3.575  1.830E+02  3.706E+00
      163.1                 3.577  1.772E+02  2.565E+00
      163.1                 3.579  1.736E+02  3.135E+00
      163.1                 3.581  1.706E+02  2.850E+00
      163.1                 3.583  1.693E+02  3.564E+00
      163.1                 3.585  1.732E+02  2.566E+00
      163.1                 3.587  1.622E+02  2.708E+00
      163.1                 3.591  1.657E+02  2.993E+00
      163.1                 3.595  1.670E+02  2.423E+00
      163.1                 3.599  1.652E+02  2.851E+00
      163.1                 3.602  1.651E+02  2.850E+00
      163.1                 3.607  1.651E+02  2.993E+00
      163.1                 3.611  1.644E+02  2.993E+00
      163.1                 3.615  1.643E+02  2.708E+00
      163.1                 3.619  1.596E+02  2.422E+00
      173.3                 3.520  1.874E+02  3.078E+00
      173.3                 3.524  1.845E+02  2.885E+00
      173.3                 3.528  1.819E+02  3.077E+00
      173.3                 3.532  1.808E+02  3.270E+00
      173.3                 3.536  1.781E+02  3.462E+00
      173.3                 3.540  1.759E+02  3.271E+00
      173.3                 3.542  1.754E+02  2.887E+00
      173.3                 3.545  1.761E+02  2.886E+00
      173.3                 3.546  1.717E+02  3.463E+00
      173.3                 3.548  1.711E+02  3.654E+00
      173.3                 3.550  1.769E+02  3.270E+00
      173.3                 3.552  1.730E+02  2.886E+00
      173.3                 3.554  1.678E+02  3.078E+00
      173.3                 3.556  1.595E+02  3.270E+00
      173.3                 3.558  1.503E+02  2.886E+00
      173.3                 3.560  1.437E+02  2.887E+00
      173.3                 3.562  1.414E+02  3.463E+00
      173.3                 3.566  1.889E+02  3.848E+00
      173.3                 3.568  2.099E+02  2.693E+00
      173.3                 3.570  2.230E+02  3.846E+00
      173.3                 3.572  2.133E+02  3.270E+00
      173.3                 3.574  2.093E+02  3.078E+00
      173.3                 3.577  2.077E+02  3.654E+00
      173.3                 3.578  2.049E+02  3.270E+00
      173.3                 3.580  1.910E+02  2.885E+00
      173.3                 3.582  1.906E+02  3.657E+00
      173.3                 3.584  1.846E+02  3.847E+00
      173.3                 3.586  1.892E+02  3.462E+00
      173.3                 3.588  1.927E+02  3.848E+00
      173.3                 3.590  1.838E+02  3.463E+00
      173.3                 3.593  1.863E+02  3.270E+00
      173.3                 3.594  1.806E+02  3.655E+00
      173.3                 3.597  1.871E+02  3.461E+00
      173.3                 3.600  1.867E+02  3.463E+00
      173.3                 3.604  1.932E+02  3.271E+00
      173.3                 3.607  1.855E+02  3.848E+00
      173.3                 3.613  1.909E+02  3.848E+00
      173.3                 3.616  1.847E+02  3.272E+00
      173.3                 3.620  1.895E+02  3.654E+00
ENDDATA            301
ENDSUBENT          311
ENDENTRY             2
