ENTRY            C2813   20220918   20240315   20240315       C229
SUBENT        C2813001   20220918   20240315   20240315       C229
BIB                  8         12
TITLE      Spectroscopy of 14C from the 11B(alpha,p) 14C
           reaction at 118 MeV
AUTHOR     (P.R.Andrews,B.M.Spicer,G.G.Shute,V.C.Officer,
           J.M.R.Wastell, H.Nann,Q.Li,A.D.Bacher,D.L.Friesel,
           W.P.Jones)
INSTITUTE  (1USAINU,3AULAML)
REFERENCE  (J,NP/A,468,43,1987)
           #doi:10.1016/0375-9474(87)90318-6
FACILITY   (CYCLO,1USAINU)
DETECTOR   (SPEC) The QDDM spectrograph system
ADD-RES    (COMP) Model distorted wave Born approximation.
HISTORY    (20220903C) OG
ENDBIB              12
COMMON               1          3
EN
MEV
118.1
ENDCOMMON            3
ENDSUBENT           19
SUBENT        C2813002   20220918   20240315   20240315       C229
BIB                  5         26
REACTION   (5-B-11(A,P)6-C-14,PAR,DA)
LEVEL-PROP (6-C-14,E-LVL=6.09,SPIN=1.,PARITY=-1.)
           (6-C-14,E-LVL=6.59,SPIN=0.,PARITY=+1.)
           (6-C-14,E-LVL=6.73,SPIN=3.,PARITY=-1.)
           (6-C-14,E-LVL=7.01,SPIN=2.,PARITY=+1.)
           (6-C-14,E-LVL=8.32,SPIN=2.,PARITY=+1.)
           (6-C-14,E-LVL=9.80,SPIN=3.,PARITY=-1.)
           (6-C-14,E-LVL=10.43,SPIN=2.,PARITY=+1.)
           (6-C-14,E-LVL=10.44)
           (6-C-14,E-LVL=10.74,SPIN=4.,PARITY=+1.)
           (6-C-14,E-LVL=11.38,SPIN=1.,PARITY=-1.)
           (6-C-14,E-LVL=11.67)
           (6-C-14,E-LVL=11.74)
           (6-C-14,E-LVL=14.67)
           (6-C-14,E-LVL=14.87,SPIN=5.,PARITY=-1.)
           (6-C-14,E-LVL=15.20,SPIN=4.,PARITY=-1.)
           (6-C-14,E-LVL=16.44,SPIN=4.,PARITY=-1.)
           (6-C-14,E-LVL=16.72)
           (6-C-14,E-LVL=17.28,SPIN=4.,PARITY=-1.)
           (6-C-14,E-LVL=21.40)
SAMPLE     The target consisted of a self-supporting 11B foil with
           a thickness of 0.38 mg/cm2.
           (5-B-11,ENR=0.98)
ERR-ANALYS No information on uncertainties.
STATUS     (CURVE,,P.R.Andrews+,J,NP/A,468,43,1987) Figs.2-9
           digitized by GSYS-2.4.9.
ENDBIB              26
NOCOMMON             0          0
DATA                 3        183
E-LVL      ANG-CM     DATA-CM
MEV        ADEG       MU-B/SR
       6.09      7.462  2.862E+00
       6.09      9.492  2.071E+00
       6.09     11.973  1.705E+00
       6.09     14.398  1.233E+00
       6.09     16.710  9.117E-01
       6.09     18.796  6.597E-01
       6.09     21.446  4.105E-01
       6.09     24.715  1.592E-01
       6.09     28.262  2.502E-02
       6.09     32.994  3.685E-03
       6.09     38.802  1.458E-03
       6.59      7.425  8.222E+00
       6.59      9.609  6.507E+00
       6.59     11.793  4.829E+00
       6.59     14.436  4.074E+00
       6.59     16.621  3.277E+00
       6.59     18.704  2.552E+00
       6.59     21.450  2.224E+00
       6.59     24.700  1.522E+00
       6.59     32.833  8.237E-01
       6.59     38.825  3.649E-01
       6.73      7.260  4.125E+01
       6.73      9.514  3.768E+01
       6.73     11.766  3.234E+01
       6.73     14.302  2.902E+01
       6.73     16.555  2.535E+01
       6.73     18.692  2.027E+01
       6.73     21.451  1.693E+01
       6.73     24.543  1.163E+01
       6.73     28.592  7.176E+00
       6.73     32.806  4.014E+00
       6.73     38.766  1.980E+00
       7.01      7.428  2.715E+01
       7.01      9.595  2.599E+01
       7.01     11.765  2.193E+01
       7.01     14.274  2.100E+01
       7.01     16.558  1.772E+01
       7.01     18.673  1.442E+01
       7.01     21.412  1.239E+01
       7.01     24.555  9.221E+00
       7.01     28.442  6.160E+00
       7.01     32.619  3.467E+00
       7.01     38.689  1.278E+00
       8.32      7.432  1.515E+01
       8.32      9.541  1.347E+01
       8.32     11.481  1.145E+01
       8.32     14.501  1.010E+01
       8.32     16.554  8.979E+00
       8.32     18.778  7.700E+00
       8.32     21.346  6.085E+00
       8.32     24.598  4.432E+00
       8.32     28.361  3.602E+00
       8.32     32.470  2.353E+00
       8.32     38.406  1.259E+00
      10.43      7.645  1.295E+01
      10.43      9.836  1.083E+01
      10.43     12.029  1.022E+01
      10.43     14.629  9.471E+00
      10.43     16.871  7.844E+00
      10.43     19.216  6.871E+00
      10.43     21.662  5.797E+00
      10.43     24.869  3.797E+00
      10.43     28.688  2.486E+00
      10.43     32.761  1.496E+00
      10.43     38.821  7.743E-01
      10.74      8.802  6.050E+01
      10.74     10.879  5.418E+01
      10.74     13.115  5.047E+01
      10.74     15.706  4.622E+01
      10.74     17.990  4.203E+01
      10.74     20.045  3.184E+01
      10.74     22.718  2.505E+01
      10.74     25.890  1.817E+01
      10.74     29.671  1.285E+01
      10.74     33.947  8.045E+00
      10.74     39.850  3.312E+00
      11.38      7.222  7.457E+00
      11.38      9.530  6.186E+00
      11.38     11.670  5.968E+00
      11.38     14.203  4.570E+00
      11.38     16.342  3.825E+00
      11.38     18.596  3.996E+00
      11.38     21.242  3.257E+00
      11.38     24.562  1.980E+00
      11.38     28.391  1.599E+00
      11.38     32.727  1.349E+00
      11.38     38.861  6.115E-01
      11.67      7.405  8.113E+01
      11.67      9.527  8.033E+01
      11.67     11.952  7.873E+01
      11.67     14.377  7.730E+01
      11.67     16.620  7.578E+01
      11.67     18.683  7.554E+01
      11.67     21.348  7.195E+01
      11.67     24.682  6.980E+01
      11.67     28.440  6.685E+01
      11.67     32.563  6.469E+01
      11.67     38.622  5.855E+01
      11.74      7.563  6.124E+02
      11.74      9.686  6.068E+02
      11.74     11.808  5.988E+02
      11.74     14.477  5.908E+02
      11.74     16.720  5.828E+02
      11.74     19.023  5.565E+02
      11.74     21.569  5.405E+02
      11.74     24.842  5.134E+02
      11.74     28.539  4.879E+02
      11.74     32.601  4.607E+02
      11.74     38.604  4.304E+02
      14.67      7.480  2.542E+01
      14.67      9.735  2.242E+01
      14.67     11.880  2.261E+01
      14.67     14.464  1.890E+01
      14.67     16.664  1.683E+01
      14.67     19.083  1.511E+01
      14.67     21.558  1.309E+01
      14.67     24.855  9.835E+00
      14.67     28.704  7.792E+00
      14.67     33.543  6.339E+00
      14.67     38.711  4.354E+00
      14.87      7.173  7.952E+02
      14.87      9.871  7.869E+02
      14.87     12.132  7.768E+02
      14.87     14.319  7.695E+02
      14.87     16.361  7.612E+02
      14.87     18.914  7.465E+02
      14.87     21.249  7.327E+02
      14.87     25.042  7.079E+02
      14.87     28.398  6.895E+02
      14.87     32.994  6.619E+02
      14.87     38.757  6.251E+02
      15.02      7.157  4.046E+04
      15.02      9.489  4.019E+04
      15.02     11.677  3.973E+04
      15.02     14.375  3.900E+04
      15.02     16.781  3.845E+04
      15.02     19.550  3.846E+04
      15.02     21.520  3.689E+04
      15.02     24.730  3.505E+04
      15.02     28.522  3.358E+04
      15.02     33.046  3.055E+04
      15.02     38.884  2.576E+04
      16.44      7.603  4.589E+01
      16.44      9.806  4.829E+01
      16.44     12.169  4.377E+01
      16.44     14.809  4.255E+01
      16.44     17.061  3.658E+01
      16.44     19.756  3.525E+01
      16.44     21.785  2.801E+01
      16.44     25.025  2.223E+01
      16.44     28.759  1.703E+01
      16.44     33.373  1.304E+01
      16.44     39.132  6.836E+00
      16.72      7.139  2.121E+01
      16.72      9.505  2.065E+01
      16.72     11.926  1.890E+01
      16.72     14.402  1.685E+01
      16.72     16.768  1.424E+01
      16.72     19.464  1.215E+01
      16.72     21.444  1.009E+01
      16.72     24.415  7.876E+00
      16.72     28.377  7.083E+00
      16.72     33.109  5.017E+00
      17.28      7.362  4.557E+03
      17.28      9.548  4.755E+03
      17.28     11.791  4.556E+03
      17.28     14.579  4.349E+03
      17.28     16.821  4.086E+03
      17.28     19.061  3.719E+03
      17.28     21.362  3.353E+03
      17.28     24.939  3.185E+03
      17.28     28.579  3.137E+03
      17.28     33.429  2.841E+03
      21.40      7.201  9.977E+01
      21.40      9.339  9.875E+01
      21.40     11.782  9.760E+01
      21.40     14.226  9.581E+01
      21.40     16.569  9.132E+01
      21.40     19.217  8.774E+01
      21.40     21.561  8.261E+01
      21.40     25.125  7.915E+01
      21.40     28.589  7.339E+01
      21.40     33.582  6.095E+01
ENDDATA            185
ENDSUBENT          216
ENDENTRY             2
