ENTRY            C2822   20220930   20240315   20240315       C229
SUBENT        C2822001   20220930   20240315   20240315       C229
BIB                 10         21
TITLE      Al(alpha,alpha')Al* compound-nucleus reactions
AUTHOR     (J.Benveniste,G.Merkel,A.Mitchell)
INSTITUTE  (1USALRL)
           (1USAUSA) Physics International Company, San Leandro,
           California 94577
           (1USAUSA) Electromagnetic Effects Laboratory, U. 8.Army
           MERDC Fort Belvoir, Virginia 22060
REFERENCE  (J,PR/C,2,500,1970)
           #doi:10.1103/PhysRevC.2.500
FACILITY   (CYCLO,1USALRL)
DETECTOR   (PROPC) The dE/dx*E detection system. The dE/dx was
           proportional counter.
REL-REF    (M,,J.Benveniste+,J,PR,141,980,1966)
SAMPLE     The 1-mg/cm2 Al target foil. A Mylar foil and a
           polyethylene foil were mounted in the target holder
           in order to detect and properly compensate for
           hydrocarbon presence in the Al target.
COMMENT    Compiler's comment: Alpha-particle energy spectra
           obtained at various lab angles, presented in this
           article, are not suitable for digitization.
HISTORY    (20220930C) OG
ENDBIB              21
NOCOMMON             0          0
ENDSUBENT           24
SUBENT        C2822002   20220930   20240315   20240315       C229
BIB                  3          4
REACTION   (13-AL-27(A,X)2-HE-4,,DA/DE)
ERR-ANALYS (DATA-ERR) No information on source of uncertainties
STATUS     (CURVE,,J.Benveniste+,J,PR/C,2,500,1970) Figs.5-6
           were digitized by GSYS-2.4.9.
ENDBIB               4
NOCOMMON             0          0
DATA                 6         75
EN         E-MIN      E-MAX      ANG-CM     DATA-CM    DATA-ERR
MEV        MEV        MEV        ADEG       MB/SR/MEV  MB/SR/MEV
       20.0       5.96       7.96     36.540      6.559      0.178
       20.0       5.96       7.96     48.682      5.487      0.178
       20.0       5.96       7.96     60.642      4.659      0.101
       20.0       5.96       7.96     72.411      4.255      0.085
       20.0       5.96       7.96     82.995      4.020      0.110
       20.0       5.96       7.96     94.246      3.861      0.101
       20.0       5.96       7.96    104.142      3.922      0.084
       20.0       5.96       7.96    114.015      4.380      0.127
       20.0       5.96       7.96    123.052      4.795      0.110
       20.0       5.96       7.96    132.413      5.414      0.101
       20.0       5.96       7.96    140.758      6.193      0.102
       20.0       5.96       7.96    148.257      7.091      0.144
       20.0       5.96       7.96    156.431      7.930      0.118
       20.0       5.96       7.96    164.268      8.785      0.228
       20.0       5.96       7.96    170.953      9.243      0.228
       20.0        7.7        9.7     36.367      6.141      0.387
       20.0        7.7        9.7     48.080      4.866      0.293
       20.0        7.7        9.7     59.804      3.850      0.181
       20.0        7.7        9.7     71.044      3.608      0.215
       20.0        7.7        9.7     81.943      3.323      0.129
       20.0        7.7        9.7     92.336      3.193      0.146
       20.0        7.7        9.7    102.738      3.321      0.112
       20.0        7.7        9.7    112.637      3.655      0.172
       20.0        7.7        9.7    122.029      4.102      0.155
       20.0        7.7        9.7    131.250      4.549      0.155
       20.0        7.7        9.7    139.624      5.133      0.189
       20.0        7.7        9.7    148.174      5.846      0.181
       20.0        7.7        9.7    156.731      6.766      0.224
       20.0        7.7        9.7    164.434      7.626      0.224
       20.0        7.7        9.7    171.948      7.996      0.224
       20.0       9.45      11.45     35.448      6.497      0.392
       20.0       9.45      11.45     47.323      4.714      0.351
       20.0       9.45      11.45     59.160      3.509      0.279
       20.0       9.45      11.45     69.936      3.015      0.206
       20.0       9.45      11.45     81.082      3.048      0.217
       20.0       9.45      11.45     91.434      2.833      0.144
       20.0       9.45      11.45    101.575      2.742      0.155
       20.0       9.45      11.45    111.305      2.744      0.103
       20.0       9.45      11.45    120.816      2.993      0.113
       20.0       9.45      11.45    130.505      3.593      0.093
       20.0       9.45      11.45    138.772      4.265      0.103
       20.0       9.45      11.45    147.211      5.381      0.134
       20.0       9.45      11.45    156.045      6.663      0.144
       20.0       9.45      11.45    163.694      7.469      0.299
       20.0       9.45      11.45    172.147      8.378      0.413
       27.5       9.96      10.96     36.507      5.413      0.200
       27.5       9.96      10.96     48.198      4.293      0.164
       27.5       9.96      10.96     59.911      3.518      0.109
       27.5       9.96      10.96     70.744      3.162      0.109
       27.5       9.96      10.96     83.022      2.769      0.109
       27.5       9.96      10.96     93.142      2.604      0.109
       27.5       9.96      10.96    102.730      2.603      0.182
       27.5       9.96      10.96    113.417      2.828      0.091
       27.5       9.96      10.96    122.483      3.172      0.109
       27.5       9.96      10.96    132.108      3.789      0.082
       27.5       9.96      10.96    142.823      4.488      0.127
       27.5       9.96      10.96    148.660      5.287      0.082
       27.5       9.96      10.96    157.026      6.031      0.173
       27.5       9.96      10.96    164.492      6.848      0.209
       27.5       9.96      10.96    172.867      7.728      0.236
       27.5       11.7       12.7     36.183      3.866      0.096
       27.5       11.7       12.7     48.036      3.183      0.106
       27.5       11.7       12.7     59.251      2.511      0.096
       27.5       11.7       12.7     70.913      2.126      0.128
       27.5       11.7       12.7     81.522      1.890      0.117
       27.5       11.7       12.7     91.941      1.973      0.106
       27.5       11.7       12.7    102.142      1.982      0.106
       27.5       11.7       12.7    111.713      2.097      0.096
       27.5       11.7       12.7    122.781      2.340      0.138
       27.5       11.7       12.7    131.527      2.796      0.106
       27.5       11.7       12.7    139.836      3.103      0.106
       27.5       11.7       12.7    148.159      3.591      0.128
       27.5       11.7       12.7    156.074      4.323      0.106
       27.5       11.7       12.7    163.988      5.045      0.096
       27.5       11.7       12.7    172.525      5.565      0.181
ENDDATA             77
ENDSUBENT           86
ENDENTRY             2
