ENTRY            C2864   20221221   20240405   20240405       C234
SUBENT        C2864001   20221221   20240405   20240405       C234
BIB                  9         16
TITLE      16,18O(alpha,6He)14,16O reactions
AUTHOR     (A.VanderMolen,F.D.Becchetti,J.Janecke,L.Chua)
INSTITUTE  (1USAMHG)
REFERENCE  (J,PR/C,11,734,1975)
           #doi:10.1103/PhysRevC.11.734
FACILITY   (CYCLO,1USAMHG) The 2 m variable energy cyclotron
DETECTOR   (TELES,PROPC,SOLST) Reaction products were detected at
           large angles (>= 21 deg. lab) with a dE-E solid-state
           counter telescope system. At small angles (<=21 deg.
           lab) data were obtained using a magnetic spectrometer
           with a solid-state or gas-proportional position
           sensitive counter in the focal plane.
SAMPLE     Targets consisted of oxidized nickel foils
            (140 mu-g/cm2 18O and 450 mu-g/cm2 Ni).
ADD-RES    (COMP) DWBA calculations.
HISTORY    (20221221C) OG
ENDBIB              16
NOCOMMON             0          0
ENDSUBENT           19
SUBENT        C2864002   20221221   20240405   20240405       C234
BIB                  5          9
REACTION   (8-O-18(A,2-HE-6)8-O-16,PAR,DA)
EN-SEC     (E-LVL,8-O-16)
LEVEL-PROP (8-O-16,E-LVL=0.,SPIN=0.,PARITY=+1.)
           (8-O-16,E-LVL=6.05,SPIN=0.,PARITY=+1.)
           (8-O-16,E-LVL=6.13,SPIN=3.,PARITY=-1.)
           (8-O-16,E-LVL=6.92,SPIN=2.,PARITY=+1.)
           (8-O-16,E-LVL=7.12,SPIN=1.,PARITY=-1.)
ERR-ANALYS (DATA-ERR) No information on source of uncertainties.
STATUS     (CURVE,,A.VanderMolen+,J,PR/C,11,734,1975) Fig.2
ENDBIB               9
COMMON               1          3
EN
MEV
58.
ENDCOMMON            3
DATA                 5         58
E-LVL      E-LVL      ANG-CM     DATA-CM    DATA-ERR
MEV        MEV        ADEG       MB/SR      MB/SR
         0.                 0.006  1.989E+02  2.513E+01
         0.                 1.861  4.840E+01  9.593E+00
         0.                 3.072  7.709E+01  1.788E+01
         0.                 7.353  1.559E+01  2.919E+00
         0.                 9.229  6.592E+00  1.175E+00
         0.                12.451  4.779E+00  5.519E-01
         0.                15.363  8.594E+00  1.364E+00
         0.                15.426  3.967E+00  1.048E+00
         0.                19.012  9.454E+00  1.294E+00
         0.                21.876  4.373E+01  5.518E+00
         0.                24.195  3.415E+01  5.039E+00
         0.                25.404  5.308E+01  8.919E+00
         0.                27.066  3.853E+01  5.269E+00
         0.                29.375  2.661E+01  3.922E+00
         0.                31.282  1.627E+01  2.565E+00
         0.                34.560  2.232E+01  3.536E+00
         0.                38.793  1.147E+01  1.568E+00
         0.                44.471  1.564E+00  6.962E-01
         0.                50.348  9.340E+00  1.474E+00
         0.                57.004  1.247E+01  1.970E+00
         0.                63.495  1.111E+01  1.755E+00
         0.                69.005  1.946E+01  3.663E+00
       6.05       6.13      0.316  1.369E+01  1.785E+00
       6.05       6.13     20.392  4.272E+00  1.087E+00
       6.05       6.13     22.442  5.886E+00  1.060E+00
       6.05       6.13     24.784  1.767E+01  3.217E+00
       6.05       6.13     27.938  6.273E+00  1.095E+00
       6.05       6.13     30.752  2.574E+01  6.343E+00
       6.05       6.13     33.046  2.267E+01  6.960E+00
       6.05       6.13     35.139  1.979E+01  3.280E+00
       6.05       6.13     39.918  1.421E+01  2.198E+00
       6.05       6.13     46.644  1.411E+01  2.344E+00
       6.05       6.13     52.869  1.402E+01  2.443E+00
       6.05       6.13     59.029  8.146E+00  1.354E+00
       6.05       6.13     65.311  1.318E+01  2.398E+00
       6.92                24.546  2.322E+00  4.594E-01
       6.92                27.070  3.263E+00  6.461E-01
       6.92                29.680  4.430E+00  7.846E-01
       6.92                31.766  7.024E+00  1.607E+00
       6.92                34.487  6.099E+00  8.994E-01
       6.92                36.404  5.928E+00  9.320E-01
       6.92                40.408  5.226E+00  7.172E-01
       6.92                47.008  5.692E+00  9.534E-01
       6.92                53.953  3.063E+00  4.824E-01
       6.92                60.467  1.941E+00  3.200E-01
       6.92                66.115  9.439E-01  3.868E-01
       7.12                 0.003  8.528E+00  1.178E+00
       7.12                23.522  4.507E+00  8.952E-01
       7.12                26.818  4.344E+00  7.305E-01
       7.12                29.563  4.117E+00  9.464E-01
       7.12                31.383  3.521E+00  2.040E+00
       7.12                34.316  3.575E+00  9.763E-01
       7.12                35.811  5.086E+00  1.115E+00
       7.12                40.579  5.338E+00  8.428E-01
       7.12                46.542  1.824E+00  6.427E-01
       7.12                53.719  2.630E+00  4.156E-01
       7.12                59.486  7.764E-01  1.543E-01
       7.12                66.537  7.273E-01  3.636E-01
ENDDATA             60
ENDSUBENT           78
ENDENTRY             2
