ENTRY            M0055   20121030   20130328   20130315       M065
SUBENT        M0055001   20121030   20130328   20130315       M065
BIB                 13         24
TITLE      Radiative transitions accompanying photofission
            of lithium.
AUTHOR     (B.S.Ishkhanov,Yu.A.Novikov,I.M.Piskarev)
INSTITUTE  (4RUSMOS)
REFERENCE  (J,YF,33,28,1981)
           (J,SNP,33,15,1981) - Eng.trans.of YF,33,28,198
FACILITY   (BETAT,4RUSMOS)
INC-SOURCE (BRST)
METHOD     (EXTB,SITA)
PART-DET   (G)
DETECTOR   (GELI)
ERR-ANALYS (ERR-S) Statistical errors only.
COMMENT    Photon spectra from the reaction 7-Li(gamma,gamma') are
           investigated in the bremsstrahlung gamma-ray beam at
           the bremsstrahlung end point energies  of 27 and 31 MeV
STATUS     (APRVD) by I.M.Piskarev.
           (TABLE) Data from authors.
HISTORY    (19831208C)
           (19910202A) Corrected by V.Varlamov, V.Mclane
           (20121030A) SD: Updated to new date formats,lower case.
                Corrected according last EXFOR rules and Dict.
                Ref. on transl. was added.
                       VV: REACTION code and DATA-UNITS in SUBENT
                002 were corrected.
ENDBIB              24
COMMON               1          3
ANG
ADEG
   135.
ENDCOMMON            3
ENDSUBENT           31
SUBENT        M0055002   20121030   20130328   20130315       M065
BIB                  2          2
REACTION   (3-LI-7(G,EL)3-LI-7,,DE,,BRA/REL)
HISTORY    (20121029A) VV: REACTION code: BRS -> BRA.
ENDBIB               2
COMMON               1          3
EN-MAX
MEV
    31.
ENDCOMMON            3
DATA                 3        169
E          DATA       ERR-S
MEV        ARB-UNITS  ARB-UNITS
     2.02     410.        16.
     2.03     387.        17.
     2.04     397.        17.
     2.05     400.        20.
     2.06     388.        18.
     2.07     363.        20.
     2.08     392.        20.
     2.09     386.        19.
     2.1      396.        17.
     2.11     396.        17.
     2.12     382.        18.
     2.13     363.        18.
     2.14     375.        18.
     2.15     365.        17.
     2.16     356.        18.
     2.17     381.        16.
     2.18     356.        19.
     2.19     331.        18.
     2.2      352.        16.
     2.21     331.        16.
     2.22     365.        17.
     2.23     400.        17.
     2.24     404.        17.
     2.25     414.        18.
     2.26     392.        16.
     2.27     375.        17.
     2.28     344.        21.
     2.29     328.        17.
     2.3      335.        21.
     2.31     350.        18.
     2.32     330.        18.
     2.33     347.        17.
     2.335    335.        16.
     2.34     337.        16.
     2.35     321.        13.
     2.36     327.        15.
     2.37     300.        14.
     2.38     302.        14.
     2.39     318.        16.
     2.4      309.        12.
     2.41     288.        14.
     2.42     273.        14.
     2.43     262.        13.
     2.44     277.        11.
     2.45     285.        14.
     2.46     268.        15.
     2.47     298.        14.
     2.48     277.        14.
     2.49     243.        15.
     2.5      254.        14.
     2.51     263.        14.
     2.52     278.        13.
     2.53     259.        13.
     2.54     270.        14.
     2.55     244.        14.
     2.56     246.        14.
     2.57     251.        15.
     2.58     231.        14.
     2.59     282.        13.
     2.6      264.        13.
     2.61     330.        15.
     2.62     390.        19.
     2.63     295.        16.
     2.64     253.        15.
     2.65     212.        14.
     2.66     220.        12.
     2.67     210.        12.
     2.68     227.        12.
     2.69     201.        12.
     2.7      210.        12.
     2.99    1410.        42.
     3.1     1391.        40.
     3.12    1293.        40.
     3.15    1307.        40.
     3.21    1204.        44.
     3.27    1274.        42.
     3.32    1247.        39.
     3.38    1165.        43.
     3.44    1247.        37.
     3.49    1297.        38.
     3.54    1176.        43.
     3.60    1043.        36.
     3.65     913.        31.
     3.71     903.        35.
     3.77     835.        33.
     3.82     767.        37.
     3.88     728.        38.
     3.94     734.        35.
     3.99     732.        33.
     4.04     731.        31.
     4.09     738.        30.
     4.16     643.        33.
     4.21     637.        33.
     4.27     671.        30.
     4.33     663.        30.
     4.38     638.        31.
     4.43     568.        30.
     4.48     572.        28.
     4.55     514.        21.
     4.6      499.        27.
     4.66     569.        27.
     4.71     550.        29.
     4.76     487.        33.
     4.82     489.        25.
     4.87     453.        21.
     4.93     459.        22.
     4.99     445.        29.
     5.05     413.        27.
     5.09     450.        27.
     5.15     453.        29.
     5.21     458.        24.
     5.27     487.        22.
     5.32     455.        27.
     5.37     373.        23.
     5.43     389.        22.
     5.49     389.        26.
     5.54     392.        18.
     5.59     405.        24.
     5.65     441.        23.
     5.71     495.        28.
     5.76     439.        23.
     5.81     330.        24.
     5.87     303.        16.
     5.93     339.        24.
     5.98     313.        32.
     6.04     309.        28.
     6.1      298.        28.
     6.15     295.        25.
     6.22     293.        24.
     6.26     299.        24.
     7.21     275.        15.
     7.26     251.        13.
     7.37     227.        12.
     7.43     231.        14.
     7.49     213.        15.
     7.55     205.        15.
     7.61     190.        12.
     7.66     166.        13.
     7.71     137.        12.
     7.77     140.        13.
     7.83     155.        11.
     7.89     140.        11.
     7.94     114.        12.
     8.       127.        12.
     8.04     132.        12.
     8.1       91.         9.
     8.17     123.        10.
     8.22      90.        11.
     8.27      82.        10.
     8.33      93.        11.
     8.39      88.        10.
     8.44     106.        10.
     8.49     118.         9.
     8.57     102.         9.
     8.61      87.         9.
     8.67     100.         9.
     8.72      66.         8.
     8.78      71.        10.
     8.84      63.         9.
     8.9       49.         8.
     8.95      68.         6.
     9.01      56.         7.
     9.07      60.         9.
     9.13      71.         7.
     9.18      53.         8.
     9.25      47.         8.
     9.29      48.         8.
     9.35      46.         7.
     9.41      50.         7.
ENDDATA            171
ENDSUBENT          182
ENDENTRY             2
