ENTRY            C0081   19990415   19990429
SUBENT        C0081001   19990415   19990429
BIB                 13         38
INSTITUTE  (1CANTMF,1CANALA,1USAORE,1USAINU,1USAOSU,1USAVIR)
REFERENCE  (J,NP/A,483,429,1988)
           (C,80SANTA FE,,454,1980)
AUTHOR     (D.A.HUTCHEON,W.C.OLSEN,H.S.SHERIF,Y.DYMARZ,
           J.M.CAMERON,J.JOHANSSON,P.KITCHING,P.R.LILJESTRAND,
           W.J.MCDONALD,C.A.MILLER,G.C.NEILSON,D.M.SHEPPARD,
           D.K.MCDANIELS,J.R.TINSLEY,P.SCHWANDT,L.W.SWENSEN,
           C.E.STRONACH)
TITLE      The elastic scattering of intermediate energy protons
            from 40Ca and 208Pb.
FACILITY   (MESON,1CANTMF) The TRIUMF facility.
INC-SOURCE (POLIS) Polarized proton beam.  Typical polarization
            between 65% and 75% depending on energy.
           Energy resolution between 0.7 and 1.0 MeV depending on
            energy and intensity of beam.
METHOD     (EXTB,SITA)
DETECTOR   (MAGSP,SCIN) 1.5 GeV/c magnetic spectrometer with
            plastic scintillator between scattering chamber and
            spectrometer and thick scintillator beyond the focal
            plane of spectrometer.
MONITOR    Beam charge and polarization monitored by p-p
            scattering from CH2 target of an in-beam polarimeter.
ERR-ANALYS (DATA-ERR) No information on source of uncertainty
            given.
           The following uncertainties are estimated:
           . scattering angle: 3 mrad,
           . beam energy: 1 MeV,
           . beam charge: 3% relative, 5% absolute,
           . target thickness: 5%,
           . spectrometer efficiency corrections: 5% relative,
           . beam polarization: 0.02 relative.
ADD-RES    400 MeV data from 208Pb fitted by an optical model and
            compared with results of Impulse Approximation
            calculations.
STATUS     Data received from W.J. MacDonald by email, April,1999.
           (APRVD) Approved by W.J.MacDonald, April 14, 1999.
HISTORY    (19990203C)
           (19990414A) Reference and data updated
ENDBIB              38
NOCOMMON             0          0
ENDSUBENT           41
SUBENT        C0081002   19990415   19990429
BIB                  2          2
REACTION   (20-CA-0(P,EL)20-CA-0,,DA)
SAMPLE     Targets of natural calcium.
ENDBIB               2
NOCOMMON             0          0
DATA                 4        382
EN         ANG-CM     DATA-CM    DATA-ERR
MEV        ADEG       MB/SR      MB/SR
 200.         4.409    4.3475E+03 4.6940E+02
 200.         4.681    3.7276E+03 4.0290E+02
 200.         4.954    3.4157E+03 3.6960E+02
 200.         5.227    3.1403E+03 3.4000E+02
 200.         5.499    2.9747E+03 3.2230E+02
 200.         5.772    2.7809E+03 3.0160E+02
 200.         5.954    2.6512E+03 2.8690E+02
 200.         6.227    2.4667E+03 2.6710E+02
 200.         6.499    2.4440E+03 2.6470E+02
 200.         6.772    2.2224E+03 2.4090E+02
 200.         7.045    2.1270E+03 2.3080E+02
 200.         7.317    2.0287E+03 2.2020E+02
 200.         7.409    1.8801E+03 2.0440E+02
 200.         7.590    1.8614E+03 2.0230E+02
 200.         7.762    1.6661E+03 1.8150E+02
 200.         8.034    1.5310E+03 1.6710E+02
 200.         8.307    1.4830E+03 1.6190E+02
 200.         8.580    1.3360E+03 1.4620E+02
 200.         8.852    1.2098E+03 1.3270E+02
 200.         9.044    1.2120E+03 1.3320E+02
 200.         9.125    1.1215E+03 1.2330E+02
 200.         9.317    1.0033E+03 1.2000E+02
 200.         9.590    9.4550E+02 1.1350E+02
 200.         9.862    8.6220E+02 1.0460E+02
 200.        10.135    7.7710E+02 9.4900E+01
 200.        10.408    6.9410E+02 8.5200E+01
 200.        18.999    1.8942E+01 8.0803E-01
 200.        19.544    2.0030E+01 8.4498E-01
 200.        20.088    2.0214E+01 8.5346E-01
 200.        20.633    2.0854E+01 8.7912E-01
 200.        21.177    1.9934E+01 8.5240E-01
 200.        21.58     1.7810E+01 5.2800E-01
 200.        22.13     1.6740E+01 5.0600E-01
 200.        22.67     1.5600E+01 4.8100E-01
 200.        23.21     1.4240E+01 4.5200E-01
 200.        23.76     1.3090E+01 4.2300E-01
 200.        24.14     1.1940E+01 3.1000E-01
 200.        24.69     1.0880E+01 2.8800E-01
 200.        25.23     8.9120E+00 2.4500E-01
 200.        25.77     7.9050E+00 2.2200E-01
 200.        26.32     6.7380E+00 1.9500E-01
 200.        26.70     5.6650E+00 1.2440E-01
 200.        27.24     4.8630E+00 1.1110E-01
 200.        27.79     3.9900E+00 9.5900E-02
 200.        28.33     3.3650E+00 8.4900E-02
 200.        28.87     2.9270E+00 7.7400E-02
 200.        29.28     2.4200E+00 5.9000E-02
 200.        29.82     2.1150E+00 5.3700E-02
 200.        30.36     1.7730E+00 4.7900E-02
 200.        30.91     1.4700E+00 4.2600E-02
 200.        31.45     1.2820E+00 3.9300E-02
 200.        31.83     1.1600E+00 3.5200E-02
 200.        32.37     9.9060E-01 3.1900E-02
 200.        32.92     8.3850E-01 2.9000E-02
 200.        33.46     7.7430E-01 2.7600E-02
 200.        34.00     6.9010E-01 2.5800E-02
 200.        34.37     6.0540E-01 2.2100E-02
 200.        34.92     5.9850E-01 2.2000E-02
 200.        35.46     5.5580E-01 2.1100E-02
 200.        36.00     4.9490E-01 1.9800E-02
 200.        36.54     5.0870E-01 2.0200E-02
 200.        36.96     4.3560E-01 1.3300E-02
 200.        37.50     4.5780E-01 1.3700E-02
 200.        38.04     4.3460E-01 1.3300E-02
 200.        38.58     4.8560E-01 1.2800E-02
 200.        39.13     3.8170E-01 1.2400E-02
 200.        39.51     3.3070E-01 9.7500E-03
 200.        40.05     3.3190E-01 9.7200E-03
 200.        40.59     3.0920E-01 9.1600E-03
 200.        41.13     2.9630E-01 8.7600E-03
 200.        41.67     2.4980E-01 7.7200E-03
 200.        42.08     2.1180E-01 7.8100E-03
 200.        42.62     2.2310E-01 8.0400E-03
 200.        43.16     1.9430E-01 7.3100E-03
 200.        43.70     1.5560E-01 6.1600E-03
 200.        44.24     1.4610E-01 5.8900E-03
 200.        44.62     1.2080E-01 3.6400E-03
 200.        45.16     1.1150E-01 3.4400E-03
 200.        45.70     9.1250E-02 3.0200E-03
 200.        46.24     7.7050E-02 2.7300E-03
 200.        46.78     6.3020E-02 2.4100E-03
 200.        47.16     5.0350E-02 1.4800E-03
 200.        47.70     4.2310E-02 1.3400E-03
 200.        48.24     3.5910E-02 1.2200E-03
 200.        48.78     2.8760E-02 1.0800E-03
 200.        49.32     2.5300E-02 1.0100E-03
 200.        49.75     1.8540E-02 5.0400E-04
 200.        50.29     1.6960E-02 4.7900E-04
 200.        50.83     1.5640E-02 4.5500E-04
 200.        51.37     1.4350E-02 4.2700E-04
 200.        51.91     1.3310E-02 4.0300E-04
 200.        52.29     1.2040E-02 3.9000E-04
 200.        52.83     1.3570E-02 4.1900E-04
 200.        53.37     1.2780E-02 4.1000E-04
 200.        53.91     1.4240E-02 4.3600E-04
 200.        54.45     1.3600E-02 4.2600E-04
 300.         3.462    7.6717E+03 2.3435E+02
 300.         4.135    5.2731E+03 1.6874E+02
 300.         4.876    3.9713E+03 1.1719E+02
 300.         5.430    3.2674E+03 9.8443E+01
 300.         5.707    3.0537E+03 9.3758E+01
 300.         6.467    2.3207E+03 7.0324E+01
 300.         7.021    1.8605E+03 5.1575E+01
 300.         7.297    1.7020E+03 5.1577E+01
 300.         7.986    1.3421E+03 4.6893E+01
 300.         8.540    1.0458E+03 3.7517E+01
 300.         8.816    9.3704E+02 3.7519E+01
 300.         9.553    5.7224E+02 2.3452E+01
 300.        10.106    4.1374E+02 1.8764E+01
 300.        10.386    3.4621E+02 1.5012E+01
 300.        10.939    2.2708E+02 1.8767E+01
 300.        11.492    1.4640E+02 1.1261E+01
 300.        11.986    1.0606E+02 9.3855E+00
 300.        17.234    1.7200E+01 8.4590E-01
 300.        17.787    1.8613E+01 9.4006E-01
 300.        18.064    1.9649E+01 5.6409E-01
 300.        18.740    1.9560E+01 9.4037E-01
 300.        19.293    1.8435E+01 8.4649E-01
 300.        19.389    1.5125E+01 4.1486E-01
 300.        19.568    1.8719E+01 8.4658E-01
 300.        19.814    1.4456E+01 4.0379E-01
 300.        20.240    1.3103E+01 3.8103E-01
 300.        20.665    1.1137E+01 3.4622E-01
 300.        21.090    1.0218E+01 3.3026E-01
 300.        21.516    9.7098E+00 5.2965E-01
 300.        21.704    8.5665E+00 1.9751E-01
 300.        22.129    6.9128E+00 1.7061E-01
 300.        22.554    5.7796E+00 1.5293E-01
 300.        22.979    4.7697E+00 1.3567E-01
 300.        23.404    3.6287E+00 1.1598E-01
 300.        23.829    2.7568E+00 9.9325E-02
 300.        24.218    2.3174E+00 7.6654E-02
 300.        24.254    2.3393E+00 1.0946E-01
 300.        24.643    1.6368E+00 6.3980E-02
 300.        25.068    1.2917E+00 5.6584E-02
 300.        25.493    8.8998E-01 4.6848E-02
 300.        25.918    7.2209E-01 4.2530E-02
 300.        26.342    4.8768E-01 3.4693E-02
 300.        26.767    5.0755E-01 4.3354E-02
 300.        26.813    4.2001E-01 1.4027E-02
 300.        27.238    3.9248E-01 1.3409E-02
 300.        27.663    3.7618E-01 1.2931E-02
 300.        28.087    4.5110E-01 1.4265E-02
 300.        28.512    4.5373E-01 1.4324E-02
 300.        28.936    5.0979E-01 1.5384E-02
 300.        29.361    5.0176E-01 1.8120E-02
 300.        29.407    5.7303E-01 1.6417E-02
 300.        29.831    6.1275E-01 1.7141E-02
 300.        30.256    6.1132E-01 1.7102E-02
 300.        30.680    6.1216E-01 1.7132E-02
 300.        31.104    5.9518E-01 1.6842E-02
 300.        31.529    5.7133E-01 1.6411E-02
 300.        31.937    5.9196E-01 1.8737E-02
 300.        32.361    5.4658E-01 1.7692E-02
 300.        32.785    5.1314E-01 1.7030E-02
 300.        33.209    4.4239E-01 1.5498E-02
 300.        33.633    3.8045E-01 1.4063E-02
 300.        34.057    3.6448E-01 1.3721E-02
 300.        34.537    2.8808E-01 7.6703E-03
 300.        34.961    2.2124E-01 6.5182E-03
 300.        35.385    1.8967E-01 5.9626E-03
 300.        35.809    1.4323E-01 5.0406E-03
 300.        36.232    1.1407E-01 4.3760E-03
 300.        36.656    7.9410E-02 3.5874E-03
 300.        37.095    4.4387E-02 1.4653E-03
 300.        37.518    3.2848E-02 1.2615E-03
 300.        37.942    2.3435E-02 1.0630E-03
 300.        38.365    1.6324E-02 8.8836E-04
 300.        38.789    1.1825E-02 7.5767E-04
 300.        39.635    8.8237E-03 7.9295E-04
 300.        39.681    1.6324E-02 6.2850E-04
 300.        40.104    1.7810E-02 6.4350E-04
 300.        40.527    1.7028E-02 6.1738E-04
 300.        40.950    1.9415E-02 6.5570E-04
 300.        41.373    1.9341E-02 6.4553E-04
 300.        41.795    1.9812E-02 6.4949E-04
 300.        42.233    2.1244E-02 6.6621E-04
 300.        42.656    2.2075E-02 6.8043E-04
 300.        43.079    2.1741E-02 6.7587E-04
 300.        43.501    2.0451E-02 6.5370E-04
 300.        43.924    1.9527E-02 6.3638E-04
 300.        44.346    1.8209E-02 6.1376E-04
 300.        44.815    1.9917E-02 8.6848E-04
 300.        45.237    1.9551E-02 8.5198E-04
 300.        45.659    1.7839E-02 8.0536E-04
 300.        46.081    1.3654E-02 6.8017E-04
 300.        46.503    1.2447E-02 6.4343E-04
 300.        46.925    1.0597E-02 5.8400E-04
 300.        47.342    9.6009E-03 4.6504E-04
 300.        47.764    7.3578E-03 4.0005E-04
 300.        48.186    5.7553E-03 3.4937E-04
 300.        48.607    4.5262E-03 3.0782E-04
 300.        49.029    3.0498E-03 2.4943E-04
 300.        49.451    2.7154E-03 2.3560E-04
 400.         2.960    1.1441E+04 1.2360E+03
 400.         3.234    9.4401E+03 1.0220E+03
 400.         3.508    8.7038E+03 9.4200E+02
 400.         3.782    7.6296E+03 8.2700E+02
 400.         4.056    6.8000E+03 7.3800E+02
 400.         4.330    6.3827E+03 6.9300E+02
 400.         4.513    5.7156E+03 6.1600E+02
 400.         4.604    5.5640E+03 6.0500E+02
 400.         4.787    5.0673E+03 7.8000E+02
 400.         5.061    4.6183E+03 4.9800E+02
 400.         5.335    4.2792E+03 4.6200E+02
 400.         5.609    3.8188E+03 4.1300E+02
 400.         5.883    3.3888E+03 3.6700E+02
 400.         6.056    3.0072E+03 3.2600E+02
 400.         6.157    3.0198E+03 3.2700E+02
 400.         6.330    2.5897E+03 2.8100E+02
 400.         6.604    2.4270E+03 2.6400E+02
 400.         6.878    2.0646E+03 2.2500E+02
 400.         7.152    1.7451E+03 1.9100E+02
 400.         7.426    1.5406E+03 1.6900E+02
 400.         7.619    1.2793E+03 1.3900E+02
 400.         7.700    1.3106E+03 1.4400E+02
 400.         7.893    1.1110E+03 1.2100E+02
 400.         8.167    9.3560E+02 1.0300E+02
 400.         8.441    7.7070E+02 8.5000E+01
 400.        18.274    1.5340E+01 3.1676E-01
 400.        18.551    1.3539E+01 2.8415E-01
 400.        18.828    1.1772E+01 2.5335E-01
 400.        19.105    9.6583E+00 2.1744E-01
 400.        19.158    9.2203E+00 3.4990E-01
 400.        19.381    8.0340E+00 1.8831E-01
 400.        19.658    6.7847E+00 1.6639E-01
 400.        19.710    6.4480E+00 2.4900E-01
 400.        19.831    5.6730E+00 9.8824E-02
 400.        20.108    4.6272E+00 8.6097E-02
 400.        20.250    3.9190E+00 1.6500E-01
 400.        20.385    3.5151E+00 7.2359E-02
 400.        20.662    2.7869E+00 6.2900E-02
 400.        20.800    2.2470E+00 1.0800E-01
 400.        20.939    1.9968E+00 5.1869E-02
 400.        21.215    1.5679E+00 4.5316E-02
 400.        21.350    1.1880E+00 6.7300E-02
 400.        21.740    8.3540E-01 2.1700E-02
 400.        21.890    6.2200E-01 5.5280E-02
 400.        22.290    5.1760E-01 1.6600E-02
 400.        22.830    5.0560E-01 1.6500E-02
 400.        23.380    6.2050E-01 1.8900E-02
 400.        23.930    8.1440E-01 2.2200E-02
 400.        24.250    8.9600E-01 4.0000E-02
 400.        24.470    9.5990E-01 3.0450E-02
 400.        24.790    1.1170E+00 4.6100E-02
 400.        25.340    1.1970E+00 4.8800E-02
 400.        25.880    1.1830E+00 4.8500E-02
 400.        26.430    1.2010E+00 4.8900E-02
 400.        26.830    1.1110E+00 3.3800E-02
 400.        26.980    1.0940E+00 5.2880E-02
 400.        27.380    9.6070E-01 3.0400E-02
 400.        27.930    7.5310E-01 2.5800E-02
 400.        28.470    6.2100E-01 2.2900E-02
 400.        29.020    4.7990E-01 1.9400E-02
 400.        29.440    3.5541E-01 7.3580E-03
 400.        29.980    2.5440E-01 6.0110E-03
 400.        30.530    1.4945E-01 4.4440E-03
 400.        31.080    9.1640E-02 3.4190E-03
 400.        31.620    6.0050E-02 2.7520E-03
 400.        32.000    4.3090E-02 1.9300E-03
 400.        32.170    3.6620E-02 2.7230E-03
 400.        32.550    2.9000E-02 1.5600E-03
 400.        33.090    2.8020E-02 1.5300E-03
 400.        33.640    2.5470E-02 1.4500E-03
 400.        34.180    3.3980E-02 1.6800E-03
 400.        34.530    3.6590E-02 1.2700E-03
 400.        34.730    3.3080E-02 2.1160E-03
 400.        35.070    4.0370E-02 1.3200E-03
 400.        35.620    4.3470E-02 1.3700E-03
 400.        36.160    4.4020E-02 1.3800E-03
 400.        36.710    4.0520E-02 1.3300E-03
 400.        37.070    4.1290E-02 1.3400E-03
 400.        37.620    3.7930E-02 1.2700E-03
 400.        38.160    2.7430E-02 1.0800E-03
 400.        38.700    2.5010E-02 1.0300E-03
 400.        39.250    1.8810E-02 8.8600E-04
 400.        39.720    1.3740E-02 4.2000E-04
 400.        40.260    1.0230E-02 3.5400E-04
 400.        40.800    6.6340E-03 2.8100E-04
 400.        41.350    4.4290E-03 2.2700E-04
 400.        41.890    2.3540E-03 1.6300E-04
 400.        42.730    1.5360E-03 1.2000E-04
 400.        43.270    1.1030E-03 1.0700E-04
 400.        43.820    8.2800E-04 9.1900E-05
 400.        44.360    8.5110E-04 9.3790E-05
 400.        44.840    1.0090E-03 1.0160E-04
 400.        44.900    8.7290E-04 9.8200E-05
 400.        45.380    1.1880E-03 1.0900E-04
 400.        45.440    1.2570E-03 1.5090E-04
 400.        45.920    1.3860E-03 1.1900E-04
 400.        46.460    1.5680E-03 1.2800E-04
 400.        47.010    1.3800E-03 1.2000E-04
 400.        47.410    1.4800E-03 1.1300E-04
 400.        47.950    1.3280E-03 1.0500E-04
 400.        48.490    1.1410E-03 9.9500E-05
 400.        49.040    1.0280E-03 9.3400E-05
 400.        49.580    9.1500E-04 8.7900E-05
 400.        49.890    9.0100E-04 9.2000E-05
 400.        50.430    4.8200E-04 6.5400E-05
 400.        50.970    4.4900E-04 6.4000E-05
 400.        51.520    2.5590E-04 4.7400E-05
 400.        52.060    1.3320E-04 3.8800E-05
 500.         3.32     1.0900E+04 1.2530E+02
 500.         3.86     8.3890E+03 1.0680E+02
 500.         4.14     7.5520E+03 1.0210E+02
 500.         4.87     5.3550E+03 7.4270E+01
 500.         5.42     4.1010E+03 6.1270E+01
 500.         5.70     3.5120E+03 5.5710E+01
 500.         6.44     2.1710E+03 2.8780E+01
 500.         6.99     1.4110E+03 2.3210E+01
 500.         7.26     1.1280E+03 2.0430E+01
 500.         7.99     5.9070E+02 1.3000E+01
 500.         8.53     3.2230E+02 9.2880E+00
 500.         8.81     2.2570E+02 7.6170E+00
 500.         9.54     8.0820E+01 2.0440E+00
 500.        11.94     2.8160E+01 8.3660E-01
 500.        12.68     3.9330E+01 6.9730E-01
 500.        13.22     4.5190E+01 7.4390E-01
 500.        13.50     4.6120E+01 7.4390E-01
 500.        14.22     4.4460E+01 7.4410E-01
 500.        14.77     3.8790E+01 6.9770E-01
 500.        15.23     3.2470E+01 6.2340E-01
 500.        15.78     2.5500E+01 5.5830E-01
 500.        16.32     1.8340E+01 4.7470E-01
 500.        16.77     1.2850E+01 2.9790E-01
 500.        17.32     7.8210E+00 2.3280E-01
 500.        17.87     4.1810E+00 1.8630E-01
 500.        18.14     2.8870E+00 1.4900E-01
 500.        18.34     2.3900E+00 9.5940E-02
 500.        18.61     1.4950E+00 7.6140E-02
 500.        18.89     1.0700E+00 6.4850E-02
 500.        19.16     7.2740E-01 5.4080E-02
 500.        19.43     5.1830E-01 4.4730E-02
 500.        19.71     5.6600E-01 4.5940E-02
 500.        22.05     1.5900E+00 3.3130E-02
 500.        22.60     1.6760E+00 3.4060E-02
 500.        23.14     1.6510E+00 3.3790E-02
 500.        23.69     1.5120E+00 3.2230E-02
 500.        24.24     1.3040E+00 2.9790E-02
 500.        24.63     9.6880E-01 2.4960E-02
 500.        24.79     9.4410E-01 2.5150E-02
 500.        25.18     7.3350E-01 2.1520E-02
 500.        25.73     5.1790E-01 1.8050E-02
 500.        26.28     3.6260E-01 1.5020E-02
 500.        26.83     2.2210E-01 1.1710E-02
 500.        27.22     1.1000E-01 4.7360E-03
 500.        27.37     1.1080E-01 8.2410E-03
 500.        27.77     6.7670E-02 3.7140E-03
 500.        28.32     3.8600E-02 2.8040E-03
 500.        28.86     4.1980E-02 2.9220E-03
 500.        29.41     4.2440E-02 2.9360E-03
 500.        29.82     4.5890E-02 2.6590E-03
 500.        29.96     4.8680E-02 3.1440E-03
 500.        30.36     5.5600E-02 2.9320E-03
 500.        30.91     6.3430E-02 3.1120E-03
 500.        31.46     6.3060E-02 3.1330E-03
 500.        32.00     6.9380E-02 3.3020E-03
 500.        32.39     5.5510E-02 2.6130E-03
 500.        32.55     5.4720E-02 2.9250E-03
 500.        32.93     4.6210E-02 2.3840E-03
 500.        33.48     3.8400E-02 2.1730E-03
 500.        34.03     3.0010E-02 1.9200E-03
 500.        34.57     2.1670E-02 1.6300E-03
 500.        34.96     1.2990E-02 7.9800E-04
 500.        35.12     1.3840E-02 1.3020E-03
 500.        35.50     8.5030E-03 6.5330E-04
 500.        36.05     4.7610E-03 4.8900E-04
 500.        36.60     3.0260E-03 3.9900E-04
 500.        37.14     1.7570E-03 3.3700E-04
 500.        37.55     2.0810E-03 2.4700E-04
 500.        37.69     1.3540E-03 3.0120E-04
 500.        38.09     1.1660E-03 1.9100E-04
 500.        38.64     2.0680E-03 2.5000E-04
 500.        39.18     1.8510E-03 2.3900E-04
 500.        39.73     2.3960E-03 2.7000E-04
 500.        40.11     2.0150E-03 1.4600E-04
 500.        40.27     2.4960E-03 2.7850E-04
 500.        40.66     2.2620E-03 1.5800E-04
 500.        41.20     2.2140E-03 1.5400E-04
 500.        41.75     1.9400E-03 1.4400E-04
 500.        42.29     1.7640E-03 1.3900E-04
 500.        42.83     1.6820E-03 1.3500E-04
ENDDATA            384
ENDSUBENT          391
SUBENT        C0081003   19990415   19990429
BIB                  2          2
REACTION   (20-CA-0(P,EL)20-CA-0,,POL/DA,,ANA)
SAMPLE     Targets of natural calcium.
ENDBIB               2
NOCOMMON             0          0
DATA                 4        456
EN         ANG-CM     DATA       DATA-ERR
MEV        ADEG       NO-DIM     NO-DIM
 200.        4.409     0.2799     0.0186
 200.        4.681     0.3471     0.0196
 200.        4.954     0.3770     0.0204
 200.        5.227     0.4207     0.0210
 200.        5.499     0.4640     0.0214
 200.        5.772     0.5004     0.0219
 200.        5.954     0.5339     0.0184
 200.        6.045     0.5147     0.0227
 200.        6.227     0.5536     0.0188
 200.        6.499     0.6139     0.0185
 200.        6.772     0.5989     0.0196
 200.        7.045     0.6279     0.0198
 200.        7.317     0.6282     0.0202
 200.        7.489     0.6479     0.0203
 200.        7.590     0.6782     0.0207
 200.        7.762     0.6140     0.0220
 200.        8.034     0.6527     0.0229
 200.        8.307     0.6570     0.0229
 200.        8.580     0.6999     0.0240
 200.        8.852     0.6769     0.0256
 200.        9.044     0.6469     0.0533
 200.        9.125     0.7288     0.0261
 200.        9.317     0.6606     0.0611
 200.        9.590     0.6522     0.0630
 200.        9.862     0.6538     0.0672
 200.       10.135     0.7237     0.0680
 200.       10.408     0.7356     0.0700
 200.       10.600     0.8244     0.0592
 200.       10.680     0.6954     0.0776
 200.       10.872     0.8281     0.0641
 200.       11.145     0.8545     0.0705
 200.       11.417     0.8747     0.0780
 200.       11.690     0.8824     0.0879
 200.       11.963     0.8936     0.0919
 200.       12.155     1.0730     0.0682
 200.       12.235     0.9876     0.1048
 200.       12.427     1.1134     0.0831
 200.       12.700     1.1311     0.0819
 200.       12.972     1.1616     0.1014
 200.       13.245     1.1683     0.1154
 200.       13.517     1.2423     0.1183
 200.       13.679     1.0664     0.1256
 200.       13.790     1.2068     0.1472
 200.       13.951     1.0895     0.1511
 200.       14.224     1.0171     0.1825
 200.       14.496     0.9223     0.2544
 200.       14.769     0.7760     0.2713
 200.       15.041     0.6953     0.3347
 200.       15.223     0.8401     0.3841
 200.       15.495     0.3948     0.3664
 200.       15.768     0.2338     0.3643
 200.       16.040    -0.3989     0.4795
 200.       16.313    -0.5588     0.4556
 200.       16.585    -0.9466     0.5182
 200.       16.787    -0.5748     0.2609
 200.       17.060    -0.6303     0.2391
 200.       17.332    -0.5754     0.1981
 200.       17.604    -0.6576     0.1636
 200.       17.877    -0.7398     0.1673
 200.       18.149    -0.3188     0.1113
 200.       18.422    -0.2595     0.1029
 200.       18.999     0.0875     0.0706
 200.       19.544     0.2375     0.0696
 200.       20.088     0.3596     0.0692
 200.       20.633     0.4278     0.0688
 200.       21.177     0.5454     0.0690
 200.       21.58      0.6930     0.0480
 200.       22.13      0.7640     0.0490
 200.       22.67      0.8350     0.0500
 200.       23.21      0.9150     0.0510
 200.       23.76      0.9400     0.0520
 200.       24.14      0.9510     0.0380
 200.       24.69      0.9720     0.0390
 200.       25.23      0.9710     0.0410
 200.       25.77      0.9560     0.0420
 200.       26.32      0.9190     0.0430
 200.       26.70      0.9080     0.0370
 200.       27.24      0.9220     0.0390
 200.       27.79      0.8170     0.0410
 200.       28.33      0.6130     0.0440
 200.       28.87      0.5060     0.0460
 200.       29.28      0.3550     0.0400
 200.       29.82      0.2020     0.0420
 200.       30.36      0.0770     0.0440
 200.       30.81     -0.0310     0.0480
 200.       31.45     -0.1810     0.0500
 200.       31.83     -0.2440     0.0530
 200.       32.37     -0.1750     0.0560
 200.       32.92     -0.2350     0.0600
 200.       33.46     -0.1110     0.0620
 200.       34.00     -0.0510     0.0660
 200.       34.37     -0.0290     0.0650
 200.       34.92      0.1760     0.0650
 200.       35.46      0.4260     0.0670
 200.       36.00      0.6180     0.0710
 200.       36.54      0.7990     0.0700
 200.       36.96      0.8510     0.0520
 200.       37.50      0.9290     0.0510
 200.       38.04      1.0320     0.0520
 200.       38.58      1.0510     0.0530
 200.       39.13      1.0090     0.0560
 200.       39.51      1.0080     0.0430
 200.       40.05      0.9700     0.0430
 200.       40.59      0.9340     0.0440
 200.       41.13      0.8320     0.0440
 200.       41.67      0.7990     0.0460
 200.       42.08      0.7450     0.0540
 200.       42.62      0.7090     0.0530
 200.       43.16      0.6890     0.0560
 200.       43.70      0.4290     0.0600
 200.       44.24      0.3800     0.0610
 200.       44.62      0.3260     0.0500
 200.       45.16      0.2230     0.0520
 200.       45.70      0.0960     0.0560
 200.       46.24      0.1220     0.0590
 200.       46.78     -0.0920     0.0640
 200.       47.16     -0.1160     0.0520
 200.       47.70     -0.2310     0.0560
 200.       48.24     -0.2550     0.0600
 200.       48.78     -0.3230     0.0670
 200.       49.32     -0.3590     0.0710
 200.       49.75     -0.3070     0.0450
 200.       50.29     -0.2560     0.0470
 200.       50.83     -0.1300     0.0490
 200.       51.37      0.1140     0.0510
 200.       51.91      0.3590     0.0520
 200.       52.29      0.3810     0.0550
 200.       52.83      0.5310     0.0520
 200.       53.37      0.7050     0.0540
 200.       53.91      0.7980     0.0510
 200.       54.45      0.8260     0.0520
 300.       3.462      0.1710     0.0400
 300.       4.135      0.2440     0.0450
 300.       4.876      0.3710     0.0450
 300.       5.430      0.4400     0.0450
 300.       5.707      0.4480     0.0450
 300.       6.467      0.5540     0.0400
 300.       7.021      0.5590     0.0400
 300.       7.297      0.5590     0.0400
 300.       7.986      0.6280     0.0400
 300.       8.540      0.6410     0.0400
 300.       8.816      0.6330     0.0500
 300.       9.553      0.5900     0.0500
 300.      10.106      0.6500     0.0500
 300.      10.386      0.7000     0.0500
 300.      10.939      0.7100     0.0500
 300.      11.492      0.6200     0.0600
 300.      11.986      0.5400     0.0400
 300.      12.521      0.4300     0.0500
 300.      13.092      0.2700     0.0900
 300.      13.368      0.3200     0.0800
 300.      14.126     -0.3100     0.2500
 300.      14.678     -0.4200     0.2400
 300.      14.954     -0.3800     0.2600
 300.      15.687      0.1800     0.1200
 300.      16.240      0.6500     0.0900
 300.      16.516      0.7000     0.0600
 300.      17.234      0.9000     0.0500
 300.      17.787      0.9700     0.0400
 300.      18.064      1.0000     0.0400
 300.      18.740      1.0300     0.0600
 300.      19.293      0.9800     0.0600
 300.      19.389      0.9270     0.0497
 300.      19.568      0.9800     0.0600
 300.      19.814      0.9074     0.0507
 300.      20.240      0.8724     0.0530
 300.      20.665      0.8638     0.0562
 300.      21.090      0.8025     0.0596
 300.      21.516      0.7356     0.1014
 300.      21.704      0.8728     0.0406
 300.      22.129      0.6495     0.0448
 300.      22.555      0.6161     0.0484
 300.      22.979      0.4175     0.0527
 300.      23.404      0.3736     0.0593
 300.      23.829      0.2411     0.0678
 300.      24.218      0.0268     0.0624
 300.      24.254      0.0145     0.0923
 300.      24.643     -0.1718     0.0744
 300.      25.068     -0.2369     0.0835
 300.      25.493     -0.4257     0.1011
 300.      25.918     -0.8497     0.1146
 300.      26.342     -0.7598     0.1376
 300.      26.767     -0.9026     0.1654
 300.      26.813     -0.5752     0.0551
 300.      27.238     -0.4033     0.0570
 300.      27.663      0.0643     0.0614
 300.      28.087      0.3349     0.0554
 300.      28.512      0.6348     0.0548
 300.      28.936      0.8129     0.0518
 300.      29.361      0.9332     0.0625
 300.      29.407      0.8649     0.0475
 300.      29.831      0.9178     0.0466
 300.      30.256      0.8870     0.0466
 300.      30.680      0.9205     0.0465
 300.      31.104      0.9279     0.0471
 300.      31.529      0.9113     0.0476
 300.      31.937      0.8795     0.0519
 300.      31.953      0.9426     0.0570
 300.      32.361      0.8116     0.0526
 300.      32.785      0.8261     0.0540
 300.      33.209      0.7602     0.0574
 300.      33.633      0.5957     0.0608
 300.      34.057      0.5843     0.0630
 300.      34.481      0.5025     0.0818
 300.      34.537      0.5068     0.0418
 300.      34.961      0.4144     0.0466
 300.      35.385      0.3664     0.0499
 300.      35.809      0.2609     0.0564
 300.      36.232      0.0686     0.0626
 300.      36.656     -0.0557     0.0750
 300.      37.079     -0.4040     0.1017
 300.      37.095     -0.2919     0.0554
 300.      37.518     -0.4886     0.0622
 300.      37.942     -0.5455     0.0730
 300.      38.365     -0.7011     0.0874
 300.      38.788     -0.8563     0.1011
 300.      39.211     -0.9903     0.1101
 300.      39.635     -0.5430     0.1429
 300.      39.681     -0.5658     0.0601
 300.      40.104     -0.1755     0.0592
 300.      40.527      0.1420     0.0611
 300.      40.950      0.3097     0.0571
 300.      41.373      0.5683     0.0567
 300.      41.795      0.7182     0.0559
 300.      42.218      0.7115     0.0675
 300.      42.233      0.7620     0.0524
 300.      42.656      0.7575     0.0512
 300.      43.079      0.8334     0.0520
 300.      43.501      0.8646     0.0530
 300.      43.924      0.7593     0.0544
 300.      44.346      0.9105     0.0558
 300.      44.769      0.8424     0.0754
 300.      44.815      0.8727     0.0760
 300.      45.237      0.7343     0.0765
 300.      45.659      0.7471     0.0805
 300.      46.081      0.6523     0.0892
 300.      46.503      0.6722     0.0903
 300.      46.925      0.5959     0.0969
 300.      47.342      0.5874     0.0799
 300.      47.347      0.7482     0.1249
 300.      47.764      0.5911     0.0904
 300.      48.186      0.6132     0.1020
 300.      48.607      0.3593     0.1133
 300.      49.029      0.5101     0.1335
 300.      49.451      0.3328     0.1450
 300.      49.872      0.1032     0.2563
 400.        2.960     0.1537     0.0225
 400.        3.234     0.1759     0.0242
 400.        3.508     0.2266     0.0249
 400.        3.782     0.3120     0.0261
 400.        4.056     0.3048     0.0275
 400.        4.330     0.2922     0.0281
 400.        4.513     0.3110     0.0178
 400.        4.604     0.3435     0.0297
 400.        4.787     0.3542     0.0187
 400.        5.061     0.3358     0.0196
 400.        5.335     0.3542     0.0201
 400.        5.609     0.3861     0.0211
 400.        5.883     0.4041     0.0223
 400.        6.056     0.4238     0.0243
 400.        6.157     0.4120     0.0236
 400.        6.330     0.4041     0.0265
 400.        6.604     0.4117     0.0270
 400.        6.878     0.4395     0.0295
 400.        7.152     0.4102     0.0322
 400.        7.426     0.4665     0.0339
 400.        7.619     0.4440     0.0285
 400.        7.700     0.5070     0.0368
 400.        7.893     0.4423     0.0309
 400.        8.167     0.4147     0.0347
 400.        8.441     0.4619     0.0387
 400.        8.715     0.4882     0.0450
 400.        8.989     0.3653     0.0547
 400.        9.172     0.4362     0.0458
 400.        9.263     0.4408     0.0600
 400.        9.446     0.3964     0.0577
 400.        9.720     0.3800     0.0668
 400.        9.993     0.4452     0.0798
 400.       10.268     0.3289     0.1076
 400.       10.542    -0.0285     0.1680
 400.       10.815    -0.0685     0.2291
 400.       15.726     0.8291     0.0244
 400.       16.003     0.8301     0.0243
 400.       16.280     0.7991     0.0246
 400.       16.557     0.7822     0.0251
 400.       16.716     0.7609     0.0303
 400.       16.993     0.7274     0.0304
 400.       17.270     0.7298     0.0310
 400.       17.547     0.7089     0.0313
 400.       17.824     0.6693     0.0319
 400.       18.101     0.6425     0.0327
 400.       18.274     0.5891     0.0272
 400.       18.551     0.5373     0.0279
 400.       18.828     0.4948     0.0289
 400.       19.105     0.4681     0.0305
 400.       19.158     0.4457     0.0539
 400.       19.381     0.3904     0.0321
 400.       19.658     0.3401     0.0340
 400.       19.71      0.2274     0.0585
 400.       19.831     0.2886     0.0245
 400.       20.108     0.1393     0.0266
 400.       20.25      0.0870     0.0662
 400.       20.385     0.0654     0.0294
 400.       20.662    -0.1206     0.0323
 400.       20.80     -0.1090     0.0790
 400.       20.939    -0.2605     0.0371
 400.       21.35     -0.5710     0.0990
 400.       21.74     -0.7820     0.0530
 400.       21.89     -0.8393     0.1562
 400.       22.29     -0.6670     0.0640
 400.       22.83     -0.0110     0.0660
 400.       23.38      0.5840     0.0550
 400.       23.93      0.7850     0.0480
 400.       24.25      0.9290     0.0630
 400.       24.47      0.9467     0.0517
 400.       24.79      0.8550     0.0580
 400.       25.34      0.8930     0.0580
 400.       25.88      0.8900     0.0580
 400.       26.43      0.8790     0.0580
 400.       26.83      0.7650     0.0460
 400.       26.98      0.7257     0.0708
 400.       27.38      0.6870     0.0490
 400.       27.93      0.5920     0.0540
 400.       28.47      0.6380     0.0600
 400.       29.02      0.3780     0.0670
 400.       29.44      0.3878     0.0387
 400.       29.98      0.2120     0.0456
 400.       30.53      0.0346     0.0589
 400.       31.08     -0.2510     0.0716
 400.       31.62     -0.5963     0.0816
 400.       32.00     -0.8160     0.0720
 400.       32.17     -0.7699     0.1337
 400.       32.55     -0.6370     0.0900
 400.       33.09     -0.3760     0.0930
 400.       33.64      0.1670     0.0970
 400.       34.18      0.7000     0.0810
 400.       34.53      0.6270     0.0520
 400.       34.73      0.8083     0.1035
 400.       35.07      0.8310     0.0480
 400.       35.62      0.8230     0.0470
 400.       36.16      0.8840     0.0460
 400.       36.71      0.7900     0.0480
 400.       37.07      0.7890     0.0440
 400.       37.62      0.6790     0.0460
 400.       38.16      0.7320     0.0540
 400.       38.70      0.6650     0.0560
 400.       39.25      0.6170     0.0650
 400.       39.72      0.5490     0.0420
 400.       40.26      0.3600     0.0480
 400.       40.80      0.2410     0.0590
 400.       41.35      0.1360     0.0720
 400.       41.89     -0.2660     0.0980
 400.       42.73     -0.3120     0.1040
 400.       43.27     -0.3750     0.1430
 400.       43.82     -0.5500     0.1650
 400.       44.36     -0.1050     0.1610
 400.       44.84      0.9181     0.1411
 400.       44.90      0.4950     0.1610
 400.       45.38      0.6350     0.1300
 400.       45.44      0.6035     0.1698
 400.       45.92      0.7480     0.1210
 400.       46.46      0.9330     0.1140
 400.       47.01      1.0320     0.1220
 400.       47.41      0.8720     0.1160
 400.       47.95      0.9510     0.1190
 400.       48.49      0.8670     0.1320
 400.       49.04      0.7770     0.1370
 400.       49.58      0.8630     0.1450
 400.       49.89      0.8270     0.1520
 400.       50.43      0.5410     0.2040
 400.       50.97      0.8210     0.2130
 400.       51.52      0.4690     0.2800
 400.       52.06      0.8400     0.4800
 500.       3.32       0.2360     0.0230
 500.       3.86       0.2400     0.0260
 500.       4.14       0.2350     0.0270
 500.       4.87       0.3030     0.0280
 500.       5.42       0.3700     0.0300
 500.       5.70       0.3410     0.0320
 500.       6.44       0.3420     0.0270
 500.       6.99       0.3150     0.0330
 500.       7.26       0.3450     0.0360
 500.       7.98       0.3110     0.0420
 500.       8.53       0.2530     0.0600
 500.       8.81       0.2000     0.0700
 500.       9.54       0.1800     0.1110
 500.      10.09       0.0280     0.1520
 500.      10.37      -0.0670     0.2020
 500.      11.12       0.6330     0.2020
 500.      11.94       0.7470     0.0710
 500.      12.68       0.8440     0.0350
 500.      13.22       0.8640     0.0330
 500.      13.50       0.8230     0.0320
 500.      14.22       0.7040     0.0320
 500.      14.77       0.6330     0.0340
 500.      15.23       0.6450     0.0380
 500.      15.78       0.4810     0.0430
 500.      16.32       0.5170     0.0510
 500.      16.77       0.3160     0.0440
 500.      17.32       0.2230     0.0600
 500.      17.87      -0.0020     0.0800
 500.      18.14      -0.0820     0.2020
 500.      18.34      -0.3300     0.0780
 500.      18.61      -0.4420     0.0980
 500.      18.89      -0.6350     0.1170
 500.      19.16      -0.9770     0.1430
 500.      19.43      -0.3960     0.1670
 500.      19.71       0.0900     0.1580
 500.      22.05       0.8760     0.0330
 500.      22.60       0.7660     0.0330
 500.      23.14       0.7620     0.0330
 500.      23.69       0.7240     0.0340
 500.      24.24       0.6050     0.0370
 500.      24.63       0.6040     0.0400
 500.      24.79       0.6050     0.0430
 500.      25.18       0.3480     0.0460
 500.      25.73       0.3910     0.0540
 500.      26.28       0.2020     0.0650
 500.      26.83       0.0660     0.0840
 500.      27.22      -0.1120     0.0690
 500.      27.37      -0.0590     0.1200
 500.      27.77      -0.3190     0.0880
 500.      28.32      -0.2540     0.1130
 500.      28.86       0.1530     0.1110
 500.      29.41       0.5970     0.1080
 500.      29.82       0.8200     0.0920
 500.      29.96       0.7800     0.1010
 500.      30.36       0.8130     0.0850
 500.      30.91       0.8920     0.0780
 500.      31.46       0.7730     0.0790
 500.      32.00       0.7180     0.0760
 500.      32.39       0.6920     0.0680
 500.      32.55       0.7550     0.0870
 500.      32.93       0.6930     0.0750
 500.      33.48       0.7090     0.0820
 500.      34.03       0.5710     0.0960
 500.      34.57       0.3610     0.1110
 500.      34.96       0.5260     0.0920
 500.      35.12       0.2590     0.1410
 500.      35.50       0.2690     0.1180
 500.      36.05       0.0820     0.1540
 500.      36.60       0.1390     0.1950
 500.      37.14       0.1110     0.2800
 500.      37.55      -0.0630     0.1920
 500.      37.69      -0.1660     0.3270
 500.      38.09       0.6040     0.2540
 500.      38.64       0.6580     0.1870
 500.      39.18       0.7380     0.1990
 500.      39.73       0.6190     0.1760
 500.      40.11       1.0740     0.1170
 500.      40.27       0.7320     0.1730
 500.      40.66       1.2420     0.1130
 500.      41.20       0.9340     0.1130
 500.      41.75       1.0330     0.1200
 500.      42.29       0.8100     0.1290
 500.      42.83       0.5910     0.1330
ENDDATA            458
ENDSUBENT          465
SUBENT        C0081004   19990415   19990429
BIB                  2          2
REACTION   (20-CA-0(P,EL)20-CA-0,,POL/DA,,SRF)
HISTORY    (19990414D) Not measured by authors.
ENDBIB               2
NOCOMMON             0          0
NODATA               0          0
ENDSUBENT            6
SUBENT        C0081005   19990415   19990429
BIB                  2          2
REACTION   (82-PB-208(P,EL)82-PB-208,,DA)
SAMPLE     Targets of 99.1 % enriched 208Pb.
ENDBIB               2
NOCOMMON             0          0
DATA                 4        666
EN         ANG-CM     DATA-CM    DATA-ERR
MEV        ADEG       MB/SR      MB/SR
 200.         2.269    6.3016E+05 8.7547E+03
 200.         2.795    4.3367E+05 7.0422E+03
 200.         2.915    3.9530E+05 5.8280E+03
 200.         3.061    2.7554E+05 4.6770E+03
 200.         3.181    2.5732E+05 4.0875E+03
 200.         3.327    1.9431E+05 3.4587E+03
 200.         3.447    1.7500E+05 3.0399E+03
 200.         3.594    1.4331E+05 2.6825E+03
 200.         3.714    1.2869E+05 2.4252E+03
 200.         3.860    1.0485E+05 2.0910E+03
 200.         3.980    9.4138E+04 1.9644E+03
 200.         4.126    8.2567E+04 1.7423E+03
 200.         4.246    7.1615E+04 1.6421E+03
 200.         4.304    7.4649E+04 6.0622E+02
 200.         4.392    6.5119E+04 1.4642E+03
 200.         4.570    5.9843E+04 5.1881E+02
 200.         4.836    5.1405E+04 4.6808E+02
 200.         5.103    4.3511E+04 4.1944E+02
 200.         5.369    3.6059E+04 3.7053E+02
 200.         5.635    2.9642E+04 3.2749E+02
 200.         5.740    2.7921E+04 5.6522E+02
 200.         5.901    2.5060E+04 2.9500E+02
 200.         6.009    2.2967E+04 4.7374E+02
 200.         6.279    1.9052E+04 4.0146E+02
 200.         6.548    1.5440E+04 3.3420E+02
 200.         6.818    1.2216E+04 2.7402E+02
 200.         7.087    9.8357E+03 2.2944E+02
 200.         7.238    9.3058E+03 1.1738E+02
 200.         7.508    7.2447E+03 9.5290E+01
 200.         7.777    5.3913E+03 7.5328E+01
 200.         8.047    3.9666E+03 5.9883E+01
 200.         8.316    2.9458E+03 4.8151E+01
 200.         8.586    2.0245E+03 3.7215E+01
 200.         8.830    1.2520E+03 1.9070E+01
 200.         9.096    8.4440E+02 1.4198E+01
 200.         9.362    5.8588E+02 1.0982E+01
 200.         9.629    4.1689E+02 8.7364E+00
 200.         9.895    3.2580E+02 7.4540E+00
 200.        10.161    3.1018E+02 7.2323E+00
 200.        10.349    3.0394E+02 6.5835E+00
 200.        10.427    3.4430E+02 7.7659E+00
 200.        10.615    3.5966E+02 7.3529E+00
 200.        10.881    4.3904E+02 8.4195E+00
 200.        11.147    4.9903E+02 9.2119E+00
 200.        11.414    5.6502E+02 1.0087E+01
 200.        11.680    5.9703E+02 1.0513E+01
 200.        11.847    6.0310E+02 1.1490E+01
 200.        11.946    6.2150E+02 1.0869E+01
 200.        12.114    6.4591E+02 1.2240E+01
 200.        12.380    6.5775E+02 1.2465E+01
 200.        12.646    6.6763E+02 1.2702E+01
 200.        12.912    6.4649E+02 1.2400E+01
 200.        13.178    6.3171E+02 1.2297E+01
 200.        13.365    5.8089E+02 7.3612E+00
 200.        13.445    5.8763E+02 1.1761E+01
 200.        13.622    5.4154E+02 7.0346E+00
 200.        13.888    4.9752E+02 6.6559E+00
 200.        14.155    4.5538E+02 6.1737E+00
 200.        14.421    3.8898E+02 5.6626E+00
 200.        14.687    3.2768E+02 5.0488E+00
 200.        14.864    2.7417E+02 3.0892E+00
 200.        14.953    2.6613E+02 4.4259E+00
 200.        15.131    2.2153E+02 2.6259E+00
 200.        15.397    1.8104E+02 2.2642E+00
 200.        15.663    1.3826E+02 1.8743E+00
 200.        15.929    1.0279E+02 1.5315E+00
 200.        16.195    7.4228E+01 1.2334E+00
 200.        16.373    5.7799E+01 8.5425E-01
 200.        16.462    4.9757E+01 9.5782E-01
 200.        16.639    3.8383E+01 6.4764E-01
 200.        16.905    2.6831E+01 5.1254E-01
 200.        17.171    1.9681E+01 4.1378E-01
 200.        17.438    1.6116E+01 3.5494E-01
 200.        17.704    1.5730E+01 3.4294E-01
 200.        17.871    1.8667E+01 4.2860E-01
 200.        17.970    1.8245E+01 3.7187E-01
 200.        18.137    2.1492E+01 4.6439E-01
 200.        18.404    2.7664E+01 5.3750E-01
 200.        18.594    3.9819E+01 1.2054E+00
 200.        18.670    3.3899E+01 6.0787E-01
 200.        18.936    3.8369E+01 6.5870E-01
 200.        19.127    5.1665E+01 1.4701E+00
 200.        19.202    4.5879E+01 7.3701E-01
 200.        19.380    4.3713E+01 7.5555E-01
 200.        19.468    4.8421E+01 7.6820E-01
 200.        19.646    4.7570E+01 8.1342E-01
 200.        19.659    5.9281E+01 1.6589E+00
 200.        19.912    5.1832E+01 8.7851E-01
 200.        20.178    5.4896E+01 9.2530E-01
 200.        20.192    6.2720E+01 1.7563E+00
 200.        20.444    5.5315E+01 9.4710E-01
 200.        20.710    5.4326E+01 9.3970E-01
 200.        20.724    5.8187E+01 1.6625E+00
 200.        20.977    5.1455E+01 9.1361E-01
 200.        21.118    5.4797E+01 1.4874E+00
 200.        21.256    5.6859E+01 1.8372E+00
 200.        21.651    4.5054E+01 1.2860E+00
 200.        22.183    3.7072E+01 1.1034E+00
 200.        22.715    2.6524E+01 8.7397E-01
 200.        23.248    1.8599E+01 6.7554E-01
 200.        23.635    1.4640E+01 3.1925E-01
 200.        23.780    1.5593E+01 7.1967E-01
 200.        24.167    9.4732E+00 2.4463E-01
 200.        24.700    6.9027E+00 2.0740E-01
 200.        25.232    5.3521E+00 1.8448E-01
 200.        25.764    5.6774E+00 1.9354E-01
 200.        26.138    5.6410E+00 1.3045E-01
 200.        26.296    5.9828E+00 2.4748E-01
 200.        26.671    6.3378E+00 1.3997E-01
 200.        27.203    6.7881E+00 1.4575E-01
 200.        27.735    7.0726E+00 1.4969E-01
 200.        28.267    7.1811E+00 1.5106E-01
 200.        28.651    6.6188E+00 9.8642E-02
 200.        28.799    6.9291E+00 1.7800E-01
 200.        29.184    6.0576E+00 9.4215E-02
 200.        29.716    5.3224E+00 8.7677E-02
 200.        30.248    4.4951E+00 7.9239E-02
 200.        30.780    3.6110E+00 6.9618E-02
 200.        31.184    3.1470E+00 8.8993E-02
 200.        31.312    3.0295E+00 7.8319E-02
 200.        31.716    2.4418E+00 7.7561E-02
 200.        32.248    1.9771E+00 6.9959E-02
 200.        32.780    1.6053E+00 6.3787E-02
 200.        33.312    1.3417E+00 5.8547E-02
 200.        33.677    1.1894E+00 3.8090E-02
 200.        33.844    1.2586E+00 7.2059E-02
 200.        34.209    1.2041E+00 3.8335E-02
 200.        34.741    1.0111E+00 3.4993E-02
 200.        35.273    9.6637E-01 3.4231E-02
 200.        35.804    8.9636E-01 3.2950E-02
 200.        36.199    8.3396E-01 3.0794E-02
 200.        36.336    8.5730E-01 4.1099E-02
 200.        36.731    7.9665E-01 3.0106E-02
 200.        37.262    7.3520E-01 2.8900E-02
 200.        37.794    6.6871E-01 2.7543E-02
 200.        38.326    6.1152E-01 2.6313E-02
 200.        38.687    5.0431E-01 2.3027E-02
 200.        38.858    6.2077E-01 3.3888E-02
 200.        39.219    5.2702E-01 2.3590E-02
 200.        39.751    4.3319E-01 2.0845E-02
 200.        40.282    3.7489E-01 1.9095E-02
 200.        40.814    2.8256E-01 1.5895E-02
 200.        41.195    2.7904E-01 7.9125E-03
 200.        41.346    2.9747E-01 2.0300E-02
 200.        41.727    2.4062E-01 7.2474E-03
 200.        42.258    1.9679E-01 6.4544E-03
 200.        42.790    1.7320E-01 5.9730E-03
 200.        43.322    1.3727E-01 5.2696E-03
 200.        43.719    1.1300E-01 3.4475E-03
 200.        43.854    1.0659E-01 5.8704E-03
 200.        44.251    1.0136E-01 3.2613E-03
 200.        44.782    9.5721E-02 3.1840E-03
 200.        45.314    8.3619E-02 2.9738E-03
 200.        45.846    7.3340E-02 2.8066E-03
 200.        46.220    7.2032E-02 2.1418E-03
 200.        46.377    7.2884E-02 3.5631E-03
 200.        46.751    7.6363E-02 2.2094E-03
 200.        47.283    7.5208E-02 2.1909E-03
 200.        47.814    7.6738E-02 2.2186E-03
 200.        48.346    7.2789E-02 2.1520E-03
 200.        48.750    6.7300E-02 2.0075E-03
 200.        48.877    6.1086E-02 2.5068E-03
 200.        49.281    5.9795E-02 1.8875E-03
 200.        49.812    5.5819E-02 1.8212E-03
 200.        50.344    4.1857E-02 1.5703E-03
 200.        50.875    3.4968E-02 1.4319E-03
 200.        51.252    2.6386E-02 8.6067E-04
 200.        51.407    2.8748E-02 1.6611E-03
 200.        51.784    2.1926E-02 7.7762E-04
 200.        52.315    1.4682E-02 6.3203E-04
 200.        52.846    1.2287E-02 5.7066E-04
 200.        53.377    8.9200E-03 4.9135E-04
 200.        53.751    8.1068E-03 4.2876E-04
 200.        53.909    7.7462E-03 5.8424E-04
 200.        54.282    8.3167E-03 4.3473E-04
 200.        54.814    8.1967E-03 4.3219E-04
 200.        55.345    1.0286E-02 4.8555E-04
 200.        55.876    1.0900E-02 5.0065E-04
 200.        56.286    7.0723E-03 1.4581E-03
 200.        56.407    1.1522E-02 6.5895E-04
 200.        56.817    8.0728E-03 1.5094E-03
 200.        57.348    9.8279E-03 1.6271E-03
 200.        57.879    8.8196E-03 1.5360E-03
 200.        58.410    6.0935E-03 1.4568E-03
 200.        58.942    4.1410E-03 1.8524E-03
 300.         1.525    3.4699E+06 1.3438E+05
 300.         1.795    1.6020E+06 6.3805E+04
 300.         2.065    8.3470E+05 3.4603E+04
 300.         2.334    4.6976E+05 2.0647E+04
 300.         2.604    2.8910E+05 1.3296E+04
 300.         2.873    1.9461E+05 1.0060E+04
 300.         3.116    1.5051E+05 4.4604E+03
 300.         3.192    1.5057E+05 6.4391E+03
 300.         3.386    1.1276E+05 3.3700E+03
 300.         3.462    1.1593E+05 4.9434E+03
 300.         3.656    8.7432E+04 2.6362E+03
 300.         3.731    9.0344E+04 3.8364E+03
 300.         3.925    6.7913E+04 2.0742E+03
 300.         4.001    7.1603E+04 3.0513E+03
 300.         4.136    6.0055E+04 1.9893E+03
 300.         4.195    5.4029E+04 1.6711E+03
 300.         4.406    4.7730E+04 1.6064E+03
 300.         4.465    4.3776E+04 1.3754E+03
 300.         4.675    3.7062E+04 1.2647E+03
 300.         4.945    2.9930E+04 1.0451E+03
 300.         5.214    2.3036E+04 8.2498E+02
 300.         5.484    1.7646E+04 6.4571E+02
 300.         5.701    1.4728E+04 3.1522E+02
 300.         5.971    1.0833E+04 2.4317E+02
 300.         6.241    7.9283E+03 1.8822E+02
 300.         6.510    5.6244E+03 1.4364E+02
 300.         6.780    3.7369E+03 1.0609E+02
 300.         7.049    2.5602E+03 8.1741E+01
 300.         7.210    1.9324E+03 4.4486E+01
 300.         7.479    1.2398E+03 3.0250E+01
 300.         7.749    8.5383E+02 2.2053E+01
 300.         8.018    6.6253E+02 1.8277E+01
 300.         8.288    5.7523E+02 1.6420E+01
 300.         8.558    6.1032E+02 1.7361E+01
 300.         8.863    6.3628E+02 1.2196E+01
 300.         9.132    7.2138E+02 1.3614E+01
 300.         9.402    8.0643E+02 1.5087E+01
 300.         9.671    8.9465E+02 1.6464E+01
 300.         9.941    9.2956E+02 1.7174E+01
 300.        10.211    9.4009E+02 1.7351E+01
 300.        10.301    8.8773E+02 3.6117E+01
 300.        10.571    8.9384E+02 3.6101E+01
 300.        10.841    8.4441E+02 3.4666E+01
 300.        11.110    7.8907E+02 3.2824E+01
 300.        11.380    6.7802E+02 2.8861E+01
 300.        11.558    5.5403E+02 9.4253E+00
 300.        11.649    5.7400E+02 2.4884E+01
 300.        11.828    4.5513E+02 8.0659E+00
 300.        12.097    3.6823E+02 6.8817E+00
 300.        12.367    2.8794E+02 5.7306E+00
 300.        12.636    2.1152E+02 4.5962E+00
 300.        12.906    1.4886E+02 3.6323E+00
 300.        13.071    1.2462E+02 3.4058E+00
 300.        13.340    7.9549E+01 2.3278E+00
 300.        13.610    4.9195E+01 1.5807E+00
 300.        13.879    2.6511E+01 9.9687E-01
 300.        14.149    1.6197E+01 7.2066E-01
 300.        14.419    1.1535E+01 5.7418E-01
 300.        14.634    1.2858E+01 4.5784E-01
 300.        14.864    1.6652E+01 7.4186E-01
 300.        14.903    1.8175E+01 5.9644E-01
 300.        15.173    2.5268E+01 7.8412E-01
 300.        15.279    2.9272E+01 1.0174E+00
 300.        15.443    3.5414E+01 1.0524E+00
 300.        15.694    4.4107E+01 1.2922E+00
 300.        15.712    4.4677E+01 1.3036E+00
 300.        15.860    4.7884E+01 1.3615E+00
 300.        15.982    5.2855E+01 1.5187E+00
 300.        16.109    5.3588E+01 1.4527E+00
 300.        16.276    5.7401E+01 1.5253E+00
 300.        16.524    6.1724E+01 1.5812E+00
 300.        16.690    6.0159E+01 1.5698E+00
 300.        16.939    5.6564E+01 2.4323E+00
 300.        17.106    6.1359E+01 1.5908E+00
 300.        17.379    5.5502E+01 9.8348E-01
 300.        17.520    5.6143E+01 1.5009E+00
 300.        17.794    5.0807E+01 9.2969E-01
 300.        17.936    4.9150E+01 2.2174E+00
 300.        18.210    4.0793E+01 8.0759E-01
 300.        18.625    3.0449E+01 6.7614E-01
 300.        18.899    2.3786E+01 4.9920E-01
 300.        19.040    2.1126E+01 5.4777E-01
 300.        19.314    1.7239E+01 3.9852E-01
 300.        19.455    1.6559E+01 7.9646E-01
 300.        19.729    1.1050E+01 2.9758E-01
 300.        20.144    6.3655E+00 2.1168E-01
 300.        20.559    3.9010E+00 1.6016E-01
 300.        20.974    3.2860E+00 2.4371E-01
 300.        21.157    2.9438E+00 1.0798E-01
 300.        21.572    3.6483E+00 1.2237E-01
 300.        21.987    4.4222E+00 1.3675E-01
 300.        22.402    5.6258E+00 1.5753E-01
 300.        22.817    6.5812E+00 1.7280E-01
 300.        23.232    7.0340E+00 1.8030E-01
 300.        23.611    7.3595E+00 1.6371E-01
 300.        23.647    6.9147E+00 2.1375E-01
 300.        24.026    6.8502E+00 1.5644E-01
 300.        24.441    6.3828E+00 1.5004E-01
 300.        24.856    5.3708E+00 1.3585E-01
 300.        25.271    4.4703E+00 1.2245E-01
 300.        25.686    3.3183E+00 1.0392E-01
 300.        26.101    2.5359E+00 1.0920E-01
 300.        26.156    1.9203E+00 3.3495E-02
 300.        26.571    1.2501E+00 2.7000E-02
 300.        26.986    8.2006E-01 2.1913E-02
 300.        27.401    6.0484E-01 1.9129E-02
 300.        27.816    4.7228E-01 1.6602E-02
 300.        28.230    5.0314E-01 1.6753E-02
 300.        28.645    4.9608E-01 1.9687E-02
 300.        28.680    7.1446E-01 2.5808E-02
 300.        29.095    7.9230E-01 2.7284E-02
 300.        29.510    9.7108E-01 3.0592E-02
 300.        29.925    1.0360E+00 3.1772E-02
 300.        30.340    1.0637E+00 3.2225E-02
 300.        30.754    1.0531E+00 3.2064E-02
 300.        31.154    1.0168E+00 1.7163E-02
 300.        31.169    9.6552E-01 3.6631E-02
 300.        31.569    9.0437E-01 1.6066E-02
 300.        31.983    6.9980E-01 1.3952E-02
 300.        32.399    5.5888E-01 1.2369E-02
 300.        32.813    4.0606E-01 1.0460E-02
 300.        33.228    2.8881E-01 8.7866E-03
 300.        33.642    1.9528E-01 8.8048E-03
 300.        33.698    1.9917E-01 7.2826E-03
 300.        34.112    1.2633E-01 5.8387E-03
 300.        34.527    9.4493E-02 5.0680E-03
 300.        34.942    9.0451E-02 4.8847E-03
 300.        35.356    9.9131E-02 5.0360E-03
 300.        35.771    1.3073E-01 5.7200E-03
 300.        36.186    1.3638E-01 7.0944E-03
 300.        36.211    1.4965E-01 6.6577E-03
 300.        36.625    1.6329E-01 6.9715E-03
 300.        37.040    1.8434E-01 7.4481E-03
 300.        37.455    1.6160E-01 6.9341E-03
 300.        37.869    1.5348E-01 6.7499E-03
 300.        38.284    1.4255E-01 6.4833E-03
 300.        38.698    1.1652E-01 7.0714E-03
 300.        38.733    1.1799E-01 5.4868E-03
 300.        39.148    8.3380E-02 4.6395E-03
 300.        39.563    6.7078E-02 3.9983E-03
 300.        39.977    4.8130E-02 3.3661E-03
 300.        40.392    2.6244E-02 2.3851E-03
 300.        40.806    1.9285E-02 2.0130E-03
 300.        41.221    1.0081E-02 2.0004E-03
 300.        41.236    1.2777E-02 1.0523E-03
 300.        41.650    1.0923E-02 9.6382E-04
 300.        42.065    1.0381E-02 9.3512E-04
 300.        42.479    1.2433E-02 1.0215E-03
 300.        42.893    1.6782E-02 1.1821E-03
 300.        43.308    1.9764E-02 1.2850E-03
 300.        43.722    1.9571E-02 1.5545E-03
 300.        43.767    2.3527E-02 1.6027E-03
 300.        44.182    2.2765E-02 1.5743E-03
 300.        44.596    2.3214E-02 1.5909E-03
 300.        45.011    1.8195E-02 1.3991E-03
 300.        45.425    1.6603E-02 1.3468E-03
 300.        45.839    1.3770E-02 1.2142E-03
 300.        46.249    1.0236E-02 7.4786E-04
 300.        46.254    1.0212E-02 1.2649E-03
 300.        46.663    7.1851E-03 6.0237E-04
 300.        47.077    3.9031E-03 4.2458E-04
 300.        47.492    3.4552E-03 4.0189E-04
 300.        47.906    1.5333E-03 2.7267E-04
 300.        48.321    1.0577E-03 2.6055E-04
 300.        48.734    1.1347E-03 3.1538E-04
 400.         2.561    1.9300E+05 2.2710E+03
 400.         2.828    1.4206E+05 1.7953E+03
 400.         2.878    1.2271E+05 1.3576E+03
 400.         3.094    1.0601E+05 1.4382E+03
 400.         3.144    9.7960E+04 1.1464E+03
 400.         3.361    8.2269E+04 1.1945E+03
 400.         3.411    7.6848E+04 9.6203E+02
 400.         3.627    6.4058E+04 1.0036E+03
 400.         3.677    6.1073E+04 8.2037E+02
 400.         3.894    4.7609E+04 8.2564E+02
 400.         3.944    4.8281E+04 7.0139E+02
 400.         4.160    3.7602E+04 7.1270E+02
 400.         4.210    3.6692E+04 5.8847E+02
 400.         4.388    2.8376E+04 2.4531E+02
 400.         4.477    2.7481E+04 4.9285E+02
 400.         4.655    2.0912E+04 2.0240E+02
 400.         4.921    1.5628E+04 1.6969E+02
 400.         5.188    1.1030E+04 1.3869E+02
 400.         5.454    7.6725E+03 1.1326E+02
 400.         5.721    5.1524E+03 9.1232E+01
 400.         5.908    3.7556E+03 3.3371E+01
 400.         5.987    3.3935E+03 7.3282E+01
 400.         6.175    2.3835E+03 2.5107E+01
 400.         6.441    1.6395E+03 2.0074E+01
 400.         6.708    1.1936E+03 1.6831E+01
 400.         6.974    1.0272E+03 1.5595E+01
 400.         7.241    1.0276E+03 1.5656E+01
 400.         7.419    1.0193E+03 1.7548E+01
 400.         7.508    1.1147E+03 1.6491E+01
 400.         7.685    1.1233E+03 1.8552E+01
 400.         7.952    1.2744E+03 2.0087E+01
 400.         8.218    1.3753E+03 2.1130E+01
 400.         8.485    1.3924E+03 2.1206E+01
 400.         8.751    1.3931E+03 2.1255E+01
 400.         8.909    1.2623E+03 1.2580E+01
 400.         9.018    1.3202E+03 2.0630E+01
 400.         9.175    1.1802E+03 1.2062E+01
 400.         9.442    1.1014E+03 1.1550E+01
 400.         9.708    9.3970E+02 1.0467E+01
 400.         9.975    7.8227E+02 9.3886E+00
 400.        10.242    6.4399E+02 8.3784E+00
 400.        10.429    4.8333E+02 5.3204E+00
 400.        10.507    4.9482E+02 7.2034E+00
 400.        10.696    3.5851E+02 4.2444E+00
 400.        10.962    2.5966E+02 3.3861E+00
 400.        11.228    1.7277E+02 2.5548E+00
 400.        11.495    1.1129E+02 1.9503E+00
 400.        11.761    6.9181E+01 1.4676E+00
 400.        11.949    4.5553E+01 9.3441E-01
 400.        12.028    4.5803E+01 1.1756E+00
 400.        12.216    3.4688E+01 8.1652E-01
 400.        12.483    3.6683E+01 8.6073E-01
 400.        12.748    4.6994E+01 9.9669E-01
 400.        13.015    6.1286E+01 1.1616E+00
 400.        13.282    7.6422E+01 1.3129E+00
 400.        13.459    8.6935E+01 1.8015E+00
 400.        13.548    9.1533E+01 1.4605E+00
 400.        13.726    1.0256E+02 1.9986E+00
 400.        13.992    1.0725E+02 2.0395E+00
 400.        14.259    1.1757E+02 2.1674E+00
 400.        14.525    1.1995E+02 2.1857E+00
 400.        14.792    1.1201E+02 2.0835E+00
 400.        14.959    9.3040E+01 1.5389E+00
 400.        15.058    1.0170E+02 1.9525E+00
 400.        15.226    8.5290E+01 1.4459E+00
 400.        15.492    7.5517E+01 1.3294E+00
 400.        15.759    6.2907E+01 1.1739E+00
 400.        16.025    5.2012E+01 1.0365E+00
 400.        16.292    3.9184E+01 8.6263E-01
 400.        16.469    3.1506E+01 5.9327E-01
 400.        16.558    2.7972E+01 7.0177E-01
 400.        16.736    2.2109E+01 4.9568E-01
 400.        17.002    1.5238E+01 4.1339E-01
 400.        17.269    1.0521E+01 3.4403E-01
 400.        17.535    7.3986E+00 2.8917E-01
 400.        17.801    5.4105E+00 2.4584E-01
 400.        17.989    5.3719E+00 1.8792E-01
 400.        18.068    6.0987E+00 2.5805E-01
 400.        18.256    6.3157E+00 2.1210E-01
 400.        18.522    7.8881E+00 2.4706E-01
 400.        18.556    1.0521E+01 3.9121E-01
 400.        18.788    1.0290E+01 2.9782E-01
 400.        18.956    1.4246E+01 4.9035E-01
 400.        19.055    1.2195E+01 3.3317E-01
 400.        19.321    1.3694E+01 3.6058E-01
 400.        19.356    1.6276E+01 5.3578E-01
 400.        19.489    1.4575E+01 3.0624E-01
 400.        19.588    1.5066E+01 3.8477E-01
 400.        19.755    1.5098E+01 3.1362E-01
 400.        19.755    1.7320E+01 5.6280E-01
 400.        20.022    1.5141E+01 3.1199E-01
 400.        20.155    1.6188E+01 5.2912E-01
 400.        20.288    1.4956E+01 3.0830E-01
 400.        20.554    1.4538E+01 2.9961E-01
 400.        20.555    1.5012E+01 4.9871E-01
 400.        20.821    1.3314E+01 2.8297E-01
 400.        20.954    1.1748E+01 4.1337E-01
 400.        21.087    1.1257E+01 2.5279E-01
 400.        21.096    1.0925E+01 3.3801E-01
 400.        21.354    9.3897E+00 4.1603E-01
 400.        21.496    7.6753E+00 2.6000E-01
 400.        21.895    5.0638E+00 1.9757E-01
 400.        22.295    3.1520E+00 1.4581E-01
 400.        22.694    1.7795E+00 1.0458E-01
 400.        23.094    1.3020E+00 8.8110E-02
 400.        23.494    1.1606E+00 8.4030E-02
 400.        23.579    1.1970E+00 5.5979E-02
 400.        23.893    1.5293E+00 1.2339E-01
 400.        23.978    1.4490E+00 6.2621E-02
 400.        24.378    2.0973E+00 7.7444E-02
 400.        24.777    2.4164E+00 8.4317E-02
 400.        25.177    2.6077E+00 8.7967E-02
 400.        25.576    2.5047E+00 8.5654E-02
 400.        25.976    2.2574E+00 8.0581E-02
 400.        26.128    2.1146E+00 4.8163E-02
 400.        26.375    1.9737E+00 9.1400E-02
 400.        26.527    1.7274E+00 4.2543E-02
 400.        26.927    1.3294E+00 3.6438E-02
 400.        27.326    9.1403E-01 2.9505E-02
 400.        27.726    6.6315E-01 2.4903E-02
 400.        28.125    3.4801E-01 1.7742E-02
 400.        28.525    2.7462E-01 1.5913E-02
 400.        28.643    2.3510E-01 1.1040E-02
 400.        28.924    2.3543E-01 1.8507E-02
 400.        29.042    2.1106E-01 1.0433E-02
 400.        29.442    2.4119E-01 1.0981E-02
 400.        29.841    2.9453E-01 1.2069E-02
 400.        30.241    3.5052E-01 1.3089E-02
 400.        30.640    3.9795E-01 1.4136E-02
 400.        31.040    3.8254E-01 1.3832E-02
 400.        31.158    3.6519E-01 1.1044E-02
 400.        31.439    3.4181E-01 1.6235E-02
 400.        31.557    3.3351E-01 1.0522E-02
 400.        31.957    2.8790E-01 9.7752E-03
 400.        32.356    2.4079E-01 8.9142E-03
 400.        32.755    1.7281E-01 7.5422E-03
 400.        33.155    1.2193E-01 6.3510E-03
 400.        33.554    7.2631E-02 4.9030E-03
 400.        33.649    6.8606E-02 4.0677E-03
 400.        33.953    4.8852E-02 5.0942E-03
 400.        34.048    3.9663E-02 3.1177E-03
 400.        34.448    2.8402E-02 2.5933E-03
 400.        34.847    2.8100E-02 2.5864E-03
 400.        35.246    3.2209E-02 2.7294E-03
 400.        35.646    4.1330E-02 3.0258E-03
 400.        36.045    4.5544E-02 3.1665E-03
 400.        36.123    4.1929E-02 2.6778E-03
 400.        36.444    4.9413E-02 4.2081E-03
 400.        36.522    5.5658E-02 3.0873E-03
 400.        36.921    5.0476E-02 2.9407E-03
 400.        37.321    4.7525E-02 2.8506E-03
 400.        37.720    4.0398E-02 2.6334E-03
 400.        38.119    3.3801E-02 2.4059E-03
 400.        38.518    1.9934E-02 1.8789E-03
 400.        38.670    2.4266E-02 1.5180E-03
 400.        38.918    1.2110E-02 1.8819E-03
 400.        39.069    1.4840E-02 1.1869E-03
 400.        39.468    9.5626E-03 9.4314E-04
 400.        39.868    3.9817E-03 6.3252E-04
 400.        40.267    4.5641E-03 6.5537E-04
 400.        40.666    4.4977E-03 6.7071E-04
 400.        41.065    3.9548E-03 6.6551E-04
 400.        41.207    4.4417E-03 5.5508E-04
 400.        41.606    4.9957E-03 5.9749E-04
 400.        42.005    6.5556E-03 6.9610E-04
 400.        42.404    6.9427E-03 7.0651E-04
 400.        42.803    6.0427E-03 6.5660E-04
 400.        43.202    6.2024E-03 6.8158E-04
 400.        43.601    4.8341E-03 5.9876E-04
 400.        43.709    4.5974E-03 4.2435E-04
 400.        44.000    4.3185E-03 7.0217E-04
 400.        44.108    4.1490E-03 4.0874E-04
 400.        44.507    2.8964E-03 3.4152E-04
 400.        44.906    1.7621E-03 2.6818E-04
 400.        45.305    7.7141E-04 2.1604E-04
 400.        45.704    7.0381E-04 1.9441E-04
 400.        46.103    2.9359E-04 1.9424E-04
 400.        46.355    5.1134E-04 1.1597E-04
 400.        46.502    4.1236E-04 3.1079E-04
 400.        47.152    5.4693E-04 1.1977E-04
 400.        47.950    9.0750E-04 1.3802E-04
 400.        48.748    9.8879E-04 1.7461E-04
 400.        48.853    9.8061E-04 1.2969E-04
 400.        49.651    8.0611E-04 1.1889E-04
 400.        50.448    5.2272E-04 1.0157E-04
 400.        51.246    1.9215E-04 1.2430E-04
 500.         1.791    5.7697E+05 5.6479E+03
 500.         2.058    3.4486E+05 4.1217E+03
 500.         2.324    2.2625E+05 3.2314E+03
 500.         2.591    1.6067E+05 2.6757E+03
 500.         2.858    1.1896E+05 2.2738E+03
 500.         2.950    1.1347E+05 1.0550E+03
 500.         3.015    1.0409E+05 1.0113E+03
 500.         3.216    8.3323E+04 8.7103E+02
 500.         3.282    7.9381E+04 8.5632E+02
 500.         3.483    6.3228E+04 7.3627E+02
 500.         3.548    5.7642E+04 7.0825E+02
 500.         3.750    4.5545E+04 6.0901E+02
 500.         3.815    4.0498E+04 5.7882E+02
 500.         4.016    3.2459E+04 5.0430E+02
 500.         4.082    2.9110E+04 4.8229E+02
 500.         4.194    2.6489E+04 2.6428E+02
 500.         4.348    1.9671E+04 3.9073E+02
 500.         4.461    1.7870E+04 2.0296E+02
 500.         4.728    1.1298E+04 1.5231E+02
 500.         4.994    7.0545E+03 1.1546E+02
 500.         5.261    4.5444E+03 9.0344E+01
 500.         5.527    2.6731E+03 6.7075E+01
 500.         5.715    2.3146E+03 3.3212E+01
 500.         5.982    1.8667E+03 2.9754E+01
 500.         6.240    1.9583E+03 3.0536E+01
 500.         6.515    2.1098E+03 3.1735E+01
 500.         6.782    2.2373E+03 3.2757E+01
 500.         7.049    2.4310E+03 3.4214E+01
 500.         7.216    2.5029E+03 3.8615E+01
 500.         7.483    2.4637E+03 3.8226E+01
 500.         7.750    2.2590E+03 3.6585E+01
 500.         8.016    2.0469E+03 3.4749E+01
 500.         8.283    1.8156E+03 3.2663E+01
 500.         8.550    1.5312E+03 2.9936E+01
 500.         8.727    1.3050E+03 1.6564E+01
 500.         8.994    9.9354E+02 1.4317E+01
 500.         9.261    6.9392E+02 1.1877E+01
 500.         9.527    4.9111E+02 9.9365E+00
 500.         9.794    3.1282E+02 7.8798E+00
 500.        10.060    2.0295E+02 6.3216E+00
 500.        10.258    1.5106E+02 2.9770E+00
 500.        10.525    1.1379E+02 2.5768E+00
 500.        10.792    1.0525E+02 2.4748E+00
 500.        11.058    1.1780E+02 2.6162E+00
 500.        11.325    1.4501E+02 2.9071E+00
 500.        11.591    1.6503E+02 3.1036E+00
 500.        11.769    1.5873E+02 3.4970E+00
 500.        12.036    1.7242E+02 3.6521E+00
 500.        12.302    1.8427E+02 3.7831E+00
 500.        12.569    1.8525E+02 3.7945E+00
 500.        12.836    1.6984E+02 3.6250E+00
 500.        13.102    1.5252E+02 3.4275E+00
 500.        13.270    1.3670E+02 1.8936E+00
 500.        13.537    1.0787E+02 1.6734E+00
 500.        13.803    8.5950E+01 1.4886E+00
 500.        14.070    6.2362E+01 1.2627E+00
 500.        14.336    4.2841E+01 1.0432E+00
 500.        14.603    2.8067E+01 8.4247E-01
 500.        14.781    2.2027E+01 9.4162E-01
 500.        15.047    1.4336E+01 7.5862E-01
 500.        15.314    1.0385E+01 6.4686E-01
 500.        15.581    9.7162E+00 6.2695E-01
 500.        15.847    1.3084E+01 7.2898E-01
 500.        16.114    1.6347E+01 8.1725E-01
 500.        16.281    2.0237E+01 6.7318E-01
 500.        16.548    2.2974E+01 7.1734E-01
 500.        16.815    2.6637E+01 7.7184E-01
 500.        17.081    2.7361E+01 7.7846E-01
 500.        17.348    2.8456E+01 7.9252E-01
 500.        17.614    2.6401E+01 7.6727E-01
 500.        17.802    2.3280E+01 6.1251E-01
 500.        18.069    1.9362E+01 5.5819E-01
 500.        18.335    1.5870E+01 5.0284E-01
 500.        18.602    1.3674E+01 4.6379E-01
 500.        18.868    9.9211E+00 3.9282E-01
 500.        18.902    7.4989E+00 1.5746E-01
 500.        19.135    6.6861E+00 3.2031E-01
 500.        19.435    4.1709E+00 1.1559E-01
 500.        19.968    2.2641E+00 8.4321E-02
 500.        20.501    1.8949E+00 7.6556E-02
 500.        21.035    2.2245E+00 8.2649E-02
 500.        21.409    3.0406E+00 9.1705E-02
 500.        21.568    3.3280E+00 1.0125E-01
 500.        21.943    3.8730E+00 1.0411E-01
 500.        22.476    3.9861E+00 1.0566E-01
 500.        23.009    3.1632E+00 9.3585E-02
 500.        23.542    2.1630E+00 7.6899E-02
 500.        23.927    1.3487E+00 4.9516E-02
 500.        24.075    1.3891E+00 6.1335E-02
 500.        24.460    7.5933E-01 3.7371E-02
 500.        24.992    3.8278E-01 2.6617E-02
 500.        25.525    3.6774E-01 2.5755E-02
 500.        26.058    4.3191E-01 2.7667E-02
 500.        26.443    6.1515E-01 3.0404E-02
 500.        26.591    5.9145E-01 3.2436E-02
 500.        26.976    6.7821E-01 3.1928E-02
 500.        27.509    5.9539E-01 2.9916E-02
 500.        28.042    4.7122E-01 2.6610E-02
 500.        28.575    3.1947E-01 2.1910E-02
 500.        28.970    1.6614E-01 6.4507E-03
 500.        29.108    1.5165E-01 1.5168E-02
 500.        29.503    9.1835E-02 4.8086E-03
 500.        30.035    6.1828E-02 3.9161E-03
 500.        30.568    6.6869E-02 4.0712E-03
 500.        31.101    8.0604E-02 4.4656E-03
 500.        31.476    8.3028E-02 4.7363E-03
 500.        31.634    8.8022E-02 4.6419E-03
 500.        32.008    9.3445E-02 5.0182E-03
 500.        32.541    8.7761E-02 4.8671E-03
 500.        33.074    6.5769E-02 4.2164E-03
 500.        33.607    3.6818E-02 3.1709E-03
 500.        33.981    2.0986E-02 1.0387E-03
 500.        34.139    1.7753E-02 2.2035E-03
 500.        34.514    1.1704E-02 7.8303E-04
 500.        35.046    7.5612E-03 6.4282E-04
 500.        35.579    8.4273E-03 6.8825E-04
 500.        36.112    9.0810E-03 7.0860E-04
 500.        36.506    1.2004E-02 8.0816E-04
 500.        36.644    9.5628E-03 7.3118E-04
 500.        37.039    1.2629E-02 8.2483E-04
 500.        37.571    1.0235E-02 7.5408E-04
 500.        38.104    8.5116E-03 6.8471E-04
 500.        38.636    4.9759E-03 5.3375E-04
 500.        39.011    2.4999E-03 2.4247E-04
 500.        39.169    3.0841E-03 4.2177E-04
 500.        39.543    1.6061E-03 2.0489E-04
 500.        40.076    1.1265E-03 1.8349E-04
 500.        40.608    1.0544E-03 1.8733E-04
 500.        41.141    1.3576E-03 2.0285E-04
 500.        41.673    1.4632E-03 1.9456E-04
ENDDATA            668
ENDSUBENT          675
SUBENT        C0081006   19990415   19990429
BIB                  2          2
REACTION   (82-PB-208(P,EL)82-PB-208,,POL/DA,,ANA)
SAMPLE     Targets of 99.1 % enriched 208Pb.
ENDBIB               2
NOCOMMON             0          0
DATA                 4        667
EN         ANG-CM     DATA       DATA-ERR
MEV        ADEG       NO-DIM     NO-DIM
 200.        2.649     0.0458     0.0192
 200.        2.795     0.0045     0.0248
 200.        2.915     0.0530     0.0203
 200.        3.061     0.0243     0.0260
 200.        3.181     0.0606     0.0219
 200.        3.327     0.0086     0.0272
 200.        3.447     0.0980     0.0238
 200.        3.594     0.0483     0.0287
 200.        3.714     0.1075     0.0258
 200.        3.860     0.0793     0.0307
 200.        3.980     0.1761     0.0283
 200.        4.126     0.1323     0.0326
 200.        4.246     0.2076     0.0309
 200.        4.304     0.2182     0.0121
 200.        4.392     0.1584     0.0348
 200.        4.570     0.2565     0.0128
 200.        4.836     0.2887     0.0134
 200.        5.103     0.3238     0.0141
 200.        5.369     0.3358     0.0151
 200.        5.635     0.3656     0.0162
 200.        5.740     0.3044     0.0388
 200.        5.901     0.3754     0.0172
 200.        6.009     0.3067     0.0395
 200.        6.279     0.3563     0.0395
 200.        6.548     0.3202     0.0414
 200.        6.818     0.3222     0.0430
 200.        7.087     0.4129     0.0431
 200.        7.238     0.4025     0.0175
 200.        7.508     0.3950     0.0183
 200.        7.777     0.4001     0.0195
 200.        8.047     0.4442     0.0209
 200.        8.316     0.4162     0.0229
 200.        8.586     0.3939     0.0259
 200.        8.830     0.3561     0.0188
 200.        9.096     0.3412     0.0209
 200.        9.362     0.3208     0.0235
 200.        9.629     0.2558     0.0265
 200.        9.895     0.1845     0.0292
 200.       10.161     0.1799     0.0297
 200.       10.349     0.2486     0.0296
 200.       10.427     0.2839     0.0285
 200.       10.615     0.3129     0.0278
 200.       10.881     0.3847     0.0259
 200.       11.147     0.4320     0.0249
 200.       11.414     0.4860     0.0239
 200.       11.680     0.5104     0.0236
 200.       11.847     0.5694     0.0253
 200.       11.946     0.5506     0.0233
 200.       12.114     0.6180     0.0251
 200.       12.380     0.6360     0.0251
 200.       12.646     0.6651     0.0251
 200.       12.912     0.6656     0.0253
 200.       13.178     0.7002     0.0256
 200.       13.356     0.6830     0.0169
 200.       13.445     0.7365     0.0263
 200.       13.622     0.7113     0.0173
 200.       13.888     0.7396     0.0178
 200.       14.155     0.7544     0.0185
 200.       14.421     0.7955     0.0195
 200.       14.687     0.8007     0.0206
 200.       14.864     0.8078     0.0155
 200.       14.953     0.8297     0.0223
 200.       15.131     0.8226     0.0163
 200.       15.397     0.8397     0.0173
 200.       15.663     0.8764     0.0188
 200.       15.929     0.8917     0.0208
 200.       16.195     0.8594     0.0233
 200.       16.373     0.8830     0.0201
 200.       16.462     0.7983     0.0271
 200.       16.639     0.7395     0.0231
 200.       16.905     0.5460     0.0263
 200.       17.171     0.1644     0.0297
 200.       17.438    -0.3143     0.0320
 200.       17.704    -0.5640     0.0319
 200.       17.871    -0.3730     0.0330
 200.       17.970    -0.5585     0.0298
 200.       18.137    -0.2876     0.0310
 200.       18.404    -0.1487     0.0278
 200.       18.594     0.1147     0.0502
 200.       18.670     0.0092     0.0256
 200.       18.936     0.1589     0.0244
 200.       19.127     0.2322     0.0479
 200.       19.202     0.2374     0.0228
 200.       19.380     0.2927     0.0235
 200.       19.468     0.3521     0.0224
 200.       19.646     0.3831     0.0229
 200.       19.659     0.5144     0.0469
 200.       19.912     0.4732     0.0225
 200.       20.178     0.5288     0.0222
 200.       20.192     0.6543     0.0463
 200.       20.444     0.6152     0.0223
 200.       20.710     0.6400     0.0225
 200.       20.724     0.7115     0.0471
 200.       20.977     0.6929     0.0231
 200.       21.118     0.7342     0.0441
 200.       21.256     0.7705     0.0535
 200.       21.651     0.8220     0.0463
 200.       22.183     0.8033     0.0484
 200.       22.715     0.9701     0.0531
 200.       23.248     0.8724     0.0594
 200.       23.635     0.7985     0.0365
 200.       23.780     0.8221     0.0764
 200.       24.167     0.5090     0.0435
 200.       24.700     0.0606     0.0495
 200.       25.232    -0.3701     0.0552
 200.       25.764    -0.5739     0.0536
 200.       26.138    -0.4568     0.0376
 200.       26.296    -0.4984     0.0660
 200.       26.671    -0.2414     0.0366
 200.       27.203     0.0237     0.0358
 200.       27.735     0.2526     0.0352
 200.       28.267     0.4127     0.0347
 200.       28.651     0.5178     0.0239
 200.       28.799     0.5941     0.0420
 200.       29.184     0.6893     0.0248
 200.       29.716     0.8115     0.0262
 200.       30.248     0.8214     0.0281
 200.       30.780     0.8150     0.0307
 200.       31.184     0.8006     0.0471
 200.       31.312     0.7342     0.0416
 200.       31.716     0.6772     0.0534
 200.       32.248     0.4218     0.0592
 200.       32.780     0.0911     0.0658
 200.       33.312    -0.0706     0.0708
 200.       33.677    -0.2661     0.0527
 200.       33.844    -0.0969     0.0926
 200.       34.209    -0.2788     0.0524
 200.       34.741    -0.2476     0.0573
 200.       35.273    -0.0932     0.0586
 200.       35.804    -0.0145     0.0606
 200.       36.199     0.2000     0.0630
 200.       36.336     0.0609     0.0795
 200.       36.731     0.4006     0.0654
 200.       37.262     0.5135     0.0670
 200.       37.794     0.6328     0.0699
 200.       38.326     0.6773     0.0725
 200.       38.687     0.8185     0.0695
 200.       38.858     0.8456     0.0915
 200.       39.219     0.7770     0.0684
 200.       39.751     0.7636     0.0734
 200.       40.282     0.7489     0.0787
 200.       40.814     0.5140     0.0872
 200.       41.195     0.3327     0.0452
 200.       41.346     0.4281     0.1863
 200.       41.727     0.1975     0.0492
 200.       42.258     0.0668     0.0535
 200.       42.790    -0.1217     0.0565
 200.       43.322    -0.1836     0.0637
 200.       43.719    -0.1953     0.0536
 200.       43.854    -0.2372     0.0906
 200.       44.251    -0.1241     0.0570
 200.       44.782     0.1359     0.0578
 200.       45.314     0.2264     0.0621
 200.       45.846     0.5364     0.0664
 200.       46.220     0.6865     0.0504
 200.       46.377     0.5987     0.0838
 200.       46.751     0.7507     0.0490
 200.       47.283     0.6971     0.0492
 200.       47.814     0.8427     0.0487
 200.       48.346     0.6736     0.0501
 200.       48.750     0.7472     0.0496
 200.       48.877     0.7730     0.0693
 200.       49.281     0.7223     0.0525
 200.       49.812     0.7035     0.0543
 200.       50.344     0.5734     0.0626
 200.       50.875     0.6092     0.0683
 200.       51.252     0.4338     0.0541
 200.       51.407     0.3305     0.0967
 200.       51.784     0.3336     0.0591
 200.       52.315     0.3291     0.0718
 200.       52.846     0.0811     0.0785
 200.       53.377     0.3891     0.0916
 200.       53.751     0.3230     0.0903
 200.       53.909     0.3252     0.1259
 200.       54.282     0.4571     0.0890
 200.       54.814     0.6786     0.0895
 200.       55.345     0.7577     0.0800
 200.       55.876     0.8582     0.0777
 200.       56.286     0.9973     0.3721
 200.       56.407     0.9905     0.0966
 200.       56.817     0.8758     0.3274
 200.       57.348     0.7665     0.2839
 200.       57.879     0.7540     0.2989
 200.       58.410     1.4401     0.4785
 200.       58.942     0.3620     0.7904
 300.        1.525    -0.0048     0.0573
 300.        1.795    -0.0111     0.0595
 300.        2.065    -0.0276     0.0619
 300.        2.334    -0.0193     0.0645
 300.        2.604    -0.1491     0.0668
 300.        2.873     0.0064     0.0761
 300.        3.116     0.0394     0.0441
 300.        3.192    -0.0301     0.0588
 300.        3.386     0.0856     0.0442
 300.        3.462     0.0090     0.0590
 300.        3.656     0.1000     0.0449
 300.        3.731     0.0666     0.0597
 300.        3.925     0.1521     0.0450
 300.        4.001     0.0907     0.0598
 300.        4.136     0.2055     0.0447
 300.        4.195     0.1708     0.0456
 300.        4.406     0.2408     0.0450
 300.        4.465     0.2092     0.0466
 300.        4.675     0.2365     0.0458
 300.        4.945     0.2881     0.0461
 300.        5.214     0.3041     0.0474
 300.        5.484     0.2680     0.0487
 300.        5.701     0.2737     0.0337
 300.        5.971     0.3216     0.0353
 300.        6.241     0.3389     0.0373
 300.        6.510     0.3333     0.0405
 300.        6.780     0.3256     0.0450
 300.        7.049     0.3466     0.0505
 300.        7.210     0.3983     0.0326
 300.        7.479     0.4115     0.0347
 300.        7.749     0.3626     0.0370
 300.        8.018     0.4720     0.0395
 300.        8.288     0.4973     0.0406
 300.        8.558     0.5751     0.0399
 300.        8.863     0.5735     0.0255
 300.        9.132     0.6159     0.0248
 300.        9.402     0.6605     0.0244
 300.        9.671     0.6573     0.0239
 300.        9.941     0.7031     0.0239
 300.       10.211     0.6966     0.0239
 300.       10.301     0.7162     0.0518
 300.       10.571     0.6777     0.0519
 300.       10.841     0.7238     0.0523
 300.       11.110     0.7325     0.0531
 300.       11.380     0.7233     0.0546
 300.       11.558     0.8031     0.0256
 300.       11.649     0.6798     0.0559
 300.       11.828     0.8080     0.0268
 300.       12.097     0.8383     0.0283
 300.       12.367     0.8396     0.0303
 300.       12.636     0.8279     0.0333
 300.       12.906     0.8333     0.0375
 300.       13.071     0.8317     0.0388
 300.       13.340     0.8063     0.0418
 300.       13.610     0.7466     0.0462
 300.       13.879     0.6179     0.0547
 300.       14.149     0.5532     0.0653
 300.       14.419     0.3956     0.0741
 300.       14.634     0.4955     0.0536
 300.       14.864     0.6350     0.0696
 300.       14.903     0.6273     0.0487
 300.       15.173     0.7600     0.0452
 300.       15.279     0.7912     0.0537
 300.       15.443     0.8551     0.0425
 300.       15.694     0.8789     0.0450
 300.       15.712     0.9211     0.0415
 300.       15.860     0.8894     0.0493
 300.       15.982     0.9491     0.0405
 300.       16.109     0.9360     0.0411
 300.       16.276     0.9648     0.0460
 300.       16.524     0.9421     0.0388
 300.       16.690     0.9490     0.0450
 300.       16.939     0.9184     0.0667
 300.       17.106     0.9625     0.0450
 300.       17.379     0.9754     0.0322
 300.       17.520     0.8878     0.0466
 300.       17.794     1.0108     0.0334
 300.       17.936     0.9488     0.0789
 300.       18.210     0.9126     0.0363
 300.       18.625     0.8890     0.0408
 300.       18.899     0.7860     0.0331
 300.       19.040     0.7534     0.0479
 300.       19.314     0.6506     0.0369
 300.       19.455     0.7352     0.0886
 300.       19.729     0.3878     0.0443
 300.       20.144    -0.1338     0.0550
 300.       20.559    -0.4992     0.0692
 300.       20.974    -0.9386     0.1220
 300.       21.157    -0.5181     0.0722
 300.       21.572     0.1042     0.0638
 300.       21.987     0.4236     0.0575
 300.       22.402     0.7415     0.0504
 300.       22.817     0.8688     0.0468
 300.       23.232     0.9773     0.0453
 300.       23.611     0.9868     0.0382
 300.       23.647     0.9679     0.0549
 300.       24.026     0.8688     0.0399
 300.       24.441     0.8292     0.0413
 300.       24.856     0.7787     0.0447
 300.       25.271     0.6702     0.0493
 300.       25.686     0.4767     0.0570
 300.       26.101     0.4356     0.0792
 300.       26.156     0.2542     0.0307
 300.       26.571    -0.1319     0.0369
 300.       26.986    -0.4485     0.0441
 300.       27.401    -0.8741     0.0495
 300.       27.816    -0.6960     0.0558
 300.       28.230    -0.2878     0.0559
 300.       28.645     0.1853     0.0713
 300.       28.680     0.1444     0.0602
 300.       29.095     0.4609     0.0576
 300.       29.510     0.7118     0.0529
 300.       29.925     0.7917     0.0515
 300.       30.340     0.7613     0.0508
 300.       30.754     0.8015     0.0508
 300.       31.154     0.7430     0.0279
 300.       31.169     0.6732     0.0642
 300.       31.569     0.6734     0.0296
 300.       31.983     0.5379     0.0332
 300.       32.399     0.3869     0.0371
 300.       32.813     0.2678     0.0428
 300.       33.228    -0.0123     0.0503
 300.       33.642    -0.3589     0.0729
 300.       33.698    -0.3423     0.0589
 300.       34.112    -0.6526     0.0730
 300.       34.527    -0.8199     0.0832
 300.       34.942    -0.4224     0.0878
 300.       35.356    -0.0022     0.0842
 300.       35.771     0.3603     0.0745
 300.       36.186     0.5144     0.0887
 300.       36.211     0.6516     0.0740
 300.       36.625     0.7687     0.0706
 300.       37.040     0.6102     0.0668
 300.       37.455     0.7342     0.0771
 300.       37.869     0.6238     0.0729
 300.       38.284     0.7574     0.0754
 300.       38.698     0.7263     0.1007
 300.       38.733     0.4407     0.0715
 300.       39.148     0.5542     0.0862
 300.       39.563     0.2359     0.0928
 300.       39.977     0.1109     0.1116
 300.       40.392    -0.1220     0.1457
 300.       40.806    -0.4743     0.1722
 300.       41.221    -0.7754     0.3555
 300.       41.236    -0.9915     0.1304
 300.       41.650    -0.4461     0.1438
 300.       42.065    -0.1256     0.1481
 300.       42.479     0.0739     0.1356
 300.       42.893     0.5545     0.1176
 300.       43.308     0.5265     0.1087
 300.       43.722     0.9283     0.1336
 300.       43.767     0.7272     0.1124
 300.       44.182     0.8261     0.1162
 300.       44.596     0.8410     0.1161
 300.       45.011     0.8757     0.1285
 300.       45.425     0.6576     0.1460
 300.       45.839     0.5348     0.1451
 300.       46.249     0.4738     0.1207
 300.       46.254     0.8959     0.2052
 300.       46.663     0.3544     0.1387
 300.       47.077     0.3159     0.1806
 300.       47.492    -0.1685     0.1875
 300.       47.906    -0.4961     0.2762
 300.       48.321    -1.3733     0.4498
 300.       48.734    -0.5016     0.4451
 400.        2.561     0.0211     0.0170
 400.        2.828     0.0861     0.0181
 400.        2.878     0.0449     0.0162
 400.        3.094     0.1037     0.0193
 400.        3.144     0.0987     0.0171
 400.        3.361     0.1066     0.0207
 400.        3.411     0.1037     0.0183
 400.        3.627     0.1191     0.0223
 400.        3.677     0.1250     0.0197
 400.        3.894     0.1485     0.0246
 400.        3.944     0.1451     0.0213
 400.        4.160     0.1840     0.0267
 400.        4.210     0.1768     0.0235
 400.        4.388     0.2175     0.0132
 400.        4.477     0.2068     0.0263
 400.        4.655     0.2130     0.0148
 400.        4.921     0.2575     0.0166
 400.        5.188     0.2327     0.0192
 400.        5.454     0.2601     0.0225
 400.        5.721     0.1858     0.0270
 400.        5.908     0.0941     0.0135
 400.        5.987     0.3069     0.0329
 400.        6.175     0.1341     0.0159
 400.        6.441     0.1230     0.0185
 400.        6.708     0.1961     0.0213
 400.        6.974     0.2993     0.0228
 400.        7.241     0.3466     0.0229
 400.        7.419     0.4633     0.0253
 400.        7.508     0.4292     0.0222
 400.        7.685     0.4602     0.0242
 400.        7.952     0.5311     0.0231
 400.        8.218     0.5958     0.0225
 400.        8.485     0.5542     0.0223
 400.        8.751     0.5765     0.0223
 400.        8.909     0.5988     0.0156
 400.        9.018     0.5973     0.0228
 400.        9.175     0.5907     0.0160
 400.        9.442     0.5938     0.0164
 400.        9.708     0.6115     0.0174
 400.        9.975     0.5791     0.0187
 400.       10.242     0.5711     0.0203
 400.       10.429     0.5669     0.0161
 400.       10.507     0.5862     0.0227
 400.       10.696     0.5555     0.0174
 400.       10.962     0.5763     0.0192
 400.       11.228     0.5107     0.0219
 400.       11.495     0.5435     0.0259
 400.       11.761     0.4934     0.0315
 400.       11.949     0.5660     0.0300
 400.       12.028     0.5754     0.0380
 400.       12.216     0.6805     0.0343
 400.       12.483     0.8691     0.0342
 400.       12.748     0.9569     0.0309
 400.       13.015     0.9817     0.0277
 400.       13.282     0.9496     0.0250
 400.       13.459     0.9625     0.0301
 400.       13.548     0.9471     0.0232
 400.       13.726     0.9617     0.0283
 400.       13.992     0.9135     0.0276
 400.       14.259     0.9229     0.0267
 400.       14.525     0.8969     0.0264
 400.       14.792     0.8760     0.0270
 400.       14.959     0.7919     0.0252
 400.       15.058     0.8565     0.0279
 400.       15.226     0.7867     0.0259
 400.       15.492     0.7205     0.0269
 400.       15.759     0.6689     0.0285
 400.       16.025     0.5892     0.0303
 400.       16.292     0.5725     0.0334
 400.       16.469     0.6006     0.0294
 400.       16.558     0.4558     0.0379
 400.       16.736     0.5727     0.0350
 400.       17.002     0.3241     0.0420
 400.       17.269     0.2194     0.0504
 400.       17.535     0.1087     0.0600
 400.       17.801     0.2879     0.0702
 400.       17.989     0.3887     0.0515
 400.       18.068     0.6789     0.0662
 400.       18.256     0.6426     0.0488
 400.       18.522     0.7943     0.0453
 400.       18.556     0.8656     0.0540
 400.       18.788     0.9291     0.0417
 400.       18.956     0.9360     0.0492
 400.       19.055     0.9303     0.0393
 400.       19.321     0.9352     0.0378
 400.       19.356     0.8707     0.0471
 400.       19.489     0.9442     0.0327
 400.       19.588     0.9308     0.0366
 400.       19.755     0.9479     0.0323
 400.       19.755     0.8848     0.0464
 400.       20.022     0.8824     0.0320
 400.       20.155     0.7762     0.0480
 400.       20.288     0.8461     0.0320
 400.       20.554     0.7450     0.0321
 400.       20.555     0.7754     0.0483
 400.       20.821     0.7350     0.0331
 400.       20.954     0.6359     0.0532
 400.       21.087     0.6306     0.0351
 400.       21.096     0.5865     0.0461
 400.       21.354     0.5116     0.0688
 400.       21.496     0.4205     0.0518
 400.       21.895     0.3532     0.0615
 400.       22.295    -0.0265     0.0769
 400.       22.694    -0.3884     0.1010
 400.       23.094    -0.4160     0.1144
 400.       23.494     0.1195     0.1182
 400.       23.579     0.3329     0.0785
 400.       23.893     0.5968     0.1246
 400.       23.978     0.6437     0.0696
 400.       24.378     0.8083     0.0569
 400.       24.777     0.8608     0.0534
 400.       25.177     0.8246     0.0516
 400.       25.576     0.7383     0.0538
 400.       25.976     0.7488     0.0554
 400.       26.128     0.6367     0.0419
 400.       26.375     0.4946     0.0779
 400.       26.527     0.4732     0.0475
 400.       26.927     0.4407     0.0531
 400.       27.326     0.3131     0.0653
 400.       27.726     0.0169     0.0752
 400.       28.125    -0.1462     0.1014
 400.       28.525    -0.5175     0.1089
 400.       28.643    -0.2820     0.0960
 400.       28.924    -0.1672     0.1563
 400.       29.042    -0.2502     0.1015
 400.       29.442     0.3321     0.0947
 400.       29.841     0.6540     0.0829
 400.       30.241     0.7498     0.0747
 400.       30.640     0.6450     0.0707
 400.       31.040     0.7088     0.0740
 400.       31.158     0.7404     0.0583
 400.       31.439     0.8996     0.0903
 400.       31.557     0.7660     0.0604
 400.       31.957     0.6261     0.0666
 400.       32.356     0.6170     0.0749
 400.       32.755     0.4679     0.0882
 400.       33.155     0.2515     0.1069
 400.       33.554     0.1092     0.1359
 400.       33.649    -0.1103     0.1070
 400.       33.953    -0.0599     0.2061
 400.       34.048    -0.3193     0.1368
 400.       34.448     0.0000     0.1634
 400.       34.847    -0.0042     0.1751
 400.       35.246     0.2250     0.1538
 400.       35.646     0.6301     0.1359
 400.       36.045     0.6645     0.1239
 400.       36.123     0.6949     0.0917
 400.       36.444     0.4965     0.1518
 400.       36.522     0.7122     0.0789
 400.       36.921     0.6810     0.0825
 400.       37.321     0.7230     0.0853
 400.       37.720     0.5959     0.0916
 400.       38.119     0.6357     0.1014
 400.       38.518     0.4668     0.1358
 400.       38.670     0.5351     0.0853
 400.       38.918     0.3674     0.2174
 400.       39.069     0.2901     0.1094
 400.       39.468     0.1433     0.1353
 400.       39.868    -0.2215     0.2211
 400.       40.267    -0.0733     0.1974
 400.       40.666     0.3416     0.2044
 400.       41.065     0.6203     0.2379
 400.       41.207     0.3549     0.1890
 400.       41.464     0.6215     0.3759
 400.       41.606     0.5226     0.1782
 400.       42.005     0.7995     0.1551
 400.       42.404     0.6195     0.1509
 400.       42.803     0.5855     0.1614
 400.       43.202     0.7434     0.1610
 400.       43.601     0.9440     0.1790
 400.       43.709     0.7089     0.1455
 400.       44.000     0.4890     0.2419
 400.       44.108     0.7739     0.1554
 400.       44.507     0.5598     0.1870
 400.       44.906     0.5964     0.2397
 400.       45.305     0.8556     0.5103
 400.       45.704    -0.0972     0.4427
 400.       46.105     0.4038     1.1356
 400.       46.355    -0.0884     0.3329
 400.       46.502    -0.2851     1.2051
 400.       47.152     0.3455     0.3360
 400.       47.950     0.6549     0.2377
 400.       48.748     0.8303     0.2915
 400.       48.853     0.8587     0.2086
 400.       49.651     0.7976     0.2342
 400.       50.448     0.6025     0.3120
 400.       51.246     0.2141     0.9893
 500.        1.791     0.0028     0.0200
 500.        2.058     0.0411     0.0245
 500.        2.324     0.0560     0.0292
 500.        2.591     0.1187     0.0339
 500.        2.858     0.1240     0.0392
 500.        2.950     0.1261     0.0203
 500.        3.015     0.1509     0.0213
 500.        3.216     0.0786     0.0229
 500.        3.282     0.1824     0.0236
 500.        3.483     0.1734     0.0256
 500.        3.548     0.1902     0.0269
 500.        3.750     0.1314     0.0292
 500.        3.815     0.1859     0.0313
 500.        4.016     0.1641     0.0340
 500.        4.082     0.1877     0.0363
 500.        4.194     0.2138     0.0209
 500.        4.348     0.1989     0.0434
 500.        4.461     0.2019     0.0237
 500.        4.728     0.1952     0.0282
 500.        4.994     0.1507     0.0343
 500.        5.261     0.2337     0.0414
 500.        5.527     0.1818     0.0527
 500.        5.715     0.1816     0.0303
 500.        5.982     0.2418     0.0337
 500.        6.249     0.3196     0.0329
 500.        6.515     0.3235     0.0317
 500.        6.782     0.4057     0.0306
 500.        7.049     0.4330     0.0295
 500.        7.216     0.4089     0.0324
 500.        7.483     0.4652     0.0327
 500.        7.750     0.4316     0.0341
 500.        8.016     0.4467     0.0357
 500.        8.283     0.4487     0.0379
 500.        8.550     0.4414     0.0414
 500.        8.727     0.4339     0.0256
 500.        8.994     0.3936     0.0291
 500.        9.261     0.4538     0.0347
 500.        9.527     0.4732     0.0408
 500.        9.794     0.3873     0.0509
 500.       10.060     0.3198     0.0630
 500.       10.258     0.3780     0.0386
 500.       10.525     0.4325     0.0444
 500.       10.792     0.5055     0.0462
 500.       11.058     0.6241     0.0435
 500.       11.325     0.6267     0.0392
 500.       11.591     0.6636     0.0368
 500.       11.769     0.6306     0.0426
 500.       12.036     0.6905     0.0409
 500.       12.302     0.7034     0.0396
 500.       12.569     0.6420     0.0397
 500.       12.836     0.5956     0.0413
 500.       13.102     0.5150     0.0437
 500.       13.270     0.6113     0.0274
 500.       13.537     0.5367     0.0308
 500.       13.803     0.5425     0.0343
 500.       14.070     0.4229     0.0402
 500.       14.336     0.3273     0.0485
 500.       14.603     0.3231     0.0598
 500.       14.781     0.2232     0.0886
 500.       15.047     0.1879     0.1104
 500.       15.314     0.4068     0.1293
 500.       15.581     0.6058     0.1318
 500.       15.847     0.7511     0.1154
 500.       16.114     0.9777     0.1024
 500.       16.281     0.7427     0.0616
 500.       16.548     0.7778     0.0580
 500.       16.815     0.7531     0.0538
 500.       17.081     0.6624     0.0531
 500.       17.348     0.6283     0.0520
 500.       17.614     0.7264     0.0541
 500.       17.802     0.6246     0.0493
 500.       18.069     0.6224     0.0541
 500.       18.335     0.5406     0.0596
 500.       18.602     0.4305     0.0642
 500.       18.868     0.3382     0.0753
 500.       18.902     0.3263     0.0383
 500.       19.135     0.2249     0.0917
 500.       19.435     0.1850     0.0506
 500.       19.968     0.2022     0.0678
 500.       20.501     0.3685     0.0736
 500.       21.035     0.5509     0.0671
 500.       21.409     0.8309     0.0479
 500.       21.568     0.7710     0.0548
 500.       21.943     0.7920     0.0427
 500.       22.476     0.6891     0.0426
 500.       23.009     0.5742     0.0479
 500.       23.542     0.4948     0.0576
 500.       23.927     0.3466     0.0601
 500.       24.075     0.4248     0.0724
 500.       24.460     0.1030     0.0805
 500.       24.992    -0.0304     0.1135
 500.       25.525     0.4435     0.1134
 500.       26.058     0.7676     0.1034
 500.       26.443     0.7832     0.0771
 500.       26.591     0.7143     0.0892
 500.       26.976     0.7795     0.0735
 500.       27.509     0.5676     0.0789
 500.       28.042     0.6527     0.0895
 500.       28.575     0.3631     0.1098
 500.       28.970     0.1902     0.0592
 500.       29.108     0.4361     0.1588
 500.       29.503     0.0313     0.0789
 500.       30.035     0.4225     0.0942
 500.       30.568     0.4439     0.0902
 500.       31.101     0.5911     0.0821
 500.       31.476     0.6067     0.0838
 500.       31.634     0.7818     0.0777
 500.       32.008     0.6983     0.0783
 500.       32.541     0.6452     0.0817
 500.       33.074     0.5943     0.0954
 500.       33.607     0.2476     0.1332
 500.       33.981     0.3165     0.0789
 500.       34.139     0.1880     0.1831
 500.       34.514     0.1949     0.1065
 500.       35.046     0.2066     0.1345
 500.       35.579     0.4386     0.1276
 500.       36.112     0.4836     0.1214
 500.       36.506     0.8459     0.1066
 500.       36.644     0.6941     0.1188
 500.       37.039     0.8255     0.1037
 500.       37.571     0.5075     0.1193
 500.       38.104     0.4706     0.1296
 500.       38.636     0.6296     0.1688
 500.       39.011     0.3685     0.1543
 500.       39.169     0.3664     0.2167
 500.       39.543     0.0368     0.2030
 500.       40.076     0.3163     0.2659
 500.       40.608     0.4841     0.2937
 500.       41.141     0.8676     0.2592
 500.       41.673     0.3406     0.2135
ENDDATA            669
ENDSUBENT          676
SUBENT        C0081007   19990415   19990429
BIB                  2          2
REACTION   (82-PB-208(P,EL)82-PB-208,,POL/DA,,SRF)
HISTORY    (19990414D) Not measured by authors.
ENDBIB               2
NOCOMMON             0          0
NODATA               0          0
ENDSUBENT            6
ENDENTRY             7
