ENTRY            C0091   19981105   19990304
SUBENT        C0091001   19981105   19990304
BIB                 10         27
INSTITUTE  (1USAUAZ)
REFERENCE  (J,NIM/B,44,260,1990)
AUTHOR     (J.A.LEAVITT, L.C.MCINTYRE JR, M.D.ASHBAUGH, J.G.ODER,
           Z.LIN, B.DEZFOULY-ARLOMANDY)
TITLE      Cross sections for 170.5 degree backscattering of 4He
            from oxygen for 4He energies between 1.8 and 5.0 MeV
FACILITY   (VDG,1USAUAZ). with standard backscattering seup
SAMPLE     Multi-layer films containing natural oxygen, which were
            DC sputtered onto pyrolytic graphite substrate.
           Target 1: thin target, total average energy loss  is
            about 6 keV.
           Target 2: thick target, total average energy loss is
            about 35 keV.
DETECTOR   (SOLST) Surface barrier detector.
           Detector resolution 14 keV.
           Laboratoty scattering angle 170.5+-0.5 degree.
           Solid angle 0.78+-0.02 msr.
ERR-ANALYS (DATA-ERR) Total uncertainty includes systematic and
            statistical uncertainties.  See article for a
            complete discussion of contributions.
           Uncertainty in beam energy < 0.08%.
           Beam energy spread < 2.0 keV
STATUS     Data received by email, L. McIntyre, 28 Aug 1998.
           Energy given in Table 2 of article as 3398 corrected
            to 3898.
           (APRVD) Approved by L. McIntyre, 3 Nov 1998.
HISTORY    (19981002C) TS
ENDBIB              27
COMMON               4          3
ANG        ANG-RSL    ANG-ERR    EN-ERR
ADEG       ADEG       ADEG       KEV
      170.5        0.9        0.5      2.0
ENDCOMMON            3
ENDSUBENT           34
SUBENT        C0091002   19981105   19990304
BIB                  2          3
REACTION   (8-O-0(A,EL)8-O-0,,DA,,RTH)
FLAG       (1.) Measured on thin target
           (2.) Measured on thick target
ENDBIB               3
NOCOMMON             0          0
DATA                 4        245
EN         DATA       DATA-ERR   FLAG
KEV        NO-DIM     NO-DIM     NO-DIM
     1769.        1.01       0.02         2.
     1819.        1.00       0.02         2.
     1857.        1.01       0.02         2.
     1870.        0.99       0.02         2.
     1920.        1.01       0.02         2.
     1970.        0.98       0.02         2.
     2021.        0.99       0.02         2.
     2071.        0.99       0.02         2.
     2121.        1.00       0.02         2.
     2172.        1.00       0.02         2.
     2222.        1.01       0.02         2.
     2272.        1.00       0.01         2.
     2295.        0.94       0.04         1.
     2317.        0.93       0.04         1.
     2339.        0.94       0.04         1.
     2361.        0.90       0.04         1.
     2383.        0.92       0.04         1.
     2405.        0.87       0.04         1.
     2427.        0.80       0.04         1.
     2449.        0.67       0.03         1.
     2459.        0.62       0.03         1.
     2464.        0.60       0.03         1.
     2469.        0.58       0.03         1.
     2472.        0.64       0.04         1.
     2474.        0.67       0.03         1.
     2479.        0.98       0.04         1.
     2484.        1.48       0.05         1.
     2489.        1.71       0.05         1.
     2494.        1.90       0.05         1.
     2499.        1.84       0.05         1.
     2504.        1.74       0.05         1.
     2509.        1.63       0.05         1.
     2514.        1.59       0.05         1.
     2517.        1.42       0.05         1.
     2519.        1.51       0.05         1.
     2524.        1.45       0.05         1.
     2529.        1.50       0.05         1.
     2534.        1.39       0.04         1.
     2539.        1.39       0.05         1.
     2544.        1.32       0.04         1.
     2549.        1.33       0.04         1.
     2554.        1.31       0.04         1.
     2559.        1.26       0.04         1.
     2562.        1.22       0.05         1.
     2585.        1.25       0.05         1.
     2608.        1.25       0.05         1.
     2631.        1.24       0.05         1.
     2654.        1.22       0.05         1.
     2675.        1.27       0.02         2.
     2725.        1.24       0.02         2.
     2775.        1.27       0.02         2.
     2826.        1.34       0.02         2.
     2876.        1.43       0.02         2.
     2905.        1.44       0.02         2.
     2910.        1.50       0.02         2.
     2915.        1.50       0.02         2.
     2921.        1.54       0.03         2.
     2926.        1.57       0.03         2.
     2932.        1.58       0.03         2.
     2937.        1.64       0.03         2.
     2943.        1.67       0.03         2.
     2948.        1.71       0.03         2.
     2951.        1.73       0.03         2.
     2959.        1.83       0.03         2.
     2965.        1.88       0.03         2.
     2970.        2.02       0.03         2.
     2976.        2.10       0.03         2.
     2981.        2.27       0.03         2.
     2987.        2.46       0.04         2.
     2992.        2.80       0.04         2.
     2998.        3.32       0.05         2.
     3001.        3.25       0.05         2.
     3004.        3.44       0.14         1.
     3009.        3.80       0.15         1.
     3015.        5.15       0.19         1.
     3017.        5.75       0.21         1.
     3020.        6.97       0.25         1.
     3023.        9.00       0.32         1.
     3026.       13.31       0.46         1.
     3026.       16.46       0.62         1.
     3028.       17.20       0.59         1.
     3031.       22.16       0.76         1.
     3032.       22.66       0.84         1.
     3034.       21.38       0.73         1.
     3037.       16.16       0.56         1.
     3037.       12.41       0.47         1.
     3039.        9.42       0.34         1.
     3042.        5.59       0.21         1.
     3043.        4.07       0.17         1.
     3045.        3.18       0.11         1.
     3048.        1.00       0.17         1.
     3053.        0.63       0.04         1.
     3054.        0.54       0.09         1.
     3056.        0.60       0.11         1.
     3059.        0.40       0.03         1.
     3064.        0.36       0.03         1.
     3065.        0.34       0.03         1.
     3067.        0.30       0.03         1.
     3068.        0.34       0.03         1.
     3070.        0.27       0.03         1.
     3073.        0.31       0.03         1.
     3076.        0.46       0.04         1.
     3079.        0.53       0.04         1.
     3081.        0.70       0.05         1.
     3084.        0.75       0.04         1.
     3087.        0.71       0.05         1.
     3090.        0.70       0.04         1.
     3093.        0.73       0.05         1.
     3098.        0.64       0.04         1.
     3101.        0.64       0.04         1.
     3104.        0.64       0.04         1.
     3109.        0.74       0.05         1.
     3112.        0.75       0.04         1.
     3115.        0.72       0.05         1.
     3121.        0.79       0.05         1.
     3127.        0.79       0.01         2.
     3152.        0.85       0.01         2.
     3177.        0.92       0.02         2.
     3202.        0.95       0.02         2.
     3227.        1.00       0.02         2.
     3252.        1.07       0.02         2.
     3277.        1.14       0.02         2.
     3297.        1.21       0.06         1.
     3308.        1.29       0.06         1.
     3320.        1.34       0.06         1.
     3331.        1.50       0.07         1.
     3343.        1.81       0.08         1.
     3348.        2.20       0.07         1.
     3354.        3.40       0.10         1.
     3355.        3.20       0.12         1.
     3357.        4.50       0.12         1.
     3360.        6.05       0.14         1.
     3363.        5.96       0.14         1.
     3366.        5.43       0.18         1.
     3369.        2.76       0.09         1.
     3372.        1.77       0.07         1.
     3378.        1.00       0.06         1.
     3383.        0.77       0.04         1.
     3389.        0.80       0.04         1.
     3401.        0.74       0.05         1.
     3413.        0.82       0.05         1.
     3425.        0.84       0.05         1.
     3436.        0.86       0.05         1.
     3453.        0.92       0.02         2.
     3478.        0.95       0.02         2.
     3503.        0.97       0.02         2.
     3529.        1.00       0.02         2.
     3553.        1.03       0.02         2.
     3579.        1.04       0.02         2.
     3606.        1.06       0.02         2.
     3629.        1.07       0.02         2.
     3654.        1.08       0.02         2.
     3679.        1.10       0.02         2.
     3704.        1.13       0.02         2.
     3729.        1.10       0.02         2.
     3754.        1.15       0.02         2.
     3779.        1.16       0.02         2.
     3805.        1.20       0.02         2.
     3811.        1.36       0.07         1.
     3829.        1.10       0.07         1.
     3832.        1.16       0.12         1.
     3836.        1.17       0.09         1.
     3842.        1.27       0.12         1.
     3848.        1.29       0.11         1.
     3854.        1.32       0.10         1.
     3857.        1.44       0.08         1.
     3860.        1.22       0.10         1.
     3864.        1.55       0.07         1.
     3867.        1.65       0.13         1.
     3870.        1.83       0.07         1.
     3873.        2.36       0.14         1.
     3875.        4.03       0.12         1.
     3876.        4.00       0.12         1.
     3878.        3.76       0.11         1.
     3879.        2.93       0.14         1.
     3881.        1.68       0.08         1.
     3882.        1.05       0.07         1.
     3885.        1.02       0.13         1.
     3889.        0.79       0.06         1.
     3892.        1.05       0.12         1.
     3895.        0.94       0.06         1.
     3898.        1.07       0.10         1.
     3904.        1.12       0.07         1.
     3904.        0.94       0.09         1.
     3911.        1.01       0.07         1.
     3913.        1.11       0.07         1.
     3923.        1.25       0.07         1.
     3930.        1.13       0.02         2.
     3955.        1.21       0.02         2.
     3980.        1.24       0.03         2.
     4005.        1.25       0.03         2.
     4030.        1.29       0.04         2.
     4056.        1.31       0.03         2.
     4081.        1.35       0.02         2.
     4106.        1.38       0.03         2.
     4131.        1.37       0.03         2.
     4156.        1.46       0.03         2.
     4181.        1.47       0.03         2.
     4206.        1.54       0.03         2.
     4231.        1.52       0.03         2.
     4256.        1.60       0.03         2.
     4281.        1.66       0.04         2.
     4306.        1.74       0.07         2.
     4331.        1.74       0.07         2.
     4356.        1.94       0.07         2.
     4381.        1.98       0.11         2.
     4406.        2.10       0.07         2.
     4432.        2.21       0.05         2.
     4457.        2.42       0.07         2.
     4482.        2.57       0.08         2.
     4482.        2.54       0.06         2.
     4507.        2.72       0.05         2.
     4532.        2.97       0.05         2.
     4557.        3.21       0.06         2.
     4582.        3.44       0.06         2.
     4607.        3.79       0.06         2.
     4631.        4.08       0.07         2.
     4657.        4.47       0.07         2.
     4682.        4.70       0.08         2.
     4708.        5.07       0.08         2.
     4732.        5.53       0.09         2.
     4757.        5.96       0.09         2.
     4782.        6.29       0.09         2.
     4808.        7.03       0.11         2.
     4833.        7.21       0.11         2.
     4858.        7.82       0.11         2.
     4883.        8.23       0.12         2.
     4908.        8.87       0.13         2.
     4933.        9.57       0.14         2.
     4946.       10.90       0.67         1.
     4950.       11.17       0.50         1.
     4954.       12.71       0.67         1.
     4957.       13.44       0.74         1.
     4961.       18.10       0.69         1.
     4962.       17.50       0.68         1.
     4964.       16.29       0.67         1.
     4966.       10.71       0.45         1.
     4968.        8.70       0.47         1.
     4971.        6.84       0.60         1.
     4975.        7.60       0.45         1.
     4978.        7.77       0.50         1.
     4985.        8.74       0.55         1.
     5000.        9.75       0.68         1.
     5014.       10.28       0.61         1.
     5028.        9.95       0.58         1.
ENDDATA            247
ENDSUBENT          255
ENDENTRY             2
