ENTRY            D0884   20180215   20180420   20180420       D115
SUBENT        D0884001   20180215   20180420   20180420       D115
BIB                 12         19
TITLE      Cross-section measurement for 45Sc(p,g)46Ti
AUTHOR     (S.B.Solomon, D.G.Sargood)
INSTITUTE  (3AULAML)
REFERENCE  (J,NP/A,312,140,1978)
           #doi:10.1016/0375-9474(78)90580-8
FACILITY   (VDG,3AULAML) 5MV Pelletron accelerator.
INC-SOURCE Beam currents were 10 mu-A at 1 MeV, falling to 1 mu-A
           at 4 MeV.
DETECTOR   (GELI)
SAMPLE     A target (thickness of 50 mu-g/cm2) was prepared by
           evaporation of 99.99% pure Sc on to a 0.25 mm thick
           tantalum backing. For 4 MeV protons thickness was 4keV.
METHOD     (BCINT,GSPEC)
ADD-RES    (RRATE)
ANALYSIS   889 keV gamma peak was used at Ep=0.9 to 2.5 MeV,
           while 1120 keV gamma peak normalized to the average
           behaviour of the two gamma peaks in at
           Ep=0.9 to 2.5 MeV was used at Ep>2.5 MeV.
HISTORY    (20180215C) SS+On
ENDBIB              19
NOCOMMON             0          0
ENDSUBENT           22
SUBENT        D0884002   20180215   20180420   20180420       D115
BIB                  3          3
REACTION   (21-SC-45(P,G)22-TI-46,,SIG)
ERR-ANALYS (ERR-1) Absolute uncertainty.
STATUS     (CURVE) Figure 2.
ENDBIB               3
COMMON               3          3
ERR-1      EN-ERR-DIG ERR-DIG
PER-CENT   MEV        MB
        20.     0.0103    0.00781
ENDCOMMON            3
DATA                 2        223
EN         DATA
MEV        MB
     0.8447    0.03759
     0.8603    0.06807
     0.8749    0.03203
     0.8856    0.07282
     0.9055    0.05204
     0.9166    0.11842
     0.9373    0.15395
     0.9513    0.07696
     0.9713    0.06130
     0.9927    0.14800
     1.0025    0.12226
     1.0292    0.22424
     1.0489    0.18811
     1.0570    0.39786
     1.0685    0.50006
     1.0834    0.47937
     1.0933    0.46386
     1.1020    0.37160
     1.1092    0.17186
     1.1348    0.19707
     1.1656    0.22733
     1.1804    0.20663
     1.1911    0.24742
     1.1980    0.37529
     1.2252    0.50797
     1.2388    0.40027
     1.2479    0.33359
     1.2705    0.49706
     1.2949    0.44039
     1.3109    0.49646
     1.3304    0.45010
     1.3461    0.48569
     1.3629    0.60317
     1.3698    0.73104
     1.3818    1.21200
     1.4066    0.82775
     1.4266    0.81721
     1.4297    0.68408
     1.4522    0.84242
     1.4583    0.56592
     1.4908    0.71388
     1.5183    0.87215
     1.5327    1.16880
     1.5509    1.37840
     1.5672    1.10690
     1.5880    1.14750
     1.5909    0.99904
     1.6108    0.98339
     1.6295    1.22880
     1.6416    1.36170
     1.6531    1.11070
     1.6787    1.13590
     1.6794    1.53010
     1.6961    1.29440
     1.7085    1.09970
     1.7279    1.04820
     1.7441    1.11960
     1.7538    1.08880
     1.7716    1.27790
     1.7758    1.21640
     1.8021    1.28770
     1.8116    1.24660
     1.8322    1.27700
     1.8553    1.47630
     1.8792    1.37870
     1.8838    1.34790
     1.9037    1.33220
     1.9106    1.46010
     1.9325    1.57240
     1.9493    1.34180
     1.9726    1.55640
     1.9981    1.91950
     2.0053    1.37170
     2.0246    1.30990
     2.0401    1.68340
     2.0530    1.87770
     2.0667    1.77510
     2.0856    1.68270
     2.1027    1.82070
     2.1153    1.64130
     2.1282    1.48760
     2.1441    1.53850
     2.1618    1.71740
     2.1747    1.91170
     2.1937    1.82950
     2.2190    1.82920
     2.2237    1.80350
     2.2274    1.71640
     2.2439    1.80830
     2.2637    1.77730
     2.2750    2.21220
     2.2909    1.91510
     2.3149    1.82770
     2.3243    2.47770
     2.3390    2.09350
     2.3661    2.22110
     2.3800    1.79090
     2.3807    2.18510
     2.4060    2.18980
     2.4138    2.03100
     2.4297    2.08200
     2.4465    1.85140
     2.4569    2.21460
     2.4750    2.07100
     2.4908    2.11690
     2.4999    2.04510
     2.5160    2.11140
     2.5386    1.93190
     2.5494    2.33100
     2.5688    2.27440
     2.5881    2.20760
     2.5922    2.14610
     2.6155    2.01260
     2.6387    1.86900
     2.6600    1.94540
     2.6759    1.99640
     2.6894    1.88360
     2.7005    1.95510
     2.7096    2.23130
     2.7316    2.00580
     2.7403    1.91350
     2.7571    2.02590
     2.7599    2.22040
     2.7772    2.01540
     2.7910    2.27110
     2.8177    2.02500
     2.8264    2.27570
     2.8418    1.94790
     2.8672    1.95260
     2.8754    2.17260
     2.8944    2.09040
     2.9206    2.15650
     2.9222    1.91590
     2.9436    2.00260
     2.9551    1.74650
     2.9804    1.75130
     2.9869    1.85360
     2.9963    1.80730
     3.0160    1.77120
     3.0356    1.37680
     3.0495    1.64280
     3.0602    1.68350
     3.0776    1.83680
     3.0962    1.38100
     3.1039    1.56520
     3.1196    1.60080
     3.1385    1.51350
     3.1590    1.53360
     3.1694    1.55390
     3.1842    1.52810
     3.1899    1.57410
     3.2097    1.54820
     3.2279    1.75780
     3.2385    1.44030
     3.2551    1.19440
     3.2730    1.38350
     3.2850    1.51130
     3.2992    1.44960
     3.3148    1.48010
     3.3362    1.21360
     3.3444    1.42850
     3.3552    1.47950
     3.3769    1.58670
     3.3947    1.41750
     3.4003    1.45330
     3.4206    1.46320
     3.4271    1.56550
     3.4392    1.35540
     3.4542    1.33980
     3.4692    1.33450
     3.4822    1.53390
     3.4942    1.31370
     3.5108    1.41580
     3.5261    1.42580
     3.5347    1.32330
     3.5497    1.31280
     3.5659    1.38420
     3.5922    1.10740
     3.6036    1.19430
     3.6070    1.43480
     3.6266    1.38850
     3.6483    1.14760
     3.6687    1.15750
     3.6770    1.38260
     3.7036    1.12630
     3.7060    1.29510
     3.7238    1.47920
     3.7445    1.16660
     3.7601    1.19200
     3.7796    1.14560
     3.7809    1.23770
     3.7865    1.27350
     3.7941    1.45250
     3.8097    1.12980
     3.8254    1.17050
     3.8338    1.40070
     3.8541    1.40560
     3.8639    1.04200
     3.8801    1.10830
     3.9026    0.91855
     3.9110    1.15390
     3.9136    0.98493
     3.9299    1.06660
     3.9470    1.19940
     3.9565    1.15830
     3.9674    1.21450
     3.9780    1.24500
     3.9864    1.12720
     3.9973    1.18330
     4.0069    1.14730
     4.0173    0.81959
     4.0320    0.79377
     4.0430    0.85503
     4.0554    1.01350
     4.0674    1.14130
     4.0799    0.95686
     4.1062    1.03320
     4.1188    1.55010
     4.1331    0.79739
     4.1609    0.97613
     4.1646    1.23200
     4.1809    1.30850
     4.1951    1.24180
ENDDATA            225
ENDSUBENT          237
SUBENT        D0884003   20180215   20180420   20180420       D115
BIB                  3          5
REACTION   (21-SC-45(P,G)22-TI-46,,SIG,,AV)
COMMENT    Cross sections were averaged over energy interval.
STATUS     (CURVE) Figure 3.
           (DEP,D0884002) Cross sections measured with the small
           energy step are given.
ENDBIB               5
COMMON               2          3
EN-ERR-DIG ERR-DIG
MEV        PER-CENT
     0.0072       0.43
ENDCOMMON            3
DATA                 2         21
EN         DATA
MEV        MB
     0.9403 1.7772E-01
     1.1026 3.1284E-01
     1.2962 5.5077E-01
     1.4510 8.6742E-01
     1.5130 1.0296E+00
     1.6219 1.1611E+00
     1.7857 1.2441E+00
     1.9568 1.5288E+00
     2.1049 1.6806E+00
     2.2762 1.9617E+00
     2.4167 2.0138E+00
     2.6041 1.9979E+00
     2.7681 1.9820E+00
     2.9012 1.7292E+00
     3.0577 1.5347E+00
     3.2298 1.3858E+00
     3.3861 1.3171E+00
     3.5269 1.2097E+00
     3.7221 1.1900E+00
     3.8865 1.0383E+00
     4.0346 1.1124E+00
ENDDATA             23
ENDSUBENT           37
ENDENTRY             3
