ENTRY            D0891   20180223   20180420   20180420       D115
SUBENT        D0891001   20180223   20180420   20180420       D115
BIB                 13         24
TITLE      A study of the Ca(p,n)Sc reactions (II).
           Fluctuation analysis of the reaction 48Ca(p,n)48Sc
AUTHOR     (W.R.McMurray, M.Peisach, R.Pretorius, P.van der Merwe,
           I.J.van Heerden)
INSTITUTE  (3SAFSUN)
REFERENCE  (J,NP/A,99,17,1967)
           #doi:10.1016/0375-9474(67)90205-9
REL-REF    (M,,W.R.McMurray+,J,NP/A,99,6,1967)
           Experimental details are given.
           Values of energy levels are given.
FACILITY   (VDG,3SAFSUN) 5.5 MV accelerator.
INC-SOURCE Beam pulse length was 4 ns, beam current of protons
           was 5 mu-A.
DETECTOR   (SCIN) Detector with liquid NE-213 scintillator was
           used.
SAMPLE     CaO (prepared from enriched CaCO(3) material) was
           evaporated onto 0.025 cm tantalum discs 2.5 cm diam.
METHOD     (BCINT)
ERR-ANALYS (ERR-T) Absolute cross section error.
           (ERR-1) Uncertainty in detector efficiency.
           (ERR-2) Uncertainty in target thickness.
           (ERR-3,,5.) Uncertainty in counting statistics.
STATUS     (CURVE) Figure 1 from Nucl.Phys.A99,17(1967).
HISTORY    (20180223C) SS+On
ENDBIB              24
COMMON               5          3
ERR-T      ERR-1      ERR-2      EN-ERR-DIG ERR-DIG
PER-CENT   PER-CENT   PER-CENT   MEV        MB/SR
        25.        20.        15.     0.0022     0.0270
ENDCOMMON            3
ENDSUBENT           31
SUBENT        D0891002   20180223   20180420   20180420       D115
BIB                  1          1
REACTION   (20-CA-48(P,N)21-SC-48,PAR,DA)
ENDBIB               1
NOCOMMON             0          0
DATA                 6       1201
E-LVL      E-LVL      E-LVL-ERR  ANG        EN         DATA
KEV        KEV        KEV        ADEG       MEV        MB/SR
       151.       237.        20.         0.     4.0155     2.5707
       151.       237.        20.         0.     4.0343     2.3687
       151.       237.        20.         0.     4.0562     4.9430
       151.       237.        20.         0.     4.0780     3.4286
       151.       237.        20.         0.     4.0967     1.7627
       151.       237.        20.         0.     4.1155     2.7722
       151.       237.        20.         0.     4.1374     1.0558
       151.       237.        20.         0.     4.1562     3.1758
       151.       237.        20.         0.     4.1749     2.3176
       151.       237.        20.         0.     4.1968     3.2261
       151.       237.        20.         0.     4.2156     4.7403
       151.       237.        20.         0.     4.2374     4.1849
       151.       237.        20.         0.     4.2562     6.1535
       151.       237.        20.         0.     4.2812     3.5790
       151.       237.        20.         0.     4.2968     1.9636
       151.       237.        20.         0.     4.3186     2.9226
       151.       237.        20.         0.     4.3405     2.4177
       151.       237.        20.         0.     4.3593     5.1939
       151.       237.        20.         0.     4.3780     2.6699
       151.       237.        20.         0.     4.3999     2.3669
       151.       237.        20.         0.     4.4187     6.1527
       151.       237.        20.         0.     4.4312     3.5278
       151.       237.        20.         0.     4.4374     4.6888
       151.       237.        20.         0.     4.4593     6.2030
       151.       237.        20.         0.     4.4686     2.9723
       151.       237.        20.         0.     4.4812     3.1237
       151.       237.        20.         0.     4.4999     4.0322
       151.       237.        20.         0.     4.5124     3.1740
       151.       237.        20.         0.     4.5218     3.7797
       151.       237.        20.         0.     4.5405     2.8206
       151.       237.        20.         0.     4.5499     1.8110
       151.       237.        20.         0.     4.5593     3.2748
       151.       237.        20.         0.     4.5811     2.7699
       151.       237.        20.         0.     4.5905     2.5679
       151.       237.        20.         0.     4.6030     2.3155
       151.       237.        20.         0.     4.6187     4.8393
       151.       237.        20.         0.     4.6312     3.3249
       151.       237.        20.         0.     4.6405     3.4763
       151.       237.        20.         0.     4.6593     3.0219
       151.       237.        20.         0.     4.6718     2.2142
       151.       237.        20.         0.     4.6811     2.4160
       151.       237.        20.         0.     4.6999     3.7789
       151.       237.        20.         0.     4.7218     2.7692
       151.       237.        20.         0.     4.7436     1.4062
       151.       237.        20.         0.     4.7624     1.6080
       151.       237.        20.         0.     4.7843     3.1727
       151.       237.        20.         0.     4.7999     3.6774
       151.       237.        20.        90.     4.8215     2.5297
       151.       237.        20.        90.     4.8261     3.1220
       151.       237.        20.        90.     4.8309     4.4550
       151.       237.        20.        90.     4.8418     5.7384
       151.       237.        20.        90.     4.8510     4.1084
       151.       237.        20.        90.     4.8633     2.6263
       151.       237.        20.        90.     4.8727     3.9097
       151.       237.        20.        90.     4.8820     4.4031
       151.       237.        20.        90.     4.8928     3.9581
       151.       237.        20.        90.     4.9021     2.8219
       151.       237.        20.        90.     4.9129     3.6608
       151.       237.        20.        90.     4.9237     2.4257
       151.       237.        20.        90.     4.9330     2.5240
       151.       237.        20.        90.     4.9424     3.8568
       151.       237.        20.        90.     4.9517     4.0045
       151.       237.        20.        90.     4.9626     4.4978
       151.       237.        20.        90.     4.9702     2.5221
       151.       237.        20.        90.     4.9826     1.5832
       151.       237.        20.        90.     4.9903     1.8791
       151.       237.        20.        90.     5.0027     2.1254
       151.       237.        20.        90.     5.0121     2.9150
       151.       237.        20.        90.     5.0214     4.2972
       151.       237.        20.        90.     5.0308     5.2844
       151.       237.        20.        90.     5.0416     4.2962
       151.       237.        20.        90.     5.0509     4.1970
       151.       237.        20.        90.     5.0617     3.6533
       151.       237.        20.        90.     5.0725     2.1219
       151.       237.        20.        90.     5.0818     2.8621
       151.       237.        20.        90.     5.0911     2.7629
       151.       237.        20.        90.     5.1004     3.1081
       151.       237.        20.        90.     5.1097     2.4657
       151.       237.        20.        90.     5.1205     3.1071
       151.       237.        20.        90.     5.1314     2.5633
       151.       237.        20.        90.     5.1407     2.4147
       151.       237.        20.        90.     5.1500     2.8093
       151.       237.        20.        90.     5.1593     3.2533
       151.       237.        20.        90.     5.1717     3.3514
       151.       237.        20.        90.     5.1810     2.8571
       151.       237.        20.        90.     5.1918     3.0541
       151.       237.        20.        90.     5.2011     2.4610
       151.       237.        20.        90.     5.2119     1.5716
       151.       237.        20.        90.     5.2212     1.5712
       151.       237.        20.        90.     5.2305     2.5089
       151.       237.        20.        90.     5.2399     3.0517
       151.       237.        20.        90.     5.2523     4.1868
       151.       237.        20.        90.     5.2615     2.8530
       151.       237.        20.        90.     5.2709     3.1982
       151.       237.        20.        90.     5.2817     2.5557
       151.       237.        20.        90.     5.2894     3.1479
       151.       237.        20.        90.     5.3003     3.1474
       151.       237.        20.        90.     5.3111     3.0974
       151.       237.        20.        90.     5.3204     2.0106
       151.       237.        20.        90.     5.3312     1.5162
       151.       237.        20.        90.     5.3405     2.1577
       151.       237.        20.        90.     5.3514     2.2065
       151.       237.        20.        90.     5.3592     3.2431
       151.       237.        20.        90.     5.3700     3.5389
       151.       237.        20.        90.     5.3808     2.6495
       151.       237.        20.        90.     5.3902     3.1922
       151.       237.        20.        90.     5.3994     2.3029
       151.       237.        20.        90.     5.4102     1.7591
       151.       237.        20.        90.     5.4196     2.2524
       151.       237.        20.        90.     5.4304     2.7951
       151.       237.        20.        90.     5.4397     1.4119
       151.       237.        20.        90.     5.4505     0.8188
       151.       237.        20.        90.     5.4613     1.1639
       151.       237.        20.        90.     5.4692     2.3981
       151.       237.        20.        90.     5.4800     2.4963
       151.       237.        20.        90.     5.4893     1.5576
       151.       237.        20.        90.     5.5016     1.5076
       151.       237.        20.        90.     5.5094     1.8528
       151.       237.        20.        90.     5.5203     2.2473
       151.       237.        20.        90.     5.5311     1.9505
       151.       237.        20.        90.     5.5405     2.7895
       151.       237.        20.        90.     5.5482     3.5792
       151.       237.        20.        90.     5.5607     3.9243
       151.       237.        20.        90.     5.5700     4.5164
       151.       237.        20.        90.     5.5792     2.9357
       151.       237.        20.        90.     5.5900     2.2438
       151.       237.        20.        90.     5.5993     3.0828
       151.       237.        20.        90.     5.6102     2.7860
       151.       237.        20.        90.     5.6194     1.9460
       151.       237.        20.        90.     5.6304     3.7726
       151.       237.        20.        90.     5.6397     3.4758
       628.                    6.         0.     4.0183     0.8712
       628.                    6.         0.     4.0402     1.5652
       628.                    6.         0.     4.0590     1.6576
       628.                    6.         0.     4.0777     2.3979
       628.                    6.         0.     4.1027     2.9993
       628.                    6.         0.     4.1215     2.5364
       628.                    6.         0.     4.1403     6.0530
       628.                    6.         0.     4.1621     3.3228
       628.                    6.         0.     4.1809     4.4795
       628.                    6.         0.     4.2027     2.9061
       628.                    6.         0.     4.2215     2.3970
       628.                    6.         0.     4.2434     5.0344
       628.                    6.         0.     4.2622     4.0626
       628.                    6.         0.     4.2871     1.4712
       628.                    6.         0.     4.3028     5.8207
       628.                    6.         0.     4.3279    10.1700
       628.                    6.         0.     4.3434     4.3860
       628.                    6.         0.     4.3654     6.9308
       628.                    6.         0.     4.3841     6.5606
       628.                    6.         0.     4.3997     6.4679
       628.                    6.         0.     4.4154     6.9305
       628.                    6.         0.     4.4247     7.3007
       628.                    6.         0.     4.4341     8.1335
       628.                    6.         0.     4.4404     7.9484
       628.                    6.         0.     4.4466     6.9304
       628.                    6.         0.     4.4652     2.1179
       628.                    6.         0.     4.4747     4.4315
       628.                    6.         0.     4.4871     3.2283
       628.                    6.         0.     4.5060     6.5135
       628.                    6.         0.     4.5153     4.3387
       628.                    6.         0.     4.5247     6.4209
       628.                    6.         0.     4.5465     4.4773
       628.                    6.         0.     4.5591     5.4027
       628.                    6.         0.     4.5685     6.5132
       628.                    6.         0.     4.5872     4.0143
       628.                    6.         0.     4.5933     1.4693
       628.                    6.         0.     4.6090     1.7006
       628.                    6.         0.     4.6277     1.9318
       628.                    6.         0.     4.6340     3.3662
       628.                    6.         0.     4.6496     3.6438
       628.                    6.         0.     4.6652     2.1630
       628.                    6.         0.     4.6777     2.7182
       628.                    6.         0.     4.6902     1.8389
       628.                    6.         0.     4.7091     5.3555
       628.                    6.         0.     4.7278     6.6973
       628.                    6.         0.     4.7465     3.9671
       628.                    6.         0.     4.7653     5.4477
       628.                    6.         0.     4.7871     2.4862
       628.                    6.         0.     4.8091     6.1878
       628.                    6.        90.     4.8244     3.3810
       628.                    6.        90.     4.8353     4.9434
       628.                    6.        90.     4.8446     5.0810
       628.                    6.        90.     4.8555     4.4372
       628.                    6.        90.     4.8662     2.6905
       628.                    6.        90.     4.8755     2.4144
       628.                    6.        90.     4.8864     4.3904
       628.                    6.        90.     4.8942     3.4250
       628.                    6.        90.     4.9050     2.9192
       628.                    6.        90.     4.9158     1.6780
       628.                    6.        90.     4.9251     2.6888
       628.                    6.        90.     4.9344     3.3779
       628.                    6.        90.     4.9437     2.6883
       628.                    6.        90.     4.9545     1.8147
       628.                    6.        90.     4.9669     2.2740
       628.                    6.        90.     4.9747     3.3768
       628.                    6.        90.     4.9841     4.2038
       628.                    6.        90.     4.9949     3.8818
       628.                    6.        90.     5.0042     3.7896
       628.                    6.        90.     5.0150     4.0650
       628.                    6.        90.     5.0244     5.3976
       628.                    6.        90.     5.0352     5.3054
       628.                    6.        90.     5.0445     3.6506
       628.                    6.        90.     5.0554     5.2588
       628.                    6.        90.     5.0662     5.8101
       628.                    6.        90.     5.0755     5.3962
       628.                    6.        90.     5.0848     5.0742
       628.                    6.        90.     5.0956     4.2006
       628.                    6.        90.     5.1065     6.5902
       628.                    6.        90.     5.1158     6.3142
       628.                    6.        90.     5.1251     4.8892
       628.                    6.        90.     5.1359     4.7970
       628.                    6.        90.     5.1452     4.7507
       628.                    6.        90.     5.1545     4.6586
       628.                    6.        90.     5.1653     3.9229
       628.                    6.        90.     5.1761     2.8196
       628.                    6.        90.     5.1855     3.2789
       628.                    6.        90.     5.1963     2.8190
       628.                    6.        90.     5.2041     4.8410
       628.                    6.        90.     5.2164     1.7154
       628.                    6.        90.     5.2257     2.7263
       628.                    6.        90.     5.2350     2.5881
       628.                    6.        90.     5.2459     2.8636
       628.                    6.        90.     5.2567     1.8981
       628.                    6.        90.     5.2660     2.2655
       628.                    6.        90.     5.2769     2.4490
       628.                    6.        90.     5.2846     2.9084
       628.                    6.        90.     5.2954     1.9430
       628.                    6.        90.     5.3063     2.1265
       628.                    6.        90.     5.3156     2.8616
       628.                    6.        90.     5.3265     2.9992
       628.                    6.        90.     5.3357     2.7231
       628.                    6.        90.     5.3451     3.3663
       628.                    6.        90.     5.3559     2.7685
       628.                    6.        90.     5.3652     3.5036
       628.                    6.        90.     5.3760     2.3543
       628.                    6.        90.     5.3869     1.8944
       628.                    6.        90.     5.3962     3.3189
       628.                    6.        90.     5.4056     5.4328
       628.                    6.        90.     5.4163     3.2264
       628.                    6.        90.     5.4272     3.3640
       628.                    6.        90.     5.4350     6.7188
       628.                    6.        90.     5.4458     5.3857
       628.                    6.        90.     5.4551     3.4092
       628.                    6.        90.     5.4659     3.4089
       628.                    6.        90.     5.4753     4.4657
       628.                    6.        90.     5.4861     4.9709
       628.                    6.        90.     5.4954     3.5459
       628.                    6.        90.     5.5062     3.3618
       628.                    6.        90.     5.5155     2.4883
       628.                    6.        90.     5.5248     2.1663
       628.                    6.        90.     5.5356     2.2119
       628.                    6.        90.     5.5450     3.3607
       628.                    6.        90.     5.5558     2.7169
       628.                    6.        90.     5.5666     2.1191
       628.                    6.        90.     5.5759     2.7163
       628.                    6.        90.     5.5868     3.0378
       628.                    6.        90.     5.5961     3.4052
       628.                    6.        90.     5.6162     2.8990
       628.                    6.        90.     5.6271     3.7260
       628.                    6.        90.     5.6348     3.4960
       628.                    6.        90.     5.6457     3.9093
      1139.                    7.         0.     4.0182     4.3057
      1139.                    7.         0.     4.0370     6.5564
      1139.                    7.         0.     4.0589     7.2764
      1139.                    7.         0.     4.0807     3.3146
      1139.                    7.         0.     4.0996    16.9100
      1139.                    7.         0.     4.1182     5.1149
      1139.                    7.         0.     4.1432     4.6644
      1139.                    7.         0.     4.1620     7.7254
      1139.                    7.         0.     4.1807     6.5547
      1139.                    7.         0.     4.2027    12.1370
      1139.                    7.         0.     4.2214     9.2554
      1139.                    7.         0.     4.2403    17.9890
      1139.                    7.         0.     4.2589     6.1937
      1139.                    7.         0.     4.2808     8.6244
      1139.                    7.         0.     4.3057     6.1932
      1139.                    7.         0.     4.3214     7.9037
      1139.                    7.         0.     4.3402     9.3441
      1139.                    7.         0.     4.3651     6.7327
      1139.                    7.         0.     4.3839     9.1635
      1139.                    7.         0.     4.4057     5.6518
      1139.                    7.         0.     4.4214     7.7225
      1139.                    7.         0.     4.4339     6.0117
      1139.                    7.         0.     4.4463     2.7702
      1139.                    7.         0.     4.4651     6.7316
      1139.                    7.         0.     4.4746    11.1430
      1139.                    7.         0.     4.4839     7.4517
      1139.                    7.         0.     4.5057     7.1813
      1139.                    7.         0.     4.5152    11.5030
      1139.                    7.         0.     4.5246    17.1750
      1139.                    7.         0.     4.5433    10.9620
      1139.                    7.         0.     4.5526     5.3801
      1139.                    7.         0.     4.5652     9.8817
      1139.                    7.         0.     4.5870     5.0195
      1139.                    7.         0.     4.5964     6.0098
      1139.                    7.         0.     4.6057     7.2702
      1139.                    7.         0.     4.6245     6.7298
      1139.                    7.         0.     4.6339    12.0420
      1139.                    7.         0.     4.6464    11.5010
      1139.                    7.         0.     4.6651     6.9094
      1139.                    7.         0.     4.6745    10.3310
      1139.                    7.         0.     4.6870     8.9800
      1139.                    7.         0.     4.7089     7.4492
      1139.                    7.         0.     4.7276     6.7287
      1139.                    7.         0.     4.7463     3.3071
      1139.                    7.         0.     4.7713     2.8566
      1139.                    7.         0.     4.7901     7.3582
      1139.                    7.         0.     4.8089    10.5990
      1139.                    7.        90.     4.8242     4.0432
      1139.                    7.        90.     4.8351     7.8687
      1139.                    7.        90.     4.8460     9.8682
      1139.                    7.        90.     4.8537     8.0417
      1139.                    7.        90.     4.8646     8.2151
      1139.                    7.        90.     4.8754     8.0406
      1139.                    7.        90.     4.8847     7.9532
      1139.                    7.        90.     4.8940     7.0832
      1139.                    7.        90.     4.9048     3.6914
      1139.                    7.        90.     4.9157     3.5169
      1139.                    7.        90.     4.9250     6.2991
      1139.                    7.        90.     4.9343     5.3421
      1139.                    7.        90.     4.9451     5.0807
      1139.                    7.        90.     4.9560     4.9062
      1139.                    7.        90.     4.9653     6.3840
      1139.                    7.        90.     4.9746     8.1227
      1139.                    7.        90.     4.9839     6.9048
      1139.                    7.        90.     4.9947     5.2521
      1139.                    7.        90.     5.0055     3.2516
      1139.                    7.        90.     5.0148     3.5120
      1139.                    7.        90.     5.0241     5.4246
      1139.                    7.        90.     5.0350     5.9458
      1139.                    7.        90.     5.0458     4.9018
      1139.                    7.        90.     5.0552     6.4665
      1139.                    7.        90.     5.0644     5.5095
      1139.                    7.        90.     5.0753     3.3351
      1139.                    7.        90.     5.0845     3.5085
      1139.                    7.        90.     5.0954     3.6819
      1139.                    7.        90.     5.1047     5.5075
      1139.                    7.        90.     5.1156     5.0722
      1139.                    7.        90.     5.1248     3.8544
      1139.                    7.        90.     5.1341     2.1148
      1139.                    7.        90.     5.1450     3.6794
      1139.                    7.        90.     5.1558     4.7224
      1139.                    7.        90.     5.1651     3.7654
      1139.                    7.        90.     5.1744     4.3736
      1139.                    7.        90.     5.1837     3.8514
      1139.                    7.        90.     5.1946     5.6769
      1139.                    7.        90.     5.2054     5.1547
      1139.                    7.        90.     5.2147     2.1977
      1139.                    7.        90.     5.2255     2.3711
      1139.                    7.        90.     5.2348     2.8924
      1139.                    7.        90.     5.2457     3.2397
      1139.                    7.        90.     5.2550     3.5001
      1139.                    7.        90.     5.2658     3.5865
      1139.                    7.        90.     5.2752     4.3686
      1139.                    7.        90.     5.2860     6.1072
      1139.                    7.        90.     5.2938     9.3241
      1139.                    7.        90.     5.3047     8.0193
      1139.                    7.        90.     5.3155     6.8014
      1139.                    7.        90.     5.3263     7.4965
      1139.                    7.        90.     5.3356     6.1917
      1139.                    7.        90.     5.3465     5.5824
      1139.                    7.        90.     5.3557     4.8863
      1139.                    7.        90.     5.3666     3.8423
      1139.                    7.        90.     5.3759     5.2332
      1139.                    7.        90.     5.3852     5.7544
      1139.                    7.        90.     5.3945     5.1453
      1139.                    7.        90.     5.4053     5.3186
      1139.                    7.        90.     5.4146     3.5791
      1139.                    7.        90.     5.4254     3.1438
      1139.                    7.        90.     5.4347     2.5346
      1139.                    7.        90.     5.4440     3.4037
      1139.                    7.        90.     5.4549     3.3162
      1139.                    7.        90.     5.4657     3.0548
      1139.                    7.        90.     5.4750     4.9674
      1139.                    7.        90.     5.4859     4.9668
      1139.                    7.        90.     5.4952     3.2272
      1139.                    7.        90.     5.5045     3.0529
      1139.                    7.        90.     5.5153     4.2697
      1139.                    7.        90.     5.5262     4.2692
      1139.                    7.        90.     5.5355     3.6600
      1139.                    7.        90.     5.5448     8.0943
      1139.                    7.        90.     5.5557     8.7024
      1139.                    7.        90.     5.5665     8.7888
      1139.                    7.        90.     5.5758     7.1362
      1139.                    7.        90.     5.5850     3.3967
      1139.                    7.        90.     5.5959     2.7005
      1139.                    7.        90.     5.6052     2.2653
      1139.                    7.        90.     5.6160     1.9169
      1139.                    7.        90.     5.6253     3.1338
      1397.                    7.         0.     4.0207     3.4132
      1397.                    7.         0.     4.0394     1.0289
      1397.                    7.         0.     4.0581     1.1542
      1397.                    7.         0.     4.0800     1.4468
      1397.                    7.         0.     4.1020     2.7433
      1397.                    7.         0.     4.1207     1.7393
      1397.                    7.         0.     4.1394     2.0319
      1397.                    7.         0.     4.1613     1.6971
      1397.                    7.         0.     4.1801     2.1152
      1397.                    7.         0.     4.2019     0.9438
      1397.                    7.         0.     4.2208     3.9970
      1397.                    7.         0.     4.2425     1.1107
      1397.                    7.         0.     4.2613     1.6543
      1397.                    7.         0.     4.2832     3.2436
      1397.                    7.         0.     4.3051     2.7833
      1397.                    7.         0.     4.3207     1.9884
      1397.                    7.         0.     4.3425     1.7791
      1397.                    7.         0.     4.3643     0.4404
      1397.                    7.         0.     4.3832     1.8624
      1397.                    7.         0.     4.4050     1.7367
      1397.                    7.         0.     4.4237     0.9418
      1397.                    7.         0.     4.4331     1.2345
      1397.                    7.         0.     4.4456     1.0671
      1397.                    7.         0.     4.4644     0.8160
      1397.                    7.         0.     4.4737     0.5649
      1397.                    7.         0.     4.4862     0.9831
      1397.                    7.         0.     4.5051     3.9108
      1397.                    7.         0.     4.5145     2.6977
      1397.                    7.         0.     4.5238     2.8650
      1397.                    7.         0.     4.5457     1.9027
      1397.                    7.         0.     4.5551     2.0281
      1397.                    7.         0.     4.5675     1.8189
      1397.                    7.         0.     4.5833     4.2029
      1397.                    7.         0.     4.5957     2.5297
      1397.                    7.         0.     4.6051     2.6969
      1397.                    7.         0.     4.6269     1.4837
      1397.                    7.         0.     4.6363     1.6928
      1397.                    7.         0.     4.6487     0.7307
      1397.                    7.         0.     4.6738     1.1905
      1397.                    7.         0.     4.6862     0.7721
      1397.                    7.         0.     4.7081     0.7301
      1397.                    7.         0.     4.7269     2.0266
      1397.                    7.         0.     4.7488     1.3990
      1397.                    7.         0.     4.7706     0.3949
      1397.                    7.         0.     4.7863     2.4443
      1397.                    7.         0.     4.8082     2.7788
      1397.                    7.        90.     4.8237     1.4803
      1397.                    7.        90.     4.8346     2.0448
      1397.                    7.        90.     4.8439     1.7838
      1397.                    7.        90.     4.8548     2.6090
      1397.                    7.        90.     4.8656     1.6526
      1397.                    7.        90.     4.8733     1.4351
      1397.                    7.        90.     4.8857     1.6954
      1397.                    7.        90.     4.8934     1.6951
      1397.                    7.        90.     4.9043     1.5209
      1397.                    7.        90.     4.9136     1.5640
      1397.                    7.        90.     4.9260     1.4332
      1397.                    7.        90.     4.9338     2.9103
      1397.                    7.        90.     4.9446     3.1272
      1397.                    7.        90.     4.9555     3.6048
      1397.                    7.        90.     4.9633     3.9521
      1397.                    7.        90.     4.9741     4.4732
      1397.                    7.        90.     4.9834     2.8217
      1397.                    7.        90.     4.9958     2.6909
      1397.                    7.        90.     5.0051     3.1685
      1397.                    7.        90.     5.0144     2.7771
      1397.                    7.        90.     5.0252     1.9946
      1397.                    7.        90.     5.0344     0.7776
      1397.                    7.        90.     5.0437     1.4291
      1397.                    7.        90.     5.0546     2.6019
      1397.                    7.        90.     5.0640     3.3837
      1397.                    7.        90.     5.0733     3.2965
      1397.                    7.        90.     5.0841     2.2967
      1397.                    7.        90.     5.0949     1.4272
      1397.                    7.        90.     5.1057     1.2096
      1397.                    7.        90.     5.1150     0.9051
      1397.                    7.        90.     5.1243     0.7310
      1397.                    7.        90.     5.1351     1.1216
      1397.                    7.        90.     5.1444     0.8606
      1397.                    7.        90.     5.1553     1.0340
      1397.                    7.        90.     5.1646     1.9896
      1397.                    7.        90.     5.1755     2.5976
      1397.                    7.        90.     5.1832     1.9455
      1397.                    7.        90.     5.1941     2.1624
      1397.                    7.        90.     5.2049     1.9448
      1397.                    7.        90.     5.2142     1.1188
      1397.                    7.        90.     5.2251     2.4220
      1397.                    7.        90.     5.2344     1.9872
      1397.                    7.        90.     5.2452     2.2475
      1397.                    7.        90.     5.2545     1.4650
      1397.                    7.        90.     5.2653     1.4646
      1397.                    7.        90.     5.2762     1.3774
      1397.                    7.        90.     5.2855     1.6812
      1397.                    7.        90.     5.2948     1.8547
      1397.                    7.        90.     5.3056     0.8983
      1397.                    7.        90.     5.3149     1.5063
      1397.                    7.        90.     5.3257     1.2452
      1397.                    7.        90.     5.3335     1.6795
      1397.                    7.        90.     5.3459     1.7660
      1397.                    7.        90.     5.3552     2.2436
      1397.                    7.        90.     5.3645     2.5909
      1397.                    7.        90.     5.3753     1.4173
      1397.                    7.        90.     5.3847     1.7646
      1397.                    7.        90.     5.3955     1.7207
      1397.                    7.        90.     5.4048     2.1549
      1397.                    7.        90.     5.4156     1.4593
      1397.                    7.        90.     5.4249     1.1983
      1397.                    7.        90.     5.4343     2.5450
      1397.                    7.        90.     5.4451     2.5880
      1397.                    7.        90.     5.4544     1.6318
      1397.                    7.        90.     5.4652     1.5445
      1397.                    7.        90.     5.4746     2.6739
      1397.                    7.        90.     5.4854     1.6741
      1397.                    7.        90.     5.4946     1.3696
      1397.                    7.        90.     5.5055     1.6734
      1397.                    7.        90.     5.5164     1.8468
      1397.                    7.        90.     5.5256     1.0209
      1397.                    7.        90.     5.5349     0.6295
      1397.                    7.        90.     5.5442     1.4982
      1397.                    7.        90.     5.5551     1.1068
      1397.                    7.        90.     5.5644     1.3237
      1397.                    7.        90.     5.5737     1.8448
      1397.                    7.        90.     5.5845     1.8444
      1397.                    7.        90.     5.5923     2.2786
      1397.                    7.        90.     5.6063     2.6692
      1397.                    7.        90.     5.6140     1.7999
      1397.                    7.        90.     5.6264     1.2780
      1397.                    7.        90.     5.6357     1.6253
      1397.                    7.        90.     5.6450     1.6250
      1883.                    6.         0.     4.0203     1.0133
      1883.                    6.         0.     4.0390     0.6900
      1883.                    6.         0.     4.0641     1.6798
      1883.                    6.         0.     4.0828     0.7706
      1883.                    6.         0.     4.1015     0.7099
      1883.                    6.         0.     4.1234     0.5482
      1883.                    6.         0.     4.1421     0.7905
      1883.                    6.         0.     4.1609     0.8107
      1883.                    6.         0.     4.1828     1.2146
      1883.                    6.         0.     4.2046     0.5276
      1883.                    6.         0.     4.2234     0.5679
      1883.                    6.         0.     4.2421     0.5477
      1883.                    6.         0.     4.2640     1.0930
      1883.                    6.         0.     4.2859     0.7091
      1883.                    6.         0.     4.3046     0.7090
      1883.                    6.         0.     4.3234     0.8907
      1883.                    6.         0.     4.3422     1.1735
      1883.                    6.         0.     4.3672     0.9107
      1883.                    6.         0.     4.3861     2.8703
      1883.                    6.         0.     4.4079     1.9207
      1883.                    6.         0.     4.4265     1.0519
      1883.                    6.         0.     4.4359     0.7892
      1883.                    6.         0.     4.4452     0.4457
      1883.                    6.         0.     4.4671     0.8497
      1883.                    6.         0.     4.4767     2.9305
      1883.                    6.         0.     4.4892     2.6476
      1883.                    6.         0.     4.5079     2.1020
      1883.                    6.         0.     4.5172     1.4151
      1883.                    6.         0.     4.5265     1.0312
      1883.                    6.         0.     4.5484     0.5867
      1883.                    6.         0.     4.5578     1.0715
      1883.                    6.         0.     4.5674     3.3543
      1883.                    6.         0.     4.5891     1.1319
      1883.                    6.         0.     4.5953     0.9097
      1883.                    6.         0.     4.6078     0.8288
      1883.                    6.         0.     4.6266     1.1722
      1883.                    6.         0.     4.6361     2.9297
      1883.                    6.         0.     4.6485     1.7984
      1883.                    6.         0.     4.6640     0.8690
      1883.                    6.         0.     4.6765     0.9901
      1883.                    6.         0.     4.6890     0.8083
      1883.                    6.         0.     4.7077     0.6466
      1883.                    6.         0.     4.7296     0.4646
      1883.                    6.         0.     4.7515     0.7474
      1883.                    6.         0.     4.7703     1.1917
      1883.                    6.         0.     4.7891     1.4745
      1883.                    6.         0.     4.8109     0.5451
      1883.                    6.        90.     4.8235     1.8743
      1883.                    6.        90.     4.8360     2.4341
      1883.                    6.        90.     4.8452     1.8940
      1883.                    6.        90.     4.8560     1.4938
      1883.                    6.        90.     4.8652     0.7936
      1883.                    6.        90.     4.8746     1.1135
      1883.                    6.        90.     4.8854     1.0333
      1883.                    6.        90.     4.8947     1.3131
      1883.                    6.        90.     4.9056     1.2530
      1883.                    6.        90.     4.9164     0.8728
      1883.                    6.        90.     4.9257     1.3326
      1883.                    6.        90.     4.9350     1.3525
      1883.                    6.        90.     4.9459     1.6923
      1883.                    6.        90.     4.9552     1.2921
      1883.                    6.        90.     4.9660     1.1920
      1883.                    6.        90.     4.9753     1.0918
      1883.                    6.        90.     4.9846     0.8917
      1883.                    6.        90.     4.9969     0.4515
      1883.                    6.        90.     5.0047     0.5913
      1883.                    6.        90.     5.0155     0.6312
      1883.                    6.        90.     5.0264     0.8310
      1883.                    6.        90.     5.0357     0.9508
      1883.                    6.        90.     5.0465     0.7906
      1883.                    6.        90.     5.0558     0.9705
      1883.                    6.        90.     5.0667     1.0903
      1883.                    6.        90.     5.0744     0.8502
      1883.                    6.        90.     5.0853     0.7900
      1883.                    6.        90.     5.0961     0.7298
      1883.                    6.        90.     5.1054     1.1697
      1883.                    6.        90.     5.1163     1.1895
      1883.                    6.        90.     5.1256     1.6093
      1883.                    6.        90.     5.1350     1.9492
      1883.                    6.        90.     5.1473     1.4890
      1883.                    6.        90.     5.1565     0.7288
      1883.                    6.        90.     5.1659     1.0887
      1883.                    6.        90.     5.1752     1.2885
      1883.                    6.        90.     5.1860     1.2683
      1883.                    6.        90.     5.1953     1.4482
      1883.                    6.        90.     5.2062     1.5480
      1883.                    6.        90.     5.2170     1.1878
      1883.                    6.        90.     5.2263     1.0277
      1883.                    6.        90.     5.2356     1.0475
      1883.                    6.        90.     5.2465     1.3273
      1883.                    6.        90.     5.2557     0.7672
      1883.                    6.        90.     5.2666     0.7670
      1883.                    6.        90.     5.2759     1.1668
      1883.                    6.        90.     5.2868     1.3867
      1883.                    6.        90.     5.3053     0.9664
      1883.                    6.        90.     5.3162     1.0062
      1883.                    6.        90.     5.3270     1.0860
      1883.                    6.        90.     5.3364     1.7658
      1883.                    6.        90.     5.3472     1.7257
      1883.                    6.        90.     5.3566     2.7855
      1883.                    6.        90.     5.3659     2.4654
      1883.                    6.        90.     5.3767     1.9852
      1883.                    6.        90.     5.3859     1.0450
      1883.                    6.        90.     5.3967     1.1048
      1883.                    6.        90.     5.4061     1.4247
      1883.                    6.        90.     5.4169     1.4445
      1883.                    6.        90.     5.4277     1.2043
      1883.                    6.        90.     5.4370     1.0842
      1883.                    6.        90.     5.4463     0.8840
      1883.                    6.        90.     5.4571     0.7039
      1883.                    6.        90.     5.4665     0.9037
      1883.                    6.        90.     5.4773     1.2835
      1883.                    6.        90.     5.4866     1.2834
      1883.                    6.        90.     5.4959     1.0832
      1883.                    6.        90.     5.5067     0.9430
      1883.                    6.        90.     5.5176     0.7429
      1883.                    6.        90.     5.5269     0.7227
      1883.                    6.        90.     5.5346     0.4826
      1883.                    6.        90.     5.5455     1.3424
      1883.                    6.        90.     5.5548     1.5222
      1883.                    6.        90.     5.5657     1.7020
      1883.                    6.        90.     5.5765     1.3819
      1883.                    6.        90.     5.5858     1.3617
      1883.                    6.        90.     5.5967     1.5415
      1883.                    6.        90.     5.6046     2.8814
      1883.                    6.        90.     5.6168     1.3812
      1883.                    6.        90.     5.6261     0.9211
      1883.                    6.        90.     5.6353     0.7009
      1883.                    6.        90.     5.6462     0.9007
      2080.                    7.         0.     4.0191     1.9893
      2080.                    7.         0.     4.0413     0.9917
      2080.                    7.         0.     4.0580     0.2550
      2080.                    7.         0.     4.0807     0.6060
      2080.                    7.         0.     4.0988     0.4209
      2080.                    7.         0.     4.1207     0.4808
      2080.                    7.         0.     4.1412     1.1692
      2080.                    7.         0.     4.1588     0.8002
      2080.                    7.         0.     4.1804     0.7375
      2080.                    7.         0.     4.1993     0.8436
      2080.                    7.         0.     4.2224     1.3479
      2080.                    7.         0.     4.2398     0.9023
      2080.                    7.         0.     4.2609     0.6557
      2080.                    7.         0.     4.2822     0.5011
      2080.                    7.         0.     4.3008     1.6340
      2080.                    7.         0.     4.3167     0.6062
      2080.                    7.         0.     4.3412     0.4820
      2080.                    7.         0.     4.3653     1.3693
      2080.                    7.         0.     4.3847     1.6593
      2080.                    7.         0.     4.4039     0.7079
      2080.                    7.         0.     4.4214     1.4730
      2080.                    7.         0.     4.4313     0.5069
      2080.                    7.         0.     4.4454     1.1496
      2080.                    7.         0.     4.4635     0.9339
      2080.                    7.         0.     4.4759     2.1132
      2080.                    7.         0.     4.4878     1.8979
      2080.                    7.         0.     4.5080     1.3142
      2080.                    7.         0.     4.5128     0.8081
      2080.                    7.         0.     4.5224     0.9148
      2080.                    7.         0.     4.5401     0.5612
      2080.                    7.         0.     4.5500     0.7904
      2080.                    7.         0.     4.5640     1.3566
      2080.                    7.         0.     4.5812     0.8344
      2080.                    7.         0.     4.5915     1.2015
      2080.                    7.         0.     4.6052     1.6758
      2080.                    7.         0.     4.6225     1.1996
      2080.                    7.         0.     4.6356     1.4286
      2080.                    7.         0.     4.6445     1.2748
      2080.                    7.         0.     4.6616     0.7066
      2080.                    7.         0.     4.6702     0.4149
      2080.                    7.         0.     4.6821     0.2302
      2080.                    7.         0.     4.7008     0.2597
      2080.                    7.         0.     4.7219     1.2085
      2080.                    7.         0.     4.7452     0.6093
      2080.                    7.         0.     4.7663     1.5581
      2080.                    7.         0.     4.7840     1.1892
      2080.                    7.         0.     4.8041     0.5902
      2080.                    7.        90.     4.8281     1.0863
      2080.                    7.        90.     4.8384     0.5614
      2080.                    7.        90.     4.8491     0.3539
      2080.                    7.        90.     4.8584     0.4005
      2080.                    7.        90.     4.8680     0.6057
      2080.                    7.        90.     4.8774     0.6999
      2080.                    7.        90.     4.8898     0.6827
      2080.                    7.        90.     4.8994     0.9514
      2080.                    7.        90.     4.9087     0.9662
      2080.                    7.        90.     4.9191     0.5365
      2080.                    7.        90.     4.9285     0.5990
      2080.                    7.        90.     4.9376     0.4234
      2080.                    7.        90.     4.9491     0.9458
      2080.                    7.        90.     4.9602     1.2303
      2080.                    7.        90.     4.9696     1.3086
      2080.                    7.        90.     4.9786     0.9743
      2080.                    7.        90.     4.9890     0.5922
      2080.                    7.        90.     4.9997     0.4164
      2080.                    7.        90.     5.0092     0.5265
      2080.                    7.        90.     5.0197     0.2555
      2080.                    7.        90.     5.0292     0.4290
      2080.                    7.        90.     5.0401     0.3961
      2080.                    7.        90.     5.0495     0.4744
      2080.                    7.        90.     5.0587     0.4416
      2080.                    7.        90.     5.0698     0.6149
      2080.                    7.        90.     5.0791     0.5822
      2080.                    7.        90.     5.0902     0.8190
      2080.                    7.        90.     5.0996     0.9132
      2080.                    7.        90.     5.1104     0.8643
      2080.                    7.        90.     5.1197     0.7839
      2080.                    7.        90.     5.1304     0.7034
      2080.                    7.        90.     5.1405     1.4165
      2080.                    7.        90.     5.1509     0.9868
      2080.                    7.        90.     5.1612     0.4777
      2080.                    7.        90.     5.1693     0.7308
      2080.                    7.        90.     5.1803     0.8883
      2080.                    7.        90.     5.1911     0.8394
      2080.                    7.        90.     5.2007     1.0923
      2080.                    7.        90.     5.2101     1.1389
      2080.                    7.        90.     5.2208     1.0424
      2080.                    7.        90.     5.2316     0.9778
      2080.                    7.        90.     5.2391     0.6754
      2080.                    7.        90.     5.2498     0.5155
      2080.                    7.        90.     5.2593     0.7525
      2080.                    7.        90.     5.2705     1.0686
      2080.                    7.        90.     5.2813     0.9405
      2080.                    7.        90.     5.2901     0.5268
      2080.                    7.        90.     5.2995     0.5893
      2080.                    7.        90.     5.3118     0.4292
      2080.                    7.        90.     5.3197     0.5553
      2080.                    7.        90.     5.3308     0.7762
      2080.                    7.        90.     5.3402     0.8387
      2080.                    7.        90.     5.3508     0.6311
      2080.                    7.        90.     5.3608     1.2966
      2080.                    7.        90.     5.3703     1.4066
      2080.                    7.        90.     5.3824     1.1196
      2080.                    7.        90.     5.3898     0.7696
      2080.                    7.        90.     5.4026     1.1967
      2080.                    7.        90.     5.4113     0.6085
      2080.                    7.        90.     5.4207     0.6868
      2080.                    7.        90.     5.4314     0.4952
      2080.                    7.        90.     5.4428     0.9859
      2080.                    7.        90.     5.4521     0.9690
      2080.                    7.        90.     5.4608     0.4125
      2080.                    7.        90.     5.4720     0.7604
      2080.                    7.        90.     5.4813     0.6959
      2080.                    7.        90.     5.4920     0.5995
      2080.                    7.        90.     5.5011     0.3922
      2080.                    7.        90.     5.5103     0.2959
      2080.                    7.        90.     5.5214     0.5010
      2080.                    7.        90.     5.5323     0.4839
      2080.                    7.        90.     5.5404     0.8004
      2080.                    7.        90.     5.5513     0.8468
      2080.                    7.        90.     5.5618     0.4806
      2175.                    5.         0.     4.0154     2.9290
      2175.                    5.         0.     4.0372     2.9694
      2175.                    5.         0.     4.0564     3.1767
      2175.                    5.         0.     4.0781     3.1477
      2175.                    5.         0.     4.0969     3.2161
      2175.                    5.         0.     4.1181     3.0343
      2175.                    5.         0.     4.1368     3.0610
      2175.                    5.         0.     4.1585     3.0320
      2175.                    5.         0.     4.1779     4.4061
      2175.                    5.         0.     4.2021     4.1686
      2175.                    5.         0.     4.2180     3.2092
      2175.                    5.         0.     4.2397     3.1801
      2175.                    5.         0.     4.2604     3.9291
      2175.                    5.         0.     4.2783     3.6641
      2175.                    5.         0.     4.2986     3.1490
      2175.                    5.         0.     4.3176     3.2868
      2175.                    5.         0.     4.3387     3.0772
      2175.                    5.         0.     4.3578     3.2290
      2175.                    5.         0.     4.3795     3.2277
      2175.                    5.         0.     4.3978     3.1017
      2175.                    5.         0.     4.4177     3.5589
      2175.                    5.         0.     4.4287     3.0443
      2175.                    5.         0.     4.4409     2.9603
      2175.                    5.         0.     4.4609     3.4453
      2175.                    5.         0.     4.4823     3.3469
      2175.                    5.         0.     4.5010     3.3458
      2175.                    5.         0.     4.5217     3.0112
      2175.                    5.         0.     4.5382     3.3298
      2175.                    5.         0.     4.5493     2.8707
      2175.                    5.         0.     4.5619     2.9395
      2175.                    5.         0.     4.5803     2.8690
      2175.                    5.         0.     4.5900     2.9934
      2175.                    5.         0.     4.5991     2.9096
      2175.                    5.         0.     4.6180     3.0057
      2175.                    5.         0.     4.6263     3.7554
      2175.                    5.         0.     4.6390     3.8519
      2175.                    5.         0.     4.6571     3.6564
      2175.                    5.         0.     4.6720     3.4472
      2175.                    5.         0.     4.6805     3.1550
      2175.                    5.         0.     4.6997     3.3622
      2175.                    5.         0.     4.7201     3.9584
      2175.                    5.         0.     4.7399     3.3044
      2175.                    5.         0.     4.7609     5.2202
      2175.                    5.         0.     4.7812     3.6076
      2175.                    5.         0.     4.8026     3.5092
      2175.                    5.        90.     4.8280     3.6450
      2175.                    5.        90.     4.8372     3.4887
      2175.                    5.        90.     4.8473     1.7946
      2175.                    5.        90.     4.8567     1.8305
      2175.                    5.        90.     4.8675     5.3257
      2175.                    5.        90.     4.8771     5.8228
      2175.                    5.        90.     4.8894     5.5889
      2175.                    5.        90.     4.8972     5.7789
      2175.                    5.        90.     4.9071     3.4698
      2175.                    5.        90.     4.9187     1.7752
      2175.                    5.        90.     4.9265     1.8115
      2175.                    5.        90.     4.9377     2.5004
      2175.                    5.        90.     4.9484     2.1515
      2175.                    5.        90.     4.9577     2.1874
      2175.                    5.        90.     4.9686     2.1460
      2175.                    5.        90.     4.9775     4.7961
      2175.                    5.        90.     4.9892     3.1784
      2175.                    5.        90.     4.9968     2.7150
      2175.                    5.        90.     5.0074     2.0971
      2175.                    5.        90.     5.0186     3.0166
      2175.                    5.        90.     5.0291     2.1296
      2175.                    5.        90.     5.0386     2.5114
      2175.                    5.        90.     5.0469     3.6240
      2175.                    5.        90.     5.0588     2.4675
      2175.                    5.        90.     5.0691     1.3883
      2175.                    5.        90.     5.0788     2.1545
      2175.                    5.        90.     5.0897     2.2669
      2175.                    5.        90.     5.0989     1.8800
      2175.                    5.        90.     5.1082     1.9543
      2175.                    5.        90.     5.1205     1.6435
      2175.                    5.        90.     5.1285     2.1026
      2175.                    5.        90.     5.1393     2.1381
      2175.                    5.        90.     5.1487     2.2509
      2175.                    5.        90.     5.1577     1.5949
      2175.                    5.        90.     5.1691     2.7451
      2175.                    5.        90.     5.1795     1.6659
      2175.                    5.        90.     5.1892     2.6243
      2175.                    5.        90.     5.1982     1.8146
      2175.                    5.        90.     5.2105     1.5806
      2175.                    5.        90.     5.2197     1.4243
      2175.                    5.        90.     5.2295     2.3058
      2175.                    5.        90.     5.2400     1.6494
      2175.                    5.        90.     5.2484     3.0311
      2175.                    5.        90.     5.2580     3.6435
      2175.                    5.        90.     5.2705     3.8708
      2175.                    5.        90.     5.2814     3.9447
      2175.                    5.        90.     5.2892     4.0579
      2175.                    5.        90.     5.2999     3.5553
      2175.                    5.        90.     5.3097     1.2461
      2175.                    5.        90.     5.3207     1.4353
      2175.                    5.        90.     5.3303     2.1631
      2175.                    5.        90.     5.3385     3.1988
      2175.                    5.        90.     5.3489     2.1580
      2175.                    5.        90.     5.3604     3.5388
      2175.                    5.        90.     5.3711     3.1515
      2175.                    5.        90.     5.3795     1.1118
      2175.                    5.        90.     5.3889     1.1862
      2175.                    5.        90.     5.4003     2.4132
      2175.                    5.        90.     5.4106     1.1803
      2175.                    5.        90.     5.4214     1.1389
      2175.                    5.        90.     5.4320     3.9422
      2175.                    5.        90.     5.4397     3.9017
      2175.                    5.        90.     5.4504     3.4375
      2175.                    5.        90.     5.4587     1.0903
      2175.                    5.        90.     5.4805     1.3535
      2175.                    5.        90.     5.4905     2.9653
      2175.                    5.        90.     5.5000     3.3855
      2175.                    5.        90.     5.5104     2.2679
      2175.                    5.        90.     5.5191     0.9201
      2175.                    5.        90.     5.5302     1.3015
      2175.                    5.        90.     5.5396     1.4912
      2175.                    5.        90.     5.5506     1.8726
      2267.                    6.         0.     4.0139     4.3502
      2267.                    6.         0.     4.0372     1.4855
      2267.                    6.         0.     4.0585     0.6936
      2267.                    6.         0.     4.0755     3.4755
      2267.                    6.         0.     4.0971     3.1837
      2267.                    6.         0.     4.1183     2.2489
      2267.                    6.         0.     4.1377     3.6011
      2267.                    6.         0.     4.1588     2.4520
      2267.                    6.         0.     4.1770     1.6609
      2267.                    6.         0.     4.1987     1.5834
      2267.                    6.         0.     4.2207     1.9346
      2267.                    6.         0.     4.2400     3.3583
      2267.                    6.         0.     4.2616     3.0664
      2267.                    6.         0.     4.2796     1.7753
      2267.                    6.         0.     4.2983     1.9130
      2267.                    6.         0.     4.3194     0.6924
      2267.                    6.         0.     4.3415     1.4722
      2267.                    6.         0.     4.3579     3.1111
      2267.                    6.         0.     4.3799     3.6051
      2267.                    6.         0.     4.4003     1.0271
      2267.                    6.         0.     4.4219     0.7353
      2267.                    6.         0.     4.4314     1.1614
      2267.                    6.         0.     4.4410     1.7303
      2267.                    6.         0.     4.4599     2.2252
      2267.                    6.         0.     4.4705     4.5803
      2267.                    6.         0.     4.4818     2.5050
      2267.                    6.         0.     4.5004     2.4998
      2267.                    6.         0.     4.5094     1.9256
      2267.                    6.         0.     4.5216     1.4221
      2267.                    6.         0.     4.5402     1.3454
      2267.                    6.         0.     4.5507     3.6290
      2267.                    6.         0.     4.5575     4.7704
      2267.                    6.         0.     4.5795     5.2645
      2267.                    6.         0.     4.5904     2.4747
      2267.                    6.         0.     4.6025     1.7568
      2267.                    6.         0.     4.6191     3.8958
      2267.                    6.         0.     4.6297     6.1794
      2267.                    6.         0.     4.6416     5.3186
      2267.                    6.         0.     4.6613     1.3117
      2267.                    6.         0.     4.6682     2.7389
      2267.                    6.         0.     4.6810     3.3784
      2267.                    6.         0.     4.7015     1.0147
      2267.                    6.         0.     4.7187     4.2968
      2267.                    6.         0.     4.7424     2.0751
      2267.                    6.         0.     4.7607     1.4269
      2267.                    6.         0.     4.7823     1.1351
      2267.                    6.         0.     4.8016     2.4159
      2267.                    6.        90.     4.8289     2.4905
      2267.                    6.        90.     4.8367     2.6247
      2267.                    6.        90.     4.8476     2.5504
      2267.                    6.        90.     4.8572     3.8562
      2267.                    6.        90.     4.8683     4.6785
      2267.                    6.        90.     4.8773     3.3636
      2267.                    6.        90.     4.8882     3.5652
      2267.                    6.        90.     4.8978     4.5261
      2267.                    6.        90.     4.9083     3.3484
      2267.                    6.        90.     4.9173     1.7576
      2267.                    6.        90.     4.9281     1.7523
      2267.                    6.        90.     4.9393     2.9194
      2267.                    6.        90.     4.9485     2.7080
      2267.                    6.        90.     4.9595     3.1165
      2267.                    6.        90.     4.9690     4.0085
      2267.                    6.        90.     4.9779     2.2108
      2267.                    6.        90.     4.9889     2.7573
      2267.                    6.        90.     4.9986     4.2010
      2267.                    6.        90.     5.0091     2.8853
      2267.                    6.        90.     5.0184     2.6049
      2267.                    6.        90.     5.0292     2.3927
      2267.                    6.        90.     5.0387     3.1468
      2267.                    6.        90.     5.0481     3.6940
      2267.                    6.        90.     5.0591     4.3093
      2267.                    6.        90.     5.0689     5.8910
      2267.                    6.        90.     5.0796     5.2650
      2267.                    6.        90.     5.0901     3.8114
      2267.                    6.        90.     5.0994     3.7379
      2267.                    6.        90.     5.1093     6.2851
      2267.                    6.        90.     5.1201     6.1418
      2267.                    6.        90.     5.1292     5.0338
      2267.                    6.        90.     5.1398     3.9941
      2267.                    6.        90.     5.1491     3.8516
      2267.                    6.        90.     5.1598     3.0876
      2267.                    6.        90.     5.1693     3.9796
      2267.                    6.        90.     5.1789     5.0785
      2267.                    6.        90.     5.1892     3.0043
      2267.                    6.        90.     5.1983     2.0342
      2267.                    6.        90.     5.2094     3.1323
      2267.                    6.        90.     5.2202     2.6443
      2267.                    6.        90.     5.2293     1.8121
      2267.                    6.        90.     5.2388     2.4283
      2267.                    6.        90.     5.2495     1.9402
      2267.                    6.        90.     5.2589     2.2115
      2267.                    6.        90.     5.2698     2.5511
      2267.                    6.        90.     5.2790     2.1327
      2267.                    6.        90.     5.2900     2.6102
      2267.                    6.        90.     5.2994     2.7435
      2267.                    6.        90.     5.3101     2.3244
      2267.                    6.        90.     5.3211     2.5950
      2267.                    6.        90.     5.3306     3.5560
      2267.                    6.        90.     5.3398     3.0687
      2267.                    6.        90.     5.3495     4.4434
      2267.                    6.        90.     5.3603     4.1623
      2267.                    6.        90.     5.3696     4.1577
      2267.                    6.        90.     5.3804     4.0834
      2267.                    6.        90.     5.3895     3.1134
      2267.                    6.        90.     5.4009     5.1081
      2267.                    6.        90.     5.4104     6.0690
      2267.                    6.        90.     5.4210     4.9603
      2267.                    6.        90.     5.4299     3.2316
      2267.                    6.        90.     5.4388     1.7098
      2267.                    6.        90.     5.4501     3.3597
      2267.                    6.        90.     5.4610     3.3544
      2267.                    6.        90.     5.4794     2.3797
      2267.                    6.        90.     5.4901     1.6848
      2267.                    6.        90.     5.5013     3.0588
      2267.                    6.        90.     5.5104     2.5025
      2267.                    6.        90.     5.5214     2.8420
      2267.                    6.        90.     5.5322     2.6298
      2267.                    6.        90.     5.5413     1.5908
      2267.                    6.        90.     5.5507     2.0690
      2380.                    5.         0.     4.0198     0.1228
      2380.                    5.         0.     4.0418     0.2049
      2380.                    5.         0.     4.0601     0.1066
      2380.                    5.         0.     4.0800     0.5638
      2380.                    5.         0.     4.1005     0.1320
      2380.                    5.         0.     4.1221     0.0752
      2380.                    5.         0.     4.1411     0.2131
      2380.                    5.         0.     4.1629     0.2118
      2380.                    5.         0.     4.1800     0.7804
      2380.                    5.         0.     4.2017     0.7514
      2380.                    5.         0.     4.2219     0.2223
      2380.                    5.         0.     4.2405     0.2074
      2380.                    5.         0.     4.2627     0.3589
      2380.                    5.         0.     4.2809     0.2190
      2380.                    5.         0.     4.3029     0.3288
      2380.                    5.         0.     4.3213     0.2444
      2380.                    5.         0.     4.3433     0.3404
      2380.                    5.         0.     4.3624     0.4921
      2380.                    5.         0.     4.3849     0.7409
      2380.                    5.         0.     4.4053     0.2813
      2380.                    5.         0.     4.4218     0.6277
      2380.                    5.         0.     4.4324     1.0993
      2380.                    5.         0.     4.4425     0.2653
      2380.                    5.         0.     4.4614     0.3476
      2380.                    5.         0.     4.4751     0.8052
      2380.                    5.         0.     4.4850     1.0269
      2380.                    5.         0.     4.5025     0.6092
      2380.                    5.         0.     4.5153     0.7612
      2380.                    5.         0.     4.5236     0.4135
      2380.                    5.         0.     4.5420     0.3013
      2380.                    5.         0.     4.5546     0.3700
      2380.                    5.         0.     4.5615     0.6197
      2380.                    5.         0.     4.5871     0.8960
      2380.                    5.         0.     4.5921     0.4790
      2380.                    5.         0.     4.6041     0.3255
      2380.                    5.         0.     4.6232     0.4773
      2380.                    5.         0.     4.6348     1.2684
      2380.                    5.         0.     4.6459     0.8093
      2380.                    5.         0.     4.6663     0.3359
      2380.                    5.         0.     4.6736     0.7383
      2380.                    5.         0.     4.6852     0.4598
      2380.                    5.         0.     4.7034     0.2782
      2380.                    5.         0.     4.7251     0.2769
      2380.                    5.         0.     4.7448     0.6509
      2380.                    5.         0.     4.7685     1.3441
      2380.                    5.         0.     4.7865     1.1208
      2380.                    5.         0.     4.8066     0.5501
      2380.                    5.        90.     4.8287     0.8064
      2380.                    5.        90.     4.8396     0.8331
      2380.                    5.        90.     4.8502     0.6237
      2380.                    5.        90.     4.8611     0.6782
      2380.                    5.        90.     4.8712     1.3023
      2380.                    5.        90.     4.8801     0.9542
      2380.                    5.        90.     4.8911     1.0642
      2380.                    5.        90.     4.9007     1.2855
      2380.                    5.        90.     4.9111     0.9095
      2380.                    5.        90.     4.9198     0.4086
      2380.                    5.        90.     4.9309     0.6020
      2380.                    5.        90.     4.9423     1.0870
      2380.                    5.        90.     4.9497     0.7529
      2380.                    5.        90.     4.9621     0.7517
      2380.                    5.        90.     4.9700     0.8482
      2380.                    5.        90.     4.9796     1.0556
      2380.                    5.        90.     4.9900     0.7073
      2380.                    5.        90.     5.0014     1.1229
      2380.                    5.        90.     5.0121     0.9691
      2380.                    5.        90.     5.0200     1.1350
      2380.                    5.        90.     5.0307     0.9673
      2380.                    5.        90.     5.0417     1.0495
      2380.                    5.        90.     5.0508     0.9514
      2380.                    5.        90.     5.0618     1.0337
      2380.                    5.        90.     5.0709     0.8106
      2380.                    5.        90.     5.0809     1.4207
      2380.                    5.        90.     5.0911     0.8225
      2380.                    5.        90.     5.1020     0.8631
      2380.                    5.        90.     5.1112     0.7788
      2380.                    5.        90.     5.1211     1.3057
      2380.                    5.        90.     5.1316     0.9852
      2380.                    5.        90.     5.1408     0.8454
      2380.                    5.        90.     5.1518     0.9555
      2380.                    5.        90.     5.1620     0.4822
      2380.                    5.        90.     5.1705     1.0370
      2380.                    5.        90.     5.1830     1.1191
      2380.                    5.        90.     5.1919     0.7849
      2380.                    5.        90.     5.2026     0.6727
      2380.                    5.        90.     5.2107     0.9358
      2380.                    5.        90.     5.2227     0.5735
      2380.                    5.        90.     5.2319     0.5031
      2380.                    5.        90.     5.2411     0.3772
      2380.                    5.        90.     5.2512     1.0569
      2380.                    5.        90.     5.2621     1.0558
      2380.                    5.        90.     5.2732     1.2353
      2380.                    5.        90.     5.2810     1.2901
      2380.                    5.        90.     5.2914     0.8863
      2380.                    5.        90.     5.3023     0.9408
      2380.                    5.        90.     5.3114     0.7176
      2380.                    5.        90.     5.3223     0.7860
      2380.                    5.        90.     5.3314     0.6046
      2380.                    5.        90.     5.3425     0.7563
      2380.                    5.        90.     5.3521     1.0609
      2380.                    5.        90.     5.3625     0.6571
      2380.                    5.        90.     5.3724     1.1145
      2380.                    5.        90.     5.3821     1.4469
      2380.                    5.        90.     5.3909     1.0294
      2380.                    5.        90.     5.4029     0.6809
      2380.                    5.        90.     5.4122     0.6523
      2380.                    5.        90.     5.4219     0.9986
      2380.                    5.        90.     5.4333     1.4419
      2380.                    5.        90.     5.4412     1.4967
      2380.                    5.        90.     5.4515     1.0651
      2380.                    5.        90.     5.4619     0.7030
      2380.                    5.        90.     5.4736     1.3408
      2380.                    5.        90.     5.4829     1.3815
      2380.                    5.        90.     5.4919     1.0751
      2380.                    5.        90.     5.5016     1.4353
      2380.                    5.        90.     5.5122     1.1703
      2380.                    5.        90.     5.5226     0.8498
      2380.                    5.        90.     5.5321     0.9323
      2380.                    5.        90.     5.5428     0.8062
      2380.                    5.        90.     5.5523     1.0136
      2380.                    5.        90.     5.5631     0.8876
      2380.                    5.        90.     5.5721     0.6367
      2508.                    4.         0.     3.9936     0.8105
      2508.                    4.         0.     4.0182     0.5885
      2508.                    4.         0.     4.0396     0.2944
      2508.                    4.         0.     4.0586     0.6187
      2508.                    4.         0.     4.0799     0.2155
      2508.                    4.         0.     4.1000     1.5213
      2508.                    4.         0.     4.1215     1.3362
      2508.                    4.         0.     4.1400     1.1879
      2508.                    4.         0.     4.1611     0.6393
      2508.                    4.         0.     4.1797     0.6001
      2508.                    4.         0.     4.1976     2.6697
      2508.                    4.         0.     4.2204     3.6115
      2508.                    4.         0.     4.2396     1.3544
      2508.                    4.         0.     4.2634     0.4781
      2508.                    4.         0.     4.2828     1.1659
      2508.                    4.         0.     4.3026     4.9804
      2508.                    4.         0.     4.3236     4.2864
      2508.                    4.         0.     4.3434     2.5382
      2508.                    4.         0.     4.3638     1.3716
      2508.                    4.         0.     4.3856     1.4410
      2508.                    4.         0.     4.4016     1.8385
      2508.                    4.         0.     4.4216     3.1079
      2508.                    4.         0.     4.4424     5.0316
      2508.                    4.         0.     4.4645     2.5560
      2508.                    4.         0.     4.4829     5.1345
      2508.                    4.         0.     4.5013     2.1504
      2508.                    4.         0.     4.5104     2.0035
      2508.                    4.         0.     4.5227     1.8562
      2508.                    4.         0.     4.5430     3.3074
      2508.                    4.         0.     4.5631     1.9227
      2508.                    4.         0.     4.5805     0.7566
      2508.                    4.         0.     4.6037     2.1346
      2508.                    4.         0.     4.6230     2.7134
      2508.                    4.         0.     4.6320     2.4575
      2508.                    4.         0.     4.6442     2.2375
      2508.                    4.         0.     4.6619     1.3985
      2508.                    4.         0.     4.6718     1.8697
      2508.                    4.         0.     4.6835     4.0493
      2508.                    4.         0.     4.7061     4.7730
      2508.                    4.         0.     4.7219     5.0614
      2508.                    4.         0.     4.7433     1.9677
      2508.                    4.         0.     4.7612     1.3469
      2508.                    4.         0.     4.7843     2.5068
      2508.                    4.        90.     4.8299     2.7021
      2508.                    4.        90.     4.8405     2.0448
      2508.                    4.        90.     4.8500     2.4788
      2508.                    4.        90.     4.8598     3.4945
      2508.                    4.        90.     4.8799     6.7621
      2508.                    4.        90.     4.8898     4.4688
      2508.                    4.        90.     4.8997     2.5026
      2508.                    4.        90.     4.9091     2.7548
      2508.                    4.        90.     4.9197     1.9885
      2508.                    4.        90.     4.9304     1.6221
      2508.                    4.        90.     4.9399     2.2015
      2508.                    4.        90.     4.9496     2.8536
      2508.                    4.        90.     4.9608     3.5781
      2508.                    4.        90.     4.9700     3.4303
      2508.                    4.        90.     4.9790     2.7735
      2508.                    4.        90.     4.9891     4.4800
      2508.                    4.        90.     4.9993     6.4774
      2508.                    4.        90.     5.0104     3.4201
      2508.                    4.        90.     5.0202     1.2358
      2508.                    4.        90.     5.0300     2.2878
      2508.                    4.        90.     5.0407     1.8488
      2508.                    4.        90.     5.0498     1.5192
      2508.                    4.        90.     5.0608     1.6982
      2508.                    4.        90.     5.0702     1.9140
      2508.                    4.        90.     5.0801     3.1115
      2508.                    4.        90.     5.0908     2.8906
      2508.                    4.        90.     5.0999     2.2702
      2508.                    4.        90.     5.1107     2.2674
      2508.                    4.        90.     5.1187     2.7381
      2508.                    4.        90.     5.1298     3.1354
      2508.                    4.        90.     5.1407     3.3144
ENDDATA           1203
ENDSUBENT         1209
ENDENTRY             2
