ENTRY            23275   20160324   20160902   20160818       2249
SUBENT        23275001   20160324   20160902   20160818       2249
BIB                 11         40
TITLE      The beta decay of 9Li to levels in 9Be: a new look.
AUTHOR     (G.Nyman,R.E.Azuma,P.G.Hansen,B.Jonson,P.O.Larsson,
           S.Mattsson,A.Richter,K.Riisager,O.Tengblad,
           K.Wilhelmsen)
INSTITUTE  (2ZZZCER) The ISOLDE Collaboration. K.Riisager.
           (2SWDCTH) G.Nyman,B.Jonson,P.O.Larsson,S.Mattsson,
           O.Tengblad,K.Wilhelmsen.
           (1CANTOR) R.E.Azuma.
           (2DENAAU) P.G.Hansen.
           (2GERTHD) A.Richter.
REFERENCE  (J,NP/A,510,189,1990)
FACILITY   (SYNCY,2ZZZCER) ISOLDE facility at CERN
           synchrocyclotron .
DECAY-DATA (3-LI-9,178.3MSEC)
SAMPLE      Li-9 was produced by bombarding a 13-g/cm2 uranium
           carbide at 2000 degC with 1.6-microA 600-MeV protons.
           Li atoms were mass separated online. Li9+ beam of
           typically 3E+6 at/sec .
DETECTOR   (PROPC) Gridded He-3-filled proportional counter in
           shielding box of paraffin, polyethylene, Cd layers .
           Detector energy resolution ( FWHM) is 12 keV at
           thermal energy, increases smoothly to ~20 keV at 1 MeV.
           Used for LI-9 delayed-neutron spectra measurement.
CORRECTION For energy dependence of detector efficiency.
           Thermal peak was subtracted.
ADD-RES    Energy spectrum of beta-delayed alpha particles from
           Li-9 on Fig.4.
           Li-9 decay scheme and branching ratios ( Table 2 ) for
           beta decay of Li-9 to states in Be-9:
           E-exc,MeV  Spin&Parity   Wide,keV,   Intensity,%
           0.0        3/2-                      50+-3
           1.68       1/2+         217+-0.10    <2
           2.43       5/2-         0.77+-0.15   30+-3
           2.78       1/2-         1080+-110    16+-3
           7.94       (1/2-)       ~1000        <2
           11.28      (3/2-)       575+-50      1.1+-0.2
           11.81                   400+-30      2.7+-0.2
HISTORY    (20160324C) M.M.
            Digitized data were received from consultants of
            beta-delayed neutron CRP .
ENDBIB              40
NOCOMMON             0          0
ENDSUBENT           43
SUBENT        23275002   20160324   20160902   20160818       2249
BIB                  3          6
REACTION   (3-LI-9(0,B-)4-BE-9,,PN/DE,,REL)
            Relative beta-delayed neutron spectrum, counts.
EN-SEC     (E,N) Energy of delayed neutrons.
STATUS     (CURVE) Fig.2 of NP/A,510,189,1990 .
            Digitized data were received from consultants of
            beta-delayed neutron CRP .
ENDBIB               6
NOCOMMON             0          0
DATA                 2         61
E          DATA
MEV        ARB-UNITS
  1.409E-02  2.076E+03
  2.820E-02  2.831E+03
  3.180E-02  3.257E+03
  4.912E-02  3.672E+03
  5.271E-02  4.182E+03
  7.003E-02  4.668E+03
  8.734E-02  5.211E+03
  9.777E-02  5.759E+03
  9.784E-02  6.115E+03
  1.048E-01  6.625E+03
  1.254E-01  6.623E+03
  1.357E-01  6.427E+03
  1.495E-01  7.031E+03
  1.565E-01  7.541E+03
  1.840E-01  7.769E+03
  2.218E-01  7.766E+03
  2.596E-01  7.763E+03
  2.802E-01  7.236E+03
  3.007E-01  6.745E+03
  3.418E-01  5.861E+03
  3.862E-01  4.844E+03
  3.999E-01  4.515E+03
  4.100E-01  3.964E+03
  4.339E-01  3.244E+03
  4.510E-01  3.116E+03
  5.226E-01  1.869E+03
  5.807E-01  1.544E+03
  6.050E-01  1.830E+03
  6.085E-01  1.943E+03
  6.294E-01  2.398E+03
  6.294E-01  2.546E+03
  6.571E-01  2.842E+03
  6.845E-01  2.702E+03
  6.879E-01  2.519E+03
  6.980E-01  2.104E+03
  7.352E-01  1.275E+03
  7.385E-01  1.212E+03
  7.900E-01  1.176E+03
  8.382E-01  1.187E+03
  9.276E-01  1.235E+03
  9.585E-01  1.234E+03
  9.894E-01  1.246E+03
  1.038E+00  1.246E+03
  1.089E+00  1.258E+03
  1.172E+00  1.207E+03
  1.405E+00  8.831E+02
  1.474E+00  8.825E+02
  1.676E+00  6.522E+02
  1.909E+00  4.448E+02
  1.981E+00  4.271E+02
  2.005E+00  4.185E+02
  2.064E+00  3.528E+02
  2.180E+00  2.856E+02
  2.276E+00  2.383E+02
  2.321E+00  2.091E+02
  2.410E+00  1.659E+02
  2.437E+00  1.442E+02
  2.478E+00  1.371E+02
  2.674E+00  9.834E+01
  2.804E+00  8.975E+01
  2.952E+00  8.962E+01
ENDDATA             63
ENDSUBENT           74
SUBENT        23275003   20160324   20160902   20160818       2249
BIB                  5         13
REACTION   (3-LI-9(0,B-)4-BE-9,,PN/DE,,REL)
            Relative beta-delayed neutrons spectrum, counts.
EN-SEC     (E,N) Energy of delayed neutrons.
ERR-ANALYS (E-ERR-DIG) Digitizing error of scale X ( energy);
           (ERR-DIG) Digitizing error of scale Y ( data);
            reflect deviation of scale from linear low.
              Quantization error (one pixel) :
           scale X - 0.0006 MeV ,
           scale Y - 8.3 arb.units .
COMMENT    Of compiler M.M. Data on Fig 5 are given as histogram,
           but digitized as smooth curve because bins of
           histogram are of low size.
STATUS     (CURVE) Fig.5 of NP/A,510,189,1990 .
ENDBIB              13
COMMON               2          3
E-ERR-DIG  ERR-DIG
MEV        ARB-UNITS
0.00066     6.4
ENDCOMMON            3
DATA                 2        350
E          DATA
MEV        ARB-UNITS
0.89254E-03 1049.3
0.31990E-02 1507.4
0.55878E-02 1682.3
0.85503E-02 1982.2
0.11525E-01 2240.5
0.13330E-01 2323.9
0.18203E-01 2349.1
0.20628E-01 2399.2
0.23670E-01 2424.3
0.26681E-01 2557.7
0.32763E-01 2616.3
0.33289E-01 2907.8
0.35097E-01 2982.8
0.39961E-01 3033.0
0.42312E-01 3341.2
0.50759E-01 3658.1
0.51894E-01 3949.6
0.54263E-01 4191.2
0.59716E-01 4316.4
0.61495E-01 4491.3
0.66370E-01 4508.2
0.66963E-01 4566.5
0.69402E-01 4566.7
0.69431E-01 4466.8
0.71208E-01 4650.0
0.72428E-01 4650.1
0.74897E-01 4550.3
0.79164E-01 4558.9
0.79230E-01 4675.4
0.79696E-01 4825.3
0.84571E-01 4842.3
0.85105E-01 5100.4
0.88128E-01 5192.2
0.92393E-01 5209.0
0.93562E-01 5383.9
0.93580E-01 5458.9
0.97781E-01 5559.0
0.97896E-01 5850.4
0.10318     5867.4
0.10352     6042.2
0.10675     6167.3
0.10731     6342.2
0.11333     6609.0
0.11632     6825.6
0.11935     6884.1
0.11995     6917.4
0.12300     6925.9
0.12668     6842.8
0.13037     6759.8
0.13403     6768.3
0.13468     6626.8
0.13834     6610.3
0.13903     6343.9
0.14085     6360.7
0.14142     6502.3
0.14384     6560.7
0.14443     6635.6
0.14848     6727.5
0.14855     6819.0
0.14861     6943.9
0.15225     7010.7
0.15405     7110.8
0.15707     7219.2
0.15826     7344.1
0.15828     7477.3
0.17092     7844.4
0.17211     7944.4
0.17455     7952.8
0.17639     7903.0
0.17641     7853.0
0.17946     7844.8
0.18070     7770.0
0.18497     7761.9
0.18621     7703.7
0.19049     7670.6
0.19536     7679.2
0.19722     7587.7
0.19905     7587.8
0.20143     7787.8
0.20450     7729.6
0.20453     7613.1
0.20759     7579.9
0.20939     7679.9
0.21180     7788.3
0.21606     7821.9
0.22094     7822.1
0.22213     7938.7
0.22761     7955.7
0.22882     7997.4
0.23126     7997.5
0.23190     7897.6
0.23372     7914.4
0.23375     7964.4
0.23676     7964.5
0.23857     8031.2
0.23975     8156.2
0.24097     8164.6
0.24224     7998.1
0.24346     7998.2
0.24526     8106.5
0.24769     8115.0
0.25015     8056.8
0.25137     8056.9
0.25139     8165.1
0.25378     8165.3
0.25385     8248.5
0.25681     8240.4
0.25746     8082.2
0.25933     7965.7
0.26178     7915.9
0.26363     7849.4
0.26792     7774.7
0.26859     7574.9
0.27169     7383.6
0.27408     7575.2
0.27594     7475.4
0.27779     7400.6
0.27964     7309.1
0.27971     7100.9
0.28214     7101.1
0.28270     7300.9
0.28576     7242.8
0.28762     7151.3
0.28884     7159.7
0.29004     7201.4
0.29553     7210.0
0.29618     7085.2
0.30110     6943.9
0.30598     6927.5
0.30783     6852.7
0.31151     6794.6
0.31217     6636.4
0.31643     6653.3
0.32072     6586.9
0.32136     6470.4
0.32437     6612.1
0.32562     6503.9
0.32934     6312.6
0.33122     6137.9
0.33363     6254.6
0.33540     6454.5
0.33668     6254.7
0.33794     6096.6
0.34097     6171.7
0.34282     6088.5
0.34652     5972.2
0.34719     5747.4
0.35026     5697.6
0.35271     5647.8
0.35273     5572.9
0.35700     5573.1
0.36253     5448.5
0.36560     5373.7
0.36746     5265.6
0.37168     5432.3
0.37416     5290.9
0.37603     5157.8
0.37731     4974.7
0.38218     4975.0
0.38221     4891.7
0.38711     4833.7
0.39022     4609.0
0.39632     4609.4
0.39678     4359.6
0.40068     4284.9
0.40439     4126.9
0.40806     4102.1
0.41240     3844.2
0.41368     3652.8
0.41674     3619.7
0.42038     3661.5
0.42162     3595.0
0.42227     3470.1
0.42654     3453.7
0.42718     3353.8
0.43084     3345.7
0.43578     3146.1
0.44124     3246.3
0.44372     3121.6
0.44679     3055.1
0.44928     2863.7
0.45660     2855.8
0.45969     2739.4
0.46335     2714.6
0.46888     2581.7
0.47255     2556.9
0.47383     2348.8
0.47685     2440.6
0.48054     2357.5
0.48664     2341.2
0.49035     2183.2
0.49710     2025.4
0.50076     2025.6
0.50379     2100.7
0.50994     1942.8
0.51242     1801.4
0.51484     1851.5
0.51793     1710.1
0.51970     1918.4
0.52217     1818.6
0.52649     1644.0
0.52830     1710.7
0.53257     1702.6
0.53322     1586.1
0.53564     1636.1
0.54052     1644.7
0.54483     1511.8
0.55030     1578.7
0.55459     1495.6
0.56434     1521.1
0.56739     1546.3
0.57167     1504.9
0.57471     1538.3
0.57717     1446.9
0.58080     1547.0
0.58326     1505.5
0.58692     1505.7
0.58994     1605.8
0.59363     1472.8
0.59604     1597.8
0.60153     1598.1
0.60159     1673.0
0.60577     1681.6
0.60635     1789.9
0.61123     1806.8
0.61490     1757.0
0.61610     1840.3
0.62096     1898.9
0.62120     2023.7
0.62393     2157.2
0.62696     2240.6
0.62876     2332.3
0.63302     2365.8
0.63359     2507.4
0.64026     2624.3
0.64328     2732.7
0.64690     2566.4
0.64692     2824.5
0.65180     2824.8
0.65425     2783.3
0.65543     2908.2
0.65847     2933.4
0.66154     2875.3
0.66643     2833.9
0.66941     3092.2
0.67253     2834.2
0.67560     2759.5
0.67686     2618.0
0.67989     2684.7
0.68232     2726.5
0.68481     2560.1
0.68849     2493.7
0.69158     2352.3
0.69402     2344.1
0.69405     2235.9
0.69896     2127.9
0.69960     2036.4
0.70328     1970.0
0.70455     1811.8
0.71003     1828.8
0.71190     1687.3
0.71557     1645.9
0.71803     1571.1
0.71932     1338.0
0.72725     1338.5
0.73338     1238.9
0.73641     1305.7
0.74070     1239.3
0.74252     1264.4
0.74680     1239.6
0.75048     1148.2
0.75353     1165.0
0.75718     1181.9
0.75964     1140.4
0.76082     1248.7
0.76757     1115.8
0.77183     1157.7
0.77488     1157.9
0.77855     1124.8
0.78036     1174.8
0.78828     1208.6
0.79135     1142.1
0.79254     1267.1
0.79441     1117.3
0.79851     1101.0
0.79988     1184.2
0.80293     1167.7
0.80536     1209.5
0.81027     1109.8
0.81271     1118.3
0.81635     1176.8
0.81820     1118.6
0.82058     1301.9
0.82303     1268.7
0.82609     1243.9
0.82732     1194.0
0.83220     1202.6
0.83650     1102.9
0.84016     1103.1
0.84198     1144.9
0.84564     1145.1
0.84623     1211.7
0.85110     1220.3
0.85661     1154.0
0.85784     1112.4
0.85967     1112.5
0.86087     1204.2
0.86392     1179.4
0.86759     1171.2
0.86945     1054.8
0.87064     1163.1
0.87367     1221.5
0.87733     1221.7
0.87915     1271.8
0.88344     1188.7
0.88649     1180.6
0.88770     1214.0
0.88953     1205.7
0.89200     1122.6
0.89564     1189.4
0.89931     1148.0
0.90112     1223.0
0.90661     1231.6
0.90904     1265.1
0.91087     1248.5
0.91334     1148.7
0.91760     1173.9
0.92066     1149.1
0.92734     1249.4
0.93100     1241.3
0.93286     1149.8
0.93895     1166.8
0.94262     1150.3
0.94444     1158.7
0.94502     1267.0
0.94627     1158.8
0.95420     1159.3
0.95965     1317.8
0.95970     1142.9
0.96516     1218.2
0.96885     1118.4
0.97188     1201.9
0.97493     1202.0
0.97735     1277.1
0.97980     1235.6
0.98285     1235.8
0.98589     1269.2
0.98713     1202.7
0.99139     1211.2
0.99508     1103.2
ENDDATA            352
ENDSUBENT          374
SUBENT        23275004   20160324   20160902   20160818       2249
BIB                  6         15
REACTION   (3-LI-9(0,B-)4-BE-9,,PN/DE,,REL)
            Relative beta-delayed neutron spectrum, counts.
            Region around 682 keV peak corresponds to
           Be-9 5/2- -> Be-8-G transition.
EN-SEC     (E,N) Energy of delayed neutrons.
ERR-ANALYS (E-ERR-DIG) Digitizing error of scale X ( energy);
           (ERR-DIG) Digitizing error of scale Y ( data);
            reflect deviation of scale from linear low.
              Quantization error (one pixel) :
           scale X - 0.0003 MeV ,
           scale Y - 0.361 arb.units .
CORRECTION  For background.
COMMENT    Of authors. Peak is broadened by recoil and
           polarization effects.
STATUS     (CURVE) Fig.5,insert, circles, of NP/A,510,189,1990 .
ENDBIB              15
COMMON               2          3
E-ERR-DIG  ERR-DIG
MEV        ARB-UNITS
0.00044     0.434
ENDCOMMON            3
DATA                 2         26
E          DATA
MEV        ARB-UNITS
0.61709      6.370
0.62230     12.902
0.62755     11.131
0.63205     19.463
0.63693     21.300
0.64317     31.088
0.64767     38.338
0.65252     44.867
0.65704     49.229
0.66264     48.543
0.66752     51.824
0.67202     58.352
0.67692     57.301
0.68215     60.584
0.68708     54.478
0.69165     50.898
0.69758     52.380
0.70147     45.907
0.70745     39.087
0.71273     32.984
0.71767     26.156
0.72191     18.602
0.72716     17.915
0.73244     12.894
0.73702      6.065
0.74159      1.762
ENDDATA             28
ENDSUBENT           52
ENDENTRY             4
