ENTRY            22014     861212              20050926       0000
SUBENT        22014001     861212              20050926       0000
BIB                 14         46
INSTITUTE  (2JPNTOH)
REFERENCE  (J,RE,93,233,86)
AUTHOR     (K.KANDA,H.IMARUOKA,K.YOSHIDA,O.SATO,N.HIRAKAWA)
TITLE      -MEASUREMENT OF FAST NEUTRON INDUCED FISSION CROSS
            SECTIONS OF TH-232, U-233 AND U-234 RELATIVE TO
            U-235.
FACILITY   (DYNAM,2JPNTOH)
INC-SOURCE (P-T) A TARGET OF TRITIUM ABSORBED IN TITANIUM WAS
            USED TO PRODUCE NEUTRONS IN THE ENERGY RANGE
            .5 - 3 MEV.
           (D-D) A TARGET OF DEUTERIUM ABSORBED IN TITANIUM WAS
            USED TO PRODUCE NEUTRONS IN THE ENERGY RANGE
            3 - 4 MEV.
           .A DEUTERIUM GAS TARGET WAS USED TO PRODUCE NEUTRONS
            IN THE ENERGY RANGE 4 - 7 MEV.
SAMPLE     .THE SAMPLES WERE ELECTROPLATED ON 36 MM DIAMETER BY
            .3 MM THICK PLATINUM PLATES AND THEN SINTERED INTO
            OXIDES TO FIX ON THE PLATES. THE DEPOSITION DIAMETER
            WAS 25 MM.
           .EACH SAMPLE WAS PLACED BACK TO BACK TO A U-235 SAMPLE
            IN THE FISSION CHAMBER.
           .THE NUMBER OF FISSIONABLE NUCLEI IN THE SAMPLES WAS
            DETERMINED BY EITHER OF THREE METHODS, THE 2 PI ALPHA
            COUNTING /TH-232/, THE LOW GEOMETRY ALPHA COUNTING
            /U-233,U-234/ AND THE THERMAL NEUTRON IRRADIATION
            /U-235/ METHOD.
           .THE SAMPLES WERE PLACED PERPENDICULAR TO THE BEAM AT
            DISTANCES OF 3 TO 8 CM FROM THE TARGET.
DETECTOR   (FISCH) THE FISSION CHAMBER USED WAS A PARALLEL PLATE
            TYPE IONIZATION CHAMBER CONTAINING 90 PER CENT AR
            AND 10 PER CENT CH4.
MONITOR    (92-U-235(N,F),,SIG) ALL FISSION CROSS SECTIONS WERE
            MEASURED RELATIVE TO U-235.
COMMENT    .A NE213 SCINTILLATION DETECTOR, LOCATED 15 M FROM THE
            TARGET, WAS USED TO MEASURE MEAN ENERGIES AND SPREADS
            OF SOURCE NEUTRONS AT AN ANGLE OF 0 DEGREES.
STATUS     .DATA WERE TAKEN FROM MAIN REF.
HISTORY    (861113C)  NO.
           (861212E)
CORRECTION .CORRECTIONS WERE APPLIED FOR BACKGROUND COUNTS DUE TO
            ROOM SCATTERED NEUTRONS, IMPURITIES IN THE SAMPLES,
            DISCRIMINATED COUNTS BY BIAS SETTINGS, ETC.
ERR-ANALYS (ERR-T) THE TOTAL ERRORS ARE DOMINATED BY THE CONTRI-
            BUTIONS FROM THE ERRORS IN THE NUMBER OF ATOMS IN THE
            SAMPLES, THE ESTIMATION OF LOST COUNTS BY THE BIAS
            SETTINGS AND COUNTING STATISTICS.
ENDBIB              46
NOCOMMON             0          0
ENDSUBENT           49
SUBENT        22014002     870309              20050926       0000
BIB                  3          4
REACTION   ((90-TH-232(N,F),,SIG)/(92-U-235(N,F),,SIG))
STATUS     .DATA WERE TAKEN FROM PRIVATE COMMUNICATION.
HISTORY    (861113C)  NO.
           (861212E)
ENDBIB               4
NOCOMMON             0          0
DATA                 4         17
EN         EN-RSL     DATA       ERR-T
MEV        MEV        NO-DIM     PER-CENT
 1.5000E+00 6.0000E-02 6.4950E-02 2.4000E+00
 1.6100E+00 7.0000E-02 8.6230E-02 2.3000E+00
 1.7400E+00 7.0000E-02 6.1230E-02 2.4000E+00
 1.9000E+00 2.0000E-01 8.4690E-02 1.7000E+00
 2.2000E+00 2.2000E-01 9.5440E-02 1.7000E+00
 2.5100E+00 2.2000E-01 9.1910E-02 1.7000E+00
 2.8000E+00 2.2000E-01 1.0390E-01 1.7000E+00
 4.0500E+00 3.6000E-01 1.2880E-01 1.9000E+00
 4.4900E+00 2.6000E-01 1.3010E-01 1.9000E+00
 5.1500E+00 2.1000E-01 1.3360E-01 1.8000E+00
 5.3700E+00 2.0000E-01 1.3070E-01 1.9000E+00
 5.6700E+00 1.5000E-01 1.3460E-01 1.8000E+00
 5.7300E+00 1.8000E-01 1.3140E-01 1.9000E+00
 6.0000E+00 1.6000E-01 1.3580E-01 1.8000E+00
 6.2400E+00 1.3000E-01 1.6660E-01 1.9000E+00
 6.4500E+00 1.5000E-01 1.9680E-01 1.8000E+00
 6.8200E+00 1.6000E-01 2.3900E-01 1.8000E+00
ENDDATA             19
ENDSUBENT           28
SUBENT        22014003     870309              20050926       0000
BIB                  3          4
REACTION   ((92-U-233(N,F),,SIG)/(92-U-235(N,F),,SIG))
STATUS     .DATA WERE TAKEN FROM PRIVATE COMMUNICATION.
HISTORY    (861113C)  NO.
           (861212E)
ENDBIB               4
NOCOMMON             0          0
DATA                 4         42
EN         EN-RSL     DATA       ERR-T
MEV        MEV        NO-DIM     PER-CENT
 4.9000E-01 8.0000E-02 1.6980E+00 1.7000E+00
 5.4000E-01 1.0000E-01 1.7350E+00 1.9000E+00
 5.7000E-01 8.0000E-02 1.6940E+00 1.8000E+00
 6.8000E-01 7.0000E-02 1.7110E+00 1.7000E+00
 7.6000E-01 7.0000E-02 1.6660E+00 1.9000E+00
 8.6000E-01 6.0000E-01 1.6440E+00 1.7000E+00
 9.7000E-01 1.3000E-01 1.6020E+00 1.9000E+00
 1.0000E+00 7.0000E-02 1.5310E+00 1.9000E+00
 1.1300E+00 1.1000E-01 1.5650E+00 1.9000E+00
 1.1800E+00 6.0000E-02 1.5510E+00 1.9000E+00
 1.2900E+00 1.1000E-01 1.5910E+00 1.7000E+00
 1.3000E+00 6.0000E-02 1.5500E+00 1.9000E+00
 1.4400E+00 5.0000E-02 1.5430E+00 1.8000E+00
 1.5700E+00 1.0000E-01 1.5350E+00 1.8000E+00
 1.5800E+00 2.0000E-01 1.5660E+00 1.8000E+00
 1.5900E+00 5.0000E-02 1.5320E+00 1.7000E+00
 1.7700E+00 6.0000E-02 1.5310E+00 1.7000E+00
 1.8500E+00 1.0000E-01 1.5630E+00 1.9000E+00
 1.9000E+00 2.0000E-01 1.5610E+00 1.8000E+00
 1.9800E+00 4.0000E-02 1.5700E+00 1.7000E+00
 2.1600E+00 9.0000E-02 1.5690E+00 1.9000E+00
 2.2000E+00 2.2000E-01 1.5600E+00 1.7000E+00
 2.4300E+00 9.0000E-02 1.5620E+00 1.8000E+00
 2.5100E+00 2.2000E-01 1.5810E+00 1.8000E+00
 2.7200E+00 8.0000E-02 1.5790E+00 1.9000E+00
 2.8000E+00 2.2000E-01 1.5600E+00 1.8000E+00
 3.0400E+00 8.0000E-02 1.5690E+00 1.9000E+00
 3.2800E+00 3.0000E-01 1.5330E+00 1.7000E+00
 3.8200E+00 3.0000E-01 1.5070E+00 1.7000E+00
 4.0700E+00 3.5000E-01 1.4890E+00 1.9000E+00
 4.3700E+00 3.2000E-01 1.5290E+00 1.7000E+00
 4.5000E+00 2.5000E-01 1.4960E+00 1.9000E+00
 4.8900E+00 1.4000E-01 1.4980E+00 1.7000E+00
 5.2500E+00 1.4000E-01 1.4840E+00 1.7000E+00
 5.4400E+00 1.5000E-01 1.4990E+00 1.8000E+00
 5.5900E+00 1.0000E-01 1.4990E+00 1.7000E+00
 5.6500E+00 1.4000E-01 1.5120E+00 1.8000E+00
 5.8600E+00 8.0000E-02 1.5770E+00 1.7000E+00
 6.1700E+00 1.5000E-01 1.5480E+00 1.7000E+00
 6.4700E+00 1.6000E-01 1.4620E+00 1.6000E+00
 6.7200E+00 1.8000E-01 1.4370E+00 1.7000E+00
 6.9700E+00 1.0000E-01 1.3840E+00 1.9000E+00
ENDDATA             44
ENDSUBENT           53
SUBENT        22014004     870309              20050926       0000
BIB                  3          4
REACTION   ((92-U-234(N,F),,SIG)/(92-U-235(N,F),,SIG))
STATUS     .DATA WERE TAKEN FROM PRIVATE COMMUNICATION.
HISTORY    (861113C)  NO.
           (861212E)
ENDBIB               4
NOCOMMON             0          0
DATA                 4         30
EN         EN-RSL     DATA       ERR-T
MEV        MEV        NO-DIM     PER-CENT
 4.9000E-01 8.0000E-02 3.9800E-01 1.9000E+00
 5.7000E-01 8.0000E-02 6.7330E-01 1.9000E+00
 6.8000E-01 7.0000E-02 9.2390E-01 1.9000E+00
 7.6000E-01 7.0000E-02 1.0870E+00 1.9000E+00
 8.6000E-01 6.0000E-02 1.0530E+00 1.9000E+00
 1.0000E+00 7.0000E-02 8.9320E-01 1.9000E+00
 1.1800E+00 6.0000E-02 1.0050E+00 1.9000E+00
 1.2900E+00 2.1000E-01 1.0340E+00 1.8000E+00
 1.3000E+00 6.0000E-02 1.0340E+00 1.9000E+00
 1.4400E+00 5.0000E-02 1.0850E+00 1.9000E+00
 1.5800E+00 2.0000E-01 1.1740E+00 1.8000E+00
 1.5900E+00 5.0000E-02 1.2000E+00 1.8000E+00
 1.7700E+00 6.0000E-02 1.2160E+00 1.7000E+00
 1.9000E+00 2.0000E-01 1.2280E+00 1.7000E+00
 1.9800E+00 6.0000E-02 1.2170E+00 1.7000E+00
 2.2000E+00 2.2000E-01 1.2000E+00 1.6000E+00
 2.5100E+00 2.2000E-01 1.2160E+00 1.7000E+00
 2.8000E+00 2.2000E-01 1.2320E+00 1.7000E+00
 2.9300E+00 9.0000E-02 1.2070E+00 1.8000E+00
 3.5000E+00 2.6000E-01 1.2660E+00 1.8000E+00
 3.8200E+00 3.0000E-01 1.2730E+00 1.7000E+00
 4.3700E+00 3.2000E-01 1.2660E+00 1.7000E+00
 4.8900E+00 1.4000E-01 1.2490E+00 1.7000E+00
 5.2500E+00 1.4000E-01 1.2680E+00 1.7000E+00
 5.5900E+00 1.0000E-01 1.2900E+00 1.7000E+00
 5.8600E+00 8.0000E-02 1.2660E+00 1.7000E+00
 6.1700E+00 1.5000E-01 1.2540E+00 1.7000E+00
 6.4700E+00 1.6000E-01 1.2060E+00 1.7000E+00
 6.7200E+00 1.8000E-01 1.1850E+00 1.7000E+00
 6.9700E+00 1.0000E-01 1.1970E+00 1.8000E+00
ENDDATA             32
ENDSUBENT           41
ENDENTRY             4
