ENTRY            22035     871106              20050926       0000
SUBENT        22035001     871106              20050926       0000
BIB                 14         35
REFERENCE  (W,LISKIEN,87) SUBMITTED TO NSE
TITLE      -EXPERIMENTALLY DETERMINED EXCITATION FUNCTION FOR THE
            BE-9(N,T) REACTION
AUTHOR     (H.LISKIEN,R.WIDERA,R.WOELFE,R.WIDERA)
INSTITUTE  (2ZZZGEL) EXPERIMENTAL SITE, H.L., R.WI.
           (2GERJUL) R.WOE., S.M.Q.
FACILITY   (VDG) CNBM GEEL
INC-SOURCE (D-T) 3MG/CM2 T-TI LAYER SUPPORTED BY A 4CM *0.3MM
            SILVER SHEET COOLED BY A THIN WATERFILM.
METHOD     (CHSEP) EACH IRRADIATED SAMPLE WAS HEATED IN THE
            PRESENCE OF 30 ML H2-CARRIER.THEN THE CARRIER GAS AND
            TRITIUM WERE PUMPED OUT,COLLECTING IN A GAS TUBE WHICH
            WAS FILLED WITH METHANE TO 1013HPA  AND SUBJECTED TO
            GAS PHASE ANTICOINCIDENCE BETA- COUNTING.
DETECTOR   (TELES) PROTON RECOIL TELESCOPE FOR THE FLUENCE
           .A GAS COUNTER WAS USED.THE EFFICIENCY WAS 68.2 PER CEN
PART-DET   (B-)
MONITOR    (13-AL-27(N,A)11-NA-24,,SIG)TAKEN FROM TAGESEN AND
            VONACH.IAEA TECHNICAL REPORTS SERIES N0=227 (1983)
SAMPLE     .TWO SETS OF ELEVEN BERYLLIUM SAMPLES EACH WERE
            IRRADIATED.THEY WERE METALLIC DISCS (DIAM=2CM)FROM
            MATERIAL OF PURITY BETWEEN 99.5 AND 99.8 PER CENT
            AND SANDWICHED BETWEEN 2 ALUMINIUM SHEETS.
ERR-ANALYS (ERR-T) CONTAINING
            - BETA- COUNTING STATISTICS          +-(0.3-1.3) PCENT
            - COUNTING EFFICIENCY                +- 3.0   PER CENT
            - PLATEAU POSITION                   +- 2.0   PER CENT
            - TRITIUM CONTAMINATION              +-(0.0-2.0) PCENT
            - TRITIUM EXTRACTION                 +- 3.0   PER CENT
            - UNCERTAINTY ON THE FLUENCE DETERMINATION
STATUS     .DATA WERE TAKEN FROM PRIVATE COMMUNICATION.
HISTORY    (870826C) IF.
           (870827E)
           (871106A) AUTHOR AND INSTITUTE HAVE BEEN CORRECTED. NO.
           (871210E)
ENDBIB              35
NOCOMMON             0          0
ENDSUBENT           38
SUBENT        22035002     881117              20050926       0000
BIB                  4          8
REACTION   (4-BE-9(N,T)3-LI-7,,SIG)
INC-SPECT  .EN-MEAN REPRESENTS THE AVERAGE ENERGY OF THE NEUTRON
            SPECTRUM SEEN BY EACH SAMPLE.ITS UNCERTAINTY IS
            ESTIMATED TO  BE 30 KEV.EN-RSL-FW MEANS FULL
            WIDTH OF THE NEUTRON SPECTRUM.
STATUS     .DATA WERE TAKEN FROM PRIVATE COMMUNICATION.
HISTORY    (870826C) IF.
           (870827E)
ENDBIB               8
NOCOMMON             0          0
DATA                 4         22
EN-MEAN    EN-RSL-FW  DATA       ERR-T
MEV        MEV        MB         MB
 1.2860E+01 1.5000E-01 1.1100E+01 7.0000E-01
 1.3020E+01 1.5000E-01 1.2300E+01 7.0000E-01
 1.3090E+01 1.5000E-01 1.5800E+01 9.0000E-01
 1.3120E+01 1.5000E-01 1.5700E+01 9.0000E-01
 1.3910E+01 1.3000E-01 1.7500E+01 1.0000E+00
 1.3920E+01 1.3000E-01 1.7500E+01 1.0000E+00
 1.4270E+01 1.8000E-01 1.8500E+01 1.0000E+00
 1.4360E+01 1.8000E-01 1.8600E+01 1.0000E+00
 1.4870E+01 2.8000E-01 2.4400E+01 1.4000E+00
 1.4890E+01 2.8000E-01 2.4600E+01 1.4000E+00
 1.5790E+01 4.5000E-01 2.9800E+01 1.7000E+00
 1.5830E+01 4.5000E-01 2.9200E+01 1.7000E+00
 1.6000E+01 2.3000E-01 2.8000E+01 1.6000E+00
 1.6080E+01 2.3000E-01 2.7800E+01 1.6000E+00
 1.6480E+01 5.8000E-01 2.8500E+01 1.6000E+00
 1.6510E+01 5.8000E-01 2.8200E+01 1.7000E+00
 1.6740E+01 6.6000E-01 2.8200E+01 1.7000E+00
 1.7660E+01 3.5000E-01 2.8100E+01 1.6000E+00
 1.7890E+01 3.5000E-01 2.9300E+01 1.7000E+00
 1.8990E+01 3.6000E-01 3.1100E+01 1.8000E+00
 1.9190E+01 3.6000E-01 3.0900E+01 1.8000E+00
 1.9570E+01 2.8000E-01 2.9900E+01 1.8000E+00
ENDDATA             24
ENDSUBENT           37
ENDENTRY             2
