ENTRY            22064     900829              20050926       0000
SUBENT        22064001     900829              20050926       0000
BIB                 12         27
REFERENCE  (J,JIN,33,(10),3239,7110)
TITLE      -MASS YIELDS OF AM-241 THERMAL-NEUTRON FISSION.
AUTHOR     (H.NAKAHARA,I.FUJIWARA,H.OKAMOTO,N.IMANISHI,
            M.ISHIBASHI,T.NISHI)
INSTITUTE  (2JPNKTO)
FACILITY   (REAC ) KYOTO UNIVERSITY REACTOR.
INC-SOURCE (REAC ) GRAPHITE THERMAL COLUMN.
INC-SPECT  .THERMAL NEUTRON SPECTRUM. THERMAL NEUTRON FLUX
            2.0E+10 NEUTRONS/CM2 SEC. CADMIUM RATIO FOR AU
            WAS 5000.
DETECTOR   (GELI ) A 20 CC GELI DETECTOR WAS USED FOR MEASUR-
            ING THE FISSION PRODUCT ACTIVITIES. THE DETECTOR
            WAS CALIBRATED BY IAEA STANDARD SOURCES OF AM-241,
            CO-57, HG-203, CS-137, MN-54, CO-60, Y-88, AND BY
            CE-141, CR-51 AND K-42 WHOSE ABSOLUTE DISINTEGRA-
            TION RATES WERE KNOWN.
PART-DET   (DG   )
CORRECTION .NO DETAILS GIVEN.
STATUS     .DATA TAKEN FROM MAIN REFERENCE.
HISTORY    (871109C) N.O.
           (871211E)
           (880808U) IF. SMALL CORRECTIONS
           (880810E)
           (890130U) IF.
           (890203E)
           (900829A) S.W. FLAG AND MONITOR CLARIFIED IN SUBENT 3.
           (900917E)
ENDBIB              27
COMMON               1          3
EN-DUMMY
EV
 2.5300E-02
ENDCOMMON            3
ENDSUBENT           34
SUBENT        22064002     890207              20050926       0000
BIB                  9         38
REACTION   (95-AM-241(N,F)ELEM/MASS,CUM,FY,,SPA)
FLAG       (1.) BOTH THE MO AND TC MEASUREMENTS RESULT IN YIELD
                VALUES FOR MO-99,THEREFORE THE VALUE IS RATHER
                AN AVERAGED VALUE FOR MO.
           (2.) SUM OF THE YIELDS FOR 2 ISOMERS
           (3.) NORMALIZED TO THE YIELD 3.48 PER CENT FOR
                CE-143.
DECAY-DATA (42-MO-99,67.HR,DG,140.,.88)
           (43-TC-99-M,6.HR,DG,140.,.913)
           (47-AG-111,7.5D,DG,342.,.06)
           (47-AG-113-G,5.3HR,DG,298.,.072)
           (48-CD-115-G,2.3D,DG,523.,.24)
           (48-CD-117-M,3.4HR,DG,1997.,.219)
           (48-CD-117-G,2.4HR,DG,1577.,.163)
           (51-SB-127,3.89D,DG,473.,.246)
           (51-SB-129,4.35HR,DG,813.,.62)
           (56-BA-139,83.MIN,DG,166.,.224)
           (56-BA-140,12.8D,DG,537.,.236)
           (58-CE-141,33.D,DG,145.,.50)
           (58-CE-143,33.HR,DG,293.,.426)
           (60-ND-147,11.1D,DG,91.,.287)
MONITOR    (95-AM-241(N,F),,SIG,,SPA) CROSS SECTION TAKEN
            FROM BNL-325.
METHOD     .ABSOLUTE MEASUREMENT OF FISSION YIELDS.
           (CHSEP) CHEMICAL SEPARATION AND PURIFICATION.
SAMPLE     .TARGETS WERE PREPARED BY DRYING PURE AM-241 NITRA-
            TE (1/400 PU-239) ON A 5.16 MILLI-G/CM2 AL FOIL,
            CAREFULLY WRAPPED. IRRADIATION TIMES 2 - 10 HOURS.
           .A THIN AU FOIL (100 MILLI-G/CM2) WAS USED FOR
            MONITORING THE NEUTRON FLUX.
ERR-ANALYS (DATA-ERR) THE GIVEN ERRORS INCLUDE UNCERTAINTIES
            IN THE CHEMICAL YIELD DETERMINATIONS, GAMMA-
            COUNTING AND IN THE NEUTRON FLUX DETERMINATIONS.
STATUS     .TABLE 1 OF MAIN REFERENCE.
HISTORY    (871109C) N.O.
           (871211E)
           (880808U) IF. SMALL CORRECTIONS
           (880810E)
ENDBIB              38
COMMON               1          3
MONIT
B
 3.1300E+00
ENDCOMMON            3
DATA                 6         12
ELEMENT    MASS       ISOMER     DATA       DATA-ERR   FLAG
NO-DIM     NO-DIM     NO-DIM     PC/FIS     PC/FIS     NO-DIM
 4.3000E+01 9.9000E+01            6.9000E+00 2.6000E-01 1.0000E+00
 4.7000E+01 1.1100E+02            1.1900E+00 4.0000E-02
 4.7000E+01 1.1300E+02 0.0000E+00 4.8700E-01 1.1000E-02
 4.8000E+01 1.1500E+02 0.0000E+00 7.5000E-02 8.0000E-03
 4.8000E+01 1.1700E+02 1.0000E+00 8.6000E-03 2.1000E-03 2.0000E+00
 5.1000E+01 1.2700E+02            6.6000E-01 3.0000E-02
 5.1000E+01 1.2900E+02            1.3200E+00 5.0000E-02
 5.6000E+01 1.3900E+02            8.6800E+00 2.7000E-01
 5.6000E+01 1.4000E+02            5.6300E+00 1.1000E-01
 5.8000E+01 1.4100E+02            6.7300E+00            2.0000E+00
 5.8000E+01 1.4300E+02            3.4800E+00            2.0000E+00
 6.0000E+01 1.4700E+02            1.8300E+00            2.0000E+00
ENDDATA             14
ENDSUBENT           61
SUBENT        22064003     901227              20050926       0000
BIB                  9         48
REACTION   (95-AM-241(N,F)ELEM/MASS,CUM,FY,,SPA)
DECAY-DATA (38-SR-91,9.67HR,DG,750.,.29)
           (38-SR-92,2.7HR,DG,1383.,.90)
           (40-ZR-95,65.D,DG,724.,.49)
           (40-ZR-97,17.HR,DG,658.,.98)
           (41-NB-97-G,72.MIN,DG,658.,.98)
           (44-RU-103,39.5D,DG,498.,.885)
           (44-RU-105,4.43HR,DG,726.,.48)
           (52-TE-132,77.7HR,DG,228.,.94)
           (53-I-131,8.05D,DG,365.,.81)
           (53-I-133-G,20.8HR,DG,530.,.94)
           (53-I-135,6.7HR,DG,1263.,.34)
           (54-XE-135-G,9.2HR,DG,250.,.97)
           (55-CS-138-G,32.2MIN,DG,1436.,.73)
           (58-CE-141,32.5D,DG,145.,.50)
           (58-CE-143,33.HR,DG,293.,.426)
           (60-ND-147,11.1D,DG,91.,.287)
MONITOR    ((MONIT1)(95-AM-241(N,F)42-MO-99,CUM,FY,,SPA)+
           (95-AM-241(N,F)43-TC-99-M,CUM,FY,,SPA)) USED FOR
            NORMALIZATION OF THE LIGHT-MASS PEAK, I.E. A = 91
            TO 105.
           ((MONIT2)95-AM-241(N,F)56-BA-139,CUM,FY,,SPA) USED FOR
            NORMALIZATION OF THE HEAVY-MASS PEAK, I.E. A = 131 TO
            147.
DECAY-MON  (42-MO-99,67.HR,DG,140.,.88)
           (43-TC-99-M,6.HR,DG,140.,.913)
           (56-BA-139,83.MIN,DG,166.,.224)
METHOD     (ACTIV) DETERMINATION OF RELATIVE MASS YIELDS BY DIRECT
            GAMMA-RAY SPECTROMETRY OF SEVERAL FISSION PRODUCTS
            SIMULTANEOUSLY.
SAMPLE     .TARGETS WERE PREPARED BY DRYING PURE (1/400 PU-239)
            AM-241 NITRATE (ABOUT 900 MICRO-G AM-241 IN 6 CM2
            AREA) ON A 5.16 MILLI-G/CM2 AL FOIL, PLACED ON A 0.3
            MM THICK PLASTIC FRAME, AND WITH ANOTHER AL FOIL USED
            AS A CATCHER. IRRADIATION TIMES WERE BETWEEN 2 AND 60
            HOURS.
ERR-ANALYS (DATA-ERR) THE ERRORS GIVEN ARE BASED ON ERRORS DUE TO
            GAMMA-COUNTING AND NORMALIZATION.
STATUS     .TABLE 2 OF MAIN REFERENCE.
HISTORY    (871109C) N.O.
           (871211E)
           (880808U) IF. SMALL CORRECTIONS
           (880810E)
           (890130U) IF.
           (890203E)
           (900829A) S.W. FLAG AND MONITOR CLARIFIED. ISOMERIC
                     STATES ADDED IN DECAY-DATA.
           (900917E)
ENDBIB              48
COMMON               4          3
MONIT1     MONIT1-ERR MONIT2     MONIT2-ERR
PC/FIS     PC/FIS     PC/FIS     PC/FIS
 6.9000E+00 2.6000E-01 8.6800E+00 2.7000E-01
ENDCOMMON            3
DATA                 5         15
ELEMENT    ELEMENT    MASS       DATA       DATA-ERR
NO-DIM     NO-DIM     NO-DIM     PC/FIS     PC/FIS
 3.8000E+01            9.1000E+01 1.4800E+00 4.3000E-01
 3.8000E+01            9.2000E+01 2.0922E+00 4.0000E-02
 4.0000E+01            9.5000E+01 4.0400E+00 2.1000E-01
 4.0000E+01 4.1000E+01 9.7000E+01 5.1600E+00 4.0000E-02
 4.4000E+01            1.0300E+02 7.6500E+00 2.3000E-01
 4.4000E+01            1.0500E+02 6.8500E+00 2.9000E-01
 5.2000E+01            1.3200E+02 4.7000E+00 2.0000E-02
 5.3000E+01            1.3100E+02 4.0100E+00 1.4000E-01
 5.3000E+01            1.3300E+02 7.4600E+00 3.0000E-01
 5.3000E+01            1.3500E+02 6.0900E+00 3.0000E-01
 5.4000E+01            1.3500E+02 6.8000E+00 2.8000E-01
 5.5000E+01            1.3800E+02 8.4800E+00 4.8000E-01
 5.8000E+01            1.4100E+02 6.2900E+00 3.1000E-01
 5.8000E+01            1.4300E+02 3.4800E+00 1.5000E-01
 6.0000E+01            1.4700E+02 1.8100E+00 2.0000E-01
ENDDATA             17
ENDSUBENT           74
ENDENTRY             3
