ENTRY            22068     871211              20050926       0000
SUBENT        22068001     871211              20050926       0000
BIB                 15         58
REFERENCE  (J,RCA,40,113,86)
TITLE      -MEASUREMENT OF B-10(N,T)2ALPHA REACTION CROSS SECTION
            IN THE ENERGY RANGE OF 2.5 TO 10.6 MEV -  DIFFUSION OF
            TRITIUM IN BORON CARBIDE.
AUTHOR     (A.SUHAIMI,R.WOELFE,S.M.QAIM,G.STOECKLIN)
INSTITUTE  (2GERJUL)
FACILITY   (CYCLO) JULICH VARIABLE ENERGY COMPACT CYCLOTRON CV 28.
INC-SOURCE (D-D  ) DEUTERIUM GAS TARGET, 37 MILLI-M LONG.
            DEUTERON ENERGIES BETWEEN 3.0 AND 8 MEV, BEAM CURRENT
            OF 4 MICRO-AMPS.
            NEUTRON ENERGY RANGE 2.5 TO 10.6 MEV.
            SAMPLE IRRADIATION TIME BETWEEN 2 AND 12 HOURS.
METHOD     (ACTIV)
           .THE TRITIUM PRODUCED IN EACH SAMPLE WAS SEPARATED IN
            A VACUUM APPARATUS AT 1150 C AND ITS ACTIVITY DETER-
            MINED IN AN ANTICOINCIDENCE PROPORTIONAL GAS COUNTER.
           .CROSS SECTIONS WERE DETERMINED RELATIVE TO ACTIVATION
            MONITOR REACTION CROSS SECTIONS.
DETECTOR   (PROPC) ANTICOINCIDENCE PROPORTIONAL GAS COUNTER, WITH
            AN EFFICIENCY OF 65 PER CENT.
           (GELI ) ACTIVATION FROM MONITOR FOILS WERE DETECTED
            WITH A GE(LI) GAMMA SPECTROMETER. THE COUNTING
            EFFICIENCY WAS KNOWN TO +/- 3 PER CENT.
PART-DET   (B-   ) BETA MINUS FROM TRITIUM DECAY.
MONITOR    (26-FE-54(N,P)25-MN-54,,SIG)
           (28-NI-58(N,P)27-CO-58,,SIG)
           .CROSS SECTIONS TAKEN FROM ENDF/B-V WITH ERRORS OF
            +/- 8 PER CENT.
SAMPLE     .B-10 SAMPLE, ENRICHMENT 94.35 PER CENT, CHEMICAL
            PURITY 99.998 PER CENT, GRAIN SIZE LESS THAN 420
            MICRO-M. NOMINAL DIMENSIONS 15 MILLI-M DIAMETER BY
            6 MILLI-M THICK. DISTANCE BETWEEN GAS TARGET BEAM
            STOP AND SAMPLE FRONT END 6.5 MILLI-M. SAMPLE WEIGHT
            ABOUT 1 G.
           .BORON CARBIDE (B4C), NATURAL ISOTOPIC COMPOSITION,
            TECHNICAL GRADE, GRAIN SIZE LESS THAN 250 MICRO-M.
            NOMINAL DIMENSIONS 24.5 MILLI-M DIAMETER BY 21.2
            MILLI-M THICK. DISTANCE BETWEEN GAS TARGET BEAM STOP
            AND SAMPLE FRONT END 10 MILLI-M. SAMPLE WEIGHT ABOUT
            12 G.
           .TWO MONITOR FOILS, IRON AND NICKEL, EACH 250 MICRO-
            M THICK, WERE PLACED ON EITHER SIDE OF EACH SAMPLE.
CORRECTION .IN THE TRITIUM COUNTING MEASUREMENTS WERE CORRECTED
            FOR TRITIUM LOSS DURING HEATING, FOR RESIDUAL TRITIUM
            CONTENT IN THE SAMPLES AND FOR NEUTRON BACKGROUND.
           .IN THE MONITOR FOIL MEASUREMENTS, CORRECTIONS WERE
            APPLIED FOR DEAD TIME, PILE UP, COINCIDENCE LOSSES,
            DECAY AND GAMMA-RAY ABUNDANCE, AS WELL AS FOR BACK-
            GROUND NEUTRONS.
ERR-ANALYS (DATA-ERR)
           .MONITOR COUNTING STATISTICS      0.5 - 2.0 PER CENT
            TRITIUM COUNTING STATISTICS   BELOW  1.0   PER CENT
            MONITOR CROSS SECTION ERROR          8.0   PER CENT
           .NO OTHER DETAILS GIVEN. TOTAL ERROR BETWEEN 13 AND
            21 PER CENT.
STATUS     .DATA TAKEN FROM MAIN REFERENCE.
HISTORY    (871026C) N.O.
           (871211E)
ENDBIB              58
NOCOMMON             0          0
ENDSUBENT           61
SUBENT        22068002     871211              20050926       0000
BIB                  3          4
REACTION   (5-B-10(N,T+A)2-HE-4,,SIG) ENRICHED BORON SAMPLES.
STATUS     .DATA TAKEN FROM MAIN REFERENCE.
HISTORY    (871026C) N.O.
           (871211E)
ENDBIB               4
NOCOMMON             0          0
DATA                 4         10
EN         EN-RSL     DATA       DATA-ERR
MEV        MEV        MB         MB
 2.5600E+00 2.6000E-01 3.9000E+01 5.0000E+00
 3.4800E+00 3.1000E-01 8.2000E+01 1.1000E+01
 4.6000E+00 2.0000E-01 1.6800E+02 2.2000E+01
 5.2600E+00 1.7000E-01 2.0900E+02 2.7000E+01
 8.0200E+00 2.2000E-01 1.3900E+02 2.0000E+01
 8.5200E+00 2.3000E-01 1.2800E+02 1.9000E+01
 9.0000E+00 2.4000E-01 1.1900E+02 2.2000E+01
 9.5700E+00 1.8000E-01 1.1200E+02 2.3000E+01
 1.0090E+01 2.6000E-01 9.7000E+01 1.3000E+01
 1.0570E+01 2.7000E-01 1.0800E+02 1.4000E+01
ENDDATA             12
ENDSUBENT           21
SUBENT        22068003     871211              20050926       0000
BIB                  3          4
REACTION   (5-B-10(N,T+A)2-HE-4,,SIG) BORON CARBIDE SAMPLES.
STATUS     .DATA TAKEN FROM MAIN REFERENCE.
HISTORY    (871026C) N.O.
           (871211E)
ENDBIB               4
NOCOMMON             0          0
DATA                 4         14
EN         EN-RSL     DATA       DATA-ERR
MEV        MEV        MB         MB
 3.3800E+00 2.2000E-01 8.1000E+01 1.1000E+01
 3.9100E+00 2.6000E-01 1.4700E+02 1.9000E+01
 4.4200E+00 2.0000E-01 1.5200E+02 2.0000E+01
 4.7300E+00 1.7000E-01 1.9500E+02 2.5000E+01
 5.2800E+00 1.7000E-01 2.1500E+02 2.8000E+01
 5.8800E+00 1.7000E-01 2.0200E+02 2.6000E+01
 6.4300E+00 1.8000E-01 1.8600E+02 2.5000E+01
 6.4400E+00 1.8000E-01 1.7600E+02 2.4000E+01
 6.9800E+00 1.8000E-01 1.7600E+02 2.4000E+01
 7.5100E+00 1.9000E-01 1.7900E+02 2.5000E+01
 8.0100E+00 2.1000E-01 1.4700E+02 2.1000E+01
 8.0200E+00 2.2000E-01 1.3500E+02 1.9000E+01
 8.5400E+00 1.8000E-01 1.3500E+02 2.0000E+01
 9.5200E+00 2.2000E-01 1.1400E+02 2.3000E+01
ENDDATA             16
ENDSUBENT           25
ENDENTRY             3
