ENTRY            22066     880805
SUBENT        22066001     880805              20050926       0000
BIB                 14         32
REFERENCE  (C,71CANT,,45,71) MAIN REFERENCE.
           (J,RCA,12,173,6912)
           (W,BOWLES,70) UKAEA INTERNAL DOCUMENT 1970.
TITLE      -MEASUREMENT OF FISSION YIELDS IN THE DOUNREAY
            FAST REACTOR.
AUTHOR     (V.M.SINCLAIR,W.DAVIES,B.BOWLES,H.WILLIS)
INSTITUTE  (2UK DOU)
FACILITY   (REAC ) DOUNREAY LIQUID-METAL COOLED FAST REACTOR.
INC-SOURCE (REAC ) FAST REACTOR.
INC-SPECT  .FAST REACTOR SPECTRUM.
METHOD     (ASEP ) MASS SPECTROMETRIC ISOTOPE-DILUTION TECH-
            NIQUES FOR NEODYMIUM MEASUREMENTS.
           (CHSEP) RADIOCHEMICAL METHODS FOR OTHER PRODUCTS.
DETECTOR   .NO DETAILS GIVEN FOR THE MEASUREMENTS OF DAVIES.
           (FISCH) FISSION CHAMBER USED IN THE MEASUREMENTS
            OF BOWLES AND WILLIS.
SAMPLE     .ABOUT 4 G OF DIOXIDE OF THE FISSILE ISOTOPE, (EN-
            RICHMENT 92 PER-CENT FOR U-235 AND 94 PER-CENT
            FOR PU-239), SEALED IN STAINLESS-STEEL CONTAINERS,
            WERE USED FOR THE DAVIES MEASUREMENTS. IRRADIATION
            FOR A PERIOD OF 18 MONTHS.
           .ABOUT 12 MILLI-G OF ENRICHED U-235 DIOXIDE WERE
            IRRADIATED IN SEALED COPPER CONTAINERS FOR ABOUT
            11 HOURS IN A LOW FLUX, IN THE MEASUREMENTS OF
            BOWLES AND WILLIS.
CORRECTION .NO INFORMATION GIVEN.
ERR-ANALYS (DATA-ERR) ONE STANDARD DEVIATION.
STATUS     .DATA TAKEN FROM MAIN REFERENCE.
HISTORY    (871030C) N.O.
           (871211E)
           (880805U) IF. AUTHORS ADDED
           (880810E)
ENDBIB              32
NOCOMMON             0          0
ENDSUBENT           35
SUBENT        22066002     871211              20050926       0000
BIB                  4          8
REACTION   (92-U-235(N,F)ELEM/MASS,CUM,FY,,SPA) ABSOLUTE
            CUMULATIVE YIELDS.
FLAG       (1.) RESULTS OF MEASUREMENTS BY DAVIES.
           (2.) RESULTS OF MEASUREMENTS BY BOWLES AND
                WILLIS.
STATUS     .DATA TAKEN FROM MAIN REFERENCE.
HISTORY    (871030C) N.O.
           (871211E)
ENDBIB               8
COMMON               1          3
EN-DUMMY
MEV
 1.5000E+00
ENDCOMMON            3
DATA                 5         17
ELEMENT    MASS       DATA       DATA-ERR   FLAG
NO-DIM     NO-DIM     PC/FIS     PC/FIS     NO-DIM
 3.8000E+01 8.9000E+01 4.2200E+00 2.1000E-01 2.0000E+00
 3.8000E+01 9.0000E+01 5.5100E+00 1.6000E-01 1.0000E+00
 3.8000E+01 9.0000E+01 4.8300E+00 2.7000E-01 2.0000E+00
 4.0000E+01 9.5000E+01 6.2400E+00 2.0000E-01 2.0000E+00
 4.0000E+01 9.7000E+01 5.9300E+00 1.4000E-01 2.0000E+00
 4.2000E+01 9.9000E+01 5.4600E+00 1.8000E-01 2.0000E+00
 4.7000E+01 1.1100E+02 3.1500E-02 9.0000E-04 2.0000E+00
 5.5000E+01 1.3700E+02 6.5500E+00 2.3000E-01 1.0000E+00
 5.6000E+01 1.4000E+02 5.7500E+00 1.4000E-01 2.0000E+00
 5.8000E+01 1.4100E+02 5.6900E+00 1.2000E-01 2.0000E+00
 5.8000E+01 1.4400E+02 5.2200E+00 1.8000E-01 1.0000E+00
 5.8000E+01 1.4400E+02 5.2200E+00 1.8000E-01 2.0000E+00
 6.0000E+01 1.4300E+02 5.9800E+00 1.8000E-01 1.0000E+00
 6.0000E+01 1.4500E+02 3.9300E+00 1.2000E-01 1.0000E+00
 6.0000E+01 1.4600E+02 3.0600E+00 9.0000E-02 1.0000E+00
 6.0000E+01 1.4800E+02 1.7500E+00 5.0000E-02 1.0000E+00
 6.0000E+01 1.5000E+02 7.3000E-01 2.0000E-02 1.0000E+00
ENDDATA             19
ENDSUBENT           36
SUBENT        22066003     871211              20050926       0000
BIB                  4          6
REACTION   (94-PU-239(N,F)ELEM/MASS,CUM,FY,,SPA) ABSOLUTE
            CUMULATIVE YIELDS.
COMMENT    .RESULTS OF MEASUREMENTS BY DAVIES.
STATUS     .DATA TAKEN FROM MAIN REFERENCE.
HISTORY    (871030C) N.O.
           (871211E)
ENDBIB               6
COMMON               1          3
EN-DUMMY
MEV
 1.5000E+00
ENDCOMMON            3
DATA                 4          8
ELEMENT    MASS       DATA       DATA-ERR
NO-DIM     NO-DIM     PC/FIS     PC/FIS
 3.8000E+01 9.0000E+01 2.0100E+00 6.0000E-02
 5.5000E+01 1.3700E+02 6.4700E+00 1.9000E-01
 6.0000E+01 1.4300E+02 4.4100E+00 1.1000E-01
 6.0000E+01 1.4400E+02 3.4900E+00 1.0000E-01
 6.0000E+01 1.4500E+02 3.0500E+00 8.0000E-02
 6.0000E+01 1.4600E+02 2.5300E+00 6.0000E-02
 6.0000E+01 1.4800E+02 1.6900E+00 4.0000E-02
 6.0000E+01 1.5000E+02 1.0100E+00 3.0000E-02
ENDDATA             10
ENDSUBENT           25
ENDENTRY             3
