ENTRY            C2009   20160303   20160902   20160727       C157
SUBENT        C2009001   20160303   20160902   20160727       C157
BIB                  8         21
TITLE      Measurement of the reaction 18-O(alpha,n)21Ne
AUTHOR     (A.Best,S.Falahat,J.Gorres,M.Couder,R.deBoer,R.T.Guray,
           A.Kontos,K.-L.Kratz,P.J.LeBlanc,Q.Li,S.O'Brien,N.Ozkan,
           K.Sonnabend,R.Talwar,E.Uberseder,M.Wiescher)
INSTITUTE  (1USANOT,2GERMPM,2TUKKOC,2GERFRK)
REFERENCE  (J,PR/C,87,045806,2013)
FACILITY   (VDGT,1USANOT) Experiment performed at the 4MV KN
           accelerator at the University of Notre Dame Nuclear
           Science Laboratory
SAMPLE     (8-O-18,ENR=0.972)Targets were prepared by
           anodization of 0.3 mm thick tantalum backings using
           H2O enriched to 97.2% in 18-O. This process is known
           to produce homogeneous films of (Ta)2(O)5. The target
           thickness was chosen to be about 9 keV of energy loss
           for an alpha beam of 1000 keV and a target
           orientation of 90deg. with respect to the beam
           direction.
HISTORY    (20130429C) Compiled by S.H.
ERR-ANALYS (ERR-T) Total uncertainties, dominated by systematic
                   uncertainty (info A.B.)
           (ERR-SYS) Systematic uncertainty
ENDBIB              21
COMMON               2          3
EN-RSL     ERR-SYS
KEV        PER-CENT
2.0         12.
ENDCOMMON            3
ENDSUBENT           28
SUBENT        C2009002   20160303   20160902   20160727       C157
BIB                  5         16
REACTION   (8-O-18(A,N)10-NE-21,PAR,PY,,TT)
STATUS     (TABLE) Data presented in fig. 3 of the reference
                    sent by author (A.B.)
METHOD     Yield was determined from the intensity of the gamma
           ray deexciting first excited state at 350.7 keV
PART-DET   (G) 350.7 keV gamma detection
DETECTOR   (HPGE)The high energy data (E(alpha) > 1530 keV) were
           taken with an unshielded 20% efficiency Ge detector
           setup. Due to the decrease in yield at lower energies
           and the natural 214Pb background line at E(gamma) =
           351.9 keV a Ge detector with higher efficiency (55%)
           shielded with lead against room background was used
           to measure the reaction yield down to the n1
           threshold at E(alpha) = 1280 keV. In both cases the
           target was mounted at an angle of 45deg with respect
           to the beam direction.
ENDBIB              16
COMMON               2          3
E-LVL      THICKNESS
KEV        ATOMS/B
350.7          7.5E+16
ENDCOMMON            3
DATA                 3        258
EN         DATA       ERR-T
MEV        PRD/INC    PRD/INC
    1309.29   6.89E-15   3.46E-15
    1319.17   8.91E-15   3.93E-15
    1329.55   1.54E-14   4.30E-15
    1339.55   1.80E-14   4.23E-15
    1344.37   2.05E-14   4.64E-15
    1352.15   1.65E-14   3.18E-15
    1359.57   2.77E-14   3.72E-15
    1370.31   2.76E-14   2.96E-15
    1381.43   3.83E-14   3.81E-15
    1395.88   4.93E-14   4.49E-15
    1407.37   5.71E-14   4.63E-15
    1418.61   7.73E-14   5.96E-15
    1430.47   1.39E-13   1.02E-14
    1443.07   2.14E-13   1.54E-14
    1448.63   2.99E-13   2.10E-14
    1451.84   3.85E-13   2.52E-14
    1452.95   4.19E-13   2.70E-14
    1455.55   5.78E-13   3.87E-14
    1456.66   7.09E-13   4.33E-14
    1457.89   8.74E-13   5.59E-14
    1459.01   1.20E-12   8.08E-14
    1459.87   1.55E-12   9.85E-14
    1461.11   2.40E-12   1.57E-13
    1462.09   3.83E-12   2.19E-13
    1463.08   5.51E-12   3.36E-13
    1463.95   6.88E-12   4.10E-13
    1465.06   8.13E-12   4.73E-13
    1466.91   9.32E-12   5.05E-13
    1469.26   8.12E-12   4.44E-13
    1471.36   6.02E-12   3.22E-13
    1473.46   3.65E-12   1.99E-13
    1475.93   2.00E-12   1.11E-13
    1478.52   1.14E-12   6.12E-14
    1482.23   6.79E-13   4.97E-14
    1485.19   5.56E-13   3.81E-14
    1488.28   5.59E-13   3.54E-14
    1490.13   5.01E-13   3.57E-14
    1491.74   4.60E-13   3.33E-14
    1493.72   5.74E-13   4.17E-14
    1495.32   5.18E-13   3.40E-14
    1498.66   6.33E-13   4.14E-14
    1500.76   7.80E-13   4.95E-14
    1502.73   8.01E-13   5.45E-14
    1504.71   8.17E-13   5.38E-14
    1507.18   8.84E-13   5.30E-14
    1509.04   1.01E-12   6.18E-14
    1510.64   1.12E-12   6.39E-14
    1512.62   1.29E-12   7.64E-14
    1513.98   1.33E-12   7.68E-14
    1515.83   1.52E-12   8.86E-14
    1517.56   1.70E-12   1.03E-13
    1519.41   1.89E-12   1.08E-13
    1521.27   2.24E-12   1.25E-13
    1522.99   2.63E-12   1.45E-13
    1526.08   3.27E-12   1.81E-13
    1529.17   4.25E-12   2.39E-13
    1532.26   5.67E-12   3.12E-13
    1534.48   7.05E-12   3.93E-13
    1536.34   8.88E-12   5.85E-13
    1536.71   8.64E-12   4.69E-13
    1537.45   9.37E-12   6.12E-13
    1538.43   1.07E-11   6.59E-13
    1539.05   1.05E-11   5.58E-13
    1539.30   1.11E-11   7.59E-13
    1540.29   1.20E-11   7.35E-13
    1540.78   1.18E-11   6.49E-13
    1541.28   1.25E-11   7.39E-13
    1542.27   1.40E-11   8.36E-13
    1543.25   1.53E-11   9.89E-13
    1544.24   1.52E-11   9.40E-13
    1545.48   1.73E-11   1.09E-12
    1546.46   1.60E-11   9.10E-13
    1547.21   1.67E-11   9.72E-13
    1551.53   1.63E-11   1.07E-12
    1553.01   1.44E-11   7.84E-13
    1554.49   1.49E-11   8.00E-13
    1557.34   1.40E-11   7.56E-13
    1559.81   1.27E-11   7.15E-13
    1565.24   1.11E-11   6.15E-13
    1570.55   8.90E-12   5.29E-13
    1575.37   7.79E-12   4.52E-13
    1580.56   6.31E-12   3.91E-13
    1585.62   4.79E-12   2.88E-13
    1592.66   4.10E-12   2.50E-13
    1599.71   3.36E-12   2.28E-13
    1605.39   2.94E-12   2.22E-13
    1610.70   2.73E-12   1.89E-13
    1615.89   2.51E-12   1.93E-13
    1622.68   2.38E-12   1.89E-13
    1631.33   2.12E-12   1.60E-13
    1637.13   2.28E-12   1.75E-13
    1642.32   2.05E-12   1.61E-13
    1647.88   1.97E-12   1.58E-13
    1653.32   1.90E-12   1.56E-13
    1658.51   1.89E-12   1.52E-13
    1665.30   1.90E-12   1.40E-13
    1670.49   1.93E-12   1.46E-13
    1672.71   1.87E-12   1.34E-13
    1674.81   1.71E-12   1.43E-13
    1676.29   1.92E-12   1.41E-13
    1677.53   1.88E-12   1.33E-13
    1678.89   2.01E-12   1.68E-13
    1679.63   2.11E-12   1.56E-13
    1680.99   2.37E-12   1.71E-13
    1681.98   2.24E-12   1.55E-13
    1682.96   2.26E-12   1.55E-13
    1683.71   2.39E-12   1.74E-13
    1684.69   2.61E-12   1.82E-13
    1685.93   2.23E-12   1.54E-13
    1686.92   2.23E-12   1.67E-13
    1687.78   2.03E-12   1.56E-13
    1688.77   2.05E-12   1.40E-13
    1690.50   1.94E-12   1.22E-13
    1692.11   1.93E-12   1.50E-13
    1697.54   1.86E-12   1.14E-13
    1708.29   1.77E-12   1.27E-13
    1718.79   1.70E-12   1.11E-13
    1728.05   1.84E-12   1.58E-13
    1741.64   2.01E-12   1.86E-13
    1753.75   1.80E-12   1.58E-13
    1764.87   1.95E-12   1.49E-13
    1776.23   2.18E-12   1.68E-13
    1786.11   2.25E-12   1.91E-13
    1795.99   2.18E-12   1.71E-13
    1806.74   2.29E-12   1.64E-13
    1816.50   2.21E-12   1.74E-13
    1827.25   2.24E-12   1.76E-13
    1829.35   2.32E-12   1.76E-13
    1831.82   2.35E-12   1.80E-13
    1834.16   2.46E-12   1.78E-13
    1835.52   2.77E-12   2.08E-13
    1837.62   2.99E-12   2.20E-13
    1838.73   3.17E-12   2.35E-13
    1841.82   2.97E-12   2.13E-13
    1844.42   3.18E-12   2.27E-13
    1847.01   3.49E-12   2.47E-13
    1849.61   5.52E-12   4.24E-13
    1852.57   6.52E-12   5.36E-13
    1854.05   7.02E-12   5.31E-13
    1855.16   7.34E-12   5.01E-13
    1857.51   9.54E-12   7.00E-13
    1859.61   1.03E-11   8.09E-13
    1862.33   8.99E-12   6.65E-13
    1870.36   8.16E-12   6.27E-13
    1873.94   9.22E-12   6.26E-13
    1875.55   9.64E-12   7.63E-13
    1877.52   1.12E-11   9.90E-13
    1879.25   1.58E-11   1.13E-12
    1880.49   1.93E-11   1.52E-12
    1881.11   1.96E-11   1.52E-12
    1881.60   2.38E-11   1.85E-12
    1882.46   3.15E-11   2.31E-12
    1882.96   4.06E-11   2.50E-12
    1884.32   4.87E-11   3.05E-12
    1885.31   5.63E-11   3.78E-12
    1886.42   5.69E-11   3.75E-12
    1887.28   6.33E-11   4.52E-12
    1887.78   5.75E-11   3.78E-12
    1888.15   5.93E-11   4.20E-12
    1889.01   5.28E-11   3.80E-12
    1890.25   4.83E-11   3.40E-12
    1891.36   3.99E-11   2.75E-12
    1891.98   3.77E-11   2.59E-12
    1892.84   3.14E-11   1.76E-12
    1894.45   2.34E-11   1.84E-12
    1895.68   1.90E-11   1.24E-12
    1895.68   1.87E-11   1.38E-12
    1897.54   1.41E-11   1.02E-12
    1898.65   1.26E-11   1.06E-12
    1899.51   1.10E-11   8.92E-13
    1900.87   9.41E-12   7.84E-13
    1900.87   1.03E-11   8.60E-13
    1906.92   7.97E-12   5.86E-13
    1911.25   7.68E-12   5.93E-13
    1919.28   6.73E-12   6.05E-13
    1927.92   5.69E-12   5.24E-13
    1936.57   6.76E-12   5.95E-13
    1944.72   6.89E-12   5.96E-13
    1950.53   6.27E-12   5.69E-13
    1963.99   7.06E-12   6.82E-13
    1968.93   8.17E-12   6.16E-13
    1972.89   7.21E-12   5.74E-13
    1974.74   8.25E-12   6.02E-13
    1976.35   1.35E-11   1.06E-12
    1977.58   3.23E-11   2.17E-12
    1979.43   6.67E-11   4.02E-12
    1980.92   9.66E-11   5.61E-12
    1982.28   1.11E-10   7.16E-12
    1983.88   9.40E-11   5.31E-12
    1985.24   8.56E-11   5.28E-12
    1986.85   6.05E-11   3.90E-12
    1988.45   4.27E-11   2.97E-12
    1990.18   2.32E-11   1.90E-12
    1993.02   1.48E-11   1.13E-12
    2001.30   9.35E-12   1.09E-12
    2012.66   1.05E-11   1.01E-12
    2028.11   1.19E-11   1.10E-12
    2044.66   1.68E-11   1.39E-12
    2056.76   1.70E-11   1.43E-12
    2067.26   2.00E-11   1.58E-12
    2077.39   2.15E-11   1.75E-12
    2085.55   2.24E-11   2.01E-12
    2093.95   2.57E-11   2.08E-12
    2099.01   2.77E-11   2.29E-12
    2109.14   3.01E-11   2.39E-12
    2115.32   3.24E-11   2.71E-12
    2125.69   4.47E-11   3.35E-12
    2135.45   5.56E-11   3.62E-12
    2143.73   7.17E-11   4.64E-12
    2150.40   8.69E-11   7.01E-12
    2171.40   1.86E-10   1.34E-11
    2177.70   2.20E-10   1.61E-11
    2183.51   2.27E-10   1.59E-11
    2186.97   2.28E-10   1.46E-11
    2189.43   2.23E-10   1.38E-11
    2192.77   2.18E-10   1.54E-11
    2194.62   2.08E-10   1.23E-11
    2198.33   1.99E-10   1.34E-11
    2200.43   1.92E-10   1.35E-11
    2203.52   1.95E-10   1.44E-11
    2207.22   1.97E-10   1.15E-11
    2209.08   1.96E-10   1.43E-11
    2210.68   2.28E-10   1.58E-11
    2212.29   3.06E-10   1.91E-11
    2213.89   3.65E-10   2.34E-11
    2215.38   5.43E-10   3.36E-11
    2216.86   9.04E-10   5.21E-11
    2219.08   1.59E-09   8.80E-11
    2221.43   1.82E-09   9.78E-11
    2223.16   1.64E-09   8.79E-11
    2225.14   1.33E-09   7.58E-11
    2226.74   8.62E-10   5.17E-11
    2228.22   6.51E-10   4.03E-11
    2229.95   4.12E-10   2.70E-11
    2231.81   2.77E-10   1.95E-11
    2234.03   1.73E-10   1.23E-11
    2236.62   1.42E-10   1.04E-11
    2240.33   1.03E-10   7.44E-12
    2244.41   9.01E-11   6.11E-12
    2249.10   7.58E-11   5.80E-12
    2253.18   7.15E-11   4.96E-12
    2256.51   6.54E-11   5.03E-12
    2260.22   6.66E-11   5.23E-12
    2263.80   6.28E-11   4.19E-12
    2267.63   6.08E-11   4.91E-12
    2277.64   6.29E-11   4.25E-12
    2281.71   5.85E-11   4.57E-12
    2285.79   1.03E-10   7.36E-12
    2289.25   1.40E-10   8.56E-12
    2296.41   5.25E-11   4.00E-12
    2306.54   3.08E-11   2.39E-12
    2310.25   3.21E-11   2.62E-12
    2315.56   3.01E-11   2.62E-12
    2319.88   3.18E-11   2.55E-12
    2324.21   3.30E-11   2.44E-12
    2329.52   3.80E-11   2.98E-12
    2333.47   3.75E-11   2.92E-12
    2339.40   4.27E-11   3.29E-12
ENDDATA            260
ENDSUBENT          285
SUBENT        C2009003   20160303   20160902   20160727       C157
BIB                  6         13
REACTION   (8-O-18(A,N)10-NE-21,,PY,,TT)
STATUS     (TABLE) Data presented in fig. 4 of the reference
                    sent by author (A.B.)
METHOD     Yield determined by counting emitted neutrons
DETECTOR   (LONGC,HE3SP) Neutrons were detected by a variant of
           long counter consisting of 20 He3 counters that were
           embedded in an arrangement of two concentric rings
           with diameter 6 cm and 11 cm, respectively, into
           a 30 cm x 30 cm x 33 cm polyethylene moderator
ERR-ANALYS (ERR-1) Uncertainty in determination of neutron
                   detection efficiency
COMMENT    Data in energy region 1374.39-2314.85 keV, which are
           duplication of data in sub 4 are not included.
ENDBIB              13
COMMON               2          3
ERR-1      THICKNESS
PER-CENT   ATOMS/B
5.3            7.5E+16
ENDCOMMON            3
DATA                 3        140
EN         DATA       ERR-T
MEV        PRD/INC    PRD/INC
     852.57 2.7227E-16 2.2683E-16
     875.68 4.6776E-16 2.1646E-16
     883.57 6.5287E-16 2.1970E-16
     885.63 9.7879E-16 2.2306E-16
     887.35 9.4560E-16 2.9640E-16
     888.25 1.5966E-15 2.1077E-16
     888.86 1.6070E-15 3.0597E-16
     890.42 2.3132E-15 3.3362E-16
     890.53 2.3722E-15 2.7875E-16
     892.10 2.2045E-15 3.5283E-16
     893.78 2.0483E-15 3.4929E-16
     895.79 1.6359E-15 3.2266E-16
     897.59 1.2347E-15 3.7919E-16
     899.89 8.4273E-16 3.1585E-16
     902.87 8.7220E-16 2.3980E-16
     905.45 1.2907E-15 2.8476E-16
     908.95 1.1793E-15 2.8922E-16
     909.51 9.5878E-16 2.8016E-16
     928.47 1.7224E-15 2.5051E-16
     949.92 1.6777E-15 2.5754E-16
     956.45 4.0706E-15 5.2946E-16
     956.74 2.5330E-15 2.5669E-16
     958.48 1.8207E-14 7.0944E-16
     958.94 2.1215E-14 7.7367E-16
     959.70 2.7674E-14 9.6695E-16
     960.39 2.9042E-14 9.9372E-16
     961.84 2.9640E-14 9.9306E-16
     963.18 2.9979E-14 1.0298E-15
     964.40 2.6710E-14 8.8213E-16
     965.56 2.3392E-14 8.5193E-16
     966.61 1.9585E-14 7.5556E-16
     968.53 9.6668E-15 5.3205E-16
     971.45 4.5969E-15 4.6627E-16
     972.15 4.2154E-15 3.0195E-16
     985.26 7.3015E-15 3.6566E-16
     999.89 5.9586E-15 3.4944E-16
    1009.14 7.5705E-15 4.1082E-16
    1015.69 1.6367E-14 7.2893E-16
    1024.90 1.4754E-14 7.5388E-16
    1029.94 1.5261E-14 7.8681E-16
    1032.95 1.7128E-14 8.3009E-16
    1036.80 2.0844E-14 9.6031E-16
    1041.63 2.2944E-14 1.0484E-15
    1044.29 2.3713E-14 9.5880E-16
    1047.51 2.8210E-14 1.0677E-15
    1048.89 3.5390E-14 8.8535E-16
    1050.10 4.8115E-14 1.1842E-15
    1051.38 9.0733E-14 1.9854E-15
    1053.08 2.8034E-13 5.0109E-15
    1054.41 1.9567E-13 3.3535E-15
    1055.93 1.0959E-13 2.2730E-15
    1057.82 7.6453E-14 1.8438E-15
    1059.40 6.9794E-14 1.6598E-15
    1060.74 6.3408E-14 1.4490E-15
    1062.09 5.9227E-14 1.4520E-15
    1063.37 6.0135E-14 1.4658E-15
    1064.47 5.5469E-14 2.1174E-15
    1064.53 6.2577E-14 1.5247E-15
    1065.63 6.5278E-14 1.4598E-15
    1067.10 6.5057E-14 1.5407E-15
    1067.46 6.1193E-14 2.1835E-15
    1068.13 6.2606E-14 2.1644E-15
    1068.50 5.9404E-14 2.1285E-15
    1069.42 5.2570E-14 2.0911E-15
    1069.97 5.4736E-14 2.2411E-15
    1070.83 5.0629E-14 2.1713E-15
    1071.81 4.6414E-14 1.8504E-15
    1072.42 4.5081E-14 1.9423E-15
    1072.85 4.2730E-14 1.8545E-15
    1073.10 4.6678E-14 1.9492E-15
    1073.83 4.1512E-14 1.7018E-15
    1077.82 3.7266E-14 9.4570E-16
    1095.41 3.4801E-14 9.2444E-16
    1106.03 3.7344E-14 9.2485E-16
    1108.52 3.8459E-14 1.4134E-15
    1117.20 3.9748E-14 9.8072E-16
    1125.35 4.3122E-14 9.4692E-16
    1131.95 5.2040E-14 1.3045E-15
    1141.54 5.9350E-14 1.5012E-15
    1151.87 1.4050E-13 3.0751E-15
    1153.08 2.3138E-13 4.1260E-15
    1154.80 3.4589E-13 6.8165E-15
    1155.82 8.8274E-13 1.7149E-14
    1156.77 2.8415E-12 4.5083E-14
    1157.66 4.6042E-12 6.6454E-14
    1158.30 4.9738E-12 5.1838E-14
    1158.58 5.0351E-12 5.6821E-14
    1159.06 5.4024E-12 6.7402E-14
    1159.83 5.2972E-12 6.7746E-14
    1160.72 5.3536E-12 5.3573E-14
    1162.19 3.5928E-12 4.7407E-14
    1163.15 2.7459E-12 2.2535E-14
    1163.57 2.8037E-12 2.3761E-14
    1165.83 7.6615E-13 1.2549E-14
    1168.77 2.8769E-13 5.4039E-15
    1169.22 2.2948E-13 4.5575E-15
    1172.23 1.4903E-13 3.0435E-15
    1177.11 1.0505E-13 2.3053E-15
    1180.96 8.6148E-14 1.9245E-15
    1189.79 7.9470E-14 1.7502E-15
    1190.98 7.4380E-14 1.6679E-15
    1195.48 7.6478E-14 1.7252E-15
    1199.75 7.8295E-14 1.7935E-15
    1201.89 7.6641E-14 1.7671E-15
    1202.51 8.0616E-14 2.0158E-15
    1202.80 7.6317E-14 1.7629E-15
    1204.04 8.1239E-14 1.8182E-15
    1205.34 7.8447E-14 1.7872E-15
    1206.90 7.9156E-14 1.8217E-15
    1208.33 7.6225E-14 1.5843E-15
    1210.74 7.1746E-14 1.6058E-15
    1212.50 7.3393E-14 1.6317E-15
    1214.71 6.8105E-14 1.5795E-15
    1217.00 6.6965E-14 1.5311E-15
    1218.24 6.6846E-14 1.5706E-15
    1224.52 6.1429E-14 1.4274E-15
    1238.71 7.1055E-14 1.2475E-15
    1260.61 7.6476E-14 1.7657E-15
    1268.73 8.8091E-14 2.0463E-15
    1273.47 1.2384E-13 2.6978E-15
    1275.94 3.8172E-13 7.3935E-15
    1276.68 7.8838E-13 1.5215E-14
    1277.41 1.2694E-12 2.4693E-14
    1278.88 1.7442E-12 3.2808E-14
    1281.50 1.7729E-12 2.8460E-14
    1283.31 1.3720E-12 2.5436E-14
    1284.52 1.0072E-12 1.3622E-14
    1288.34 2.2511E-13 4.7887E-15
    1310.68 1.6882E-13 3.8086E-15
    1316.31 2.8501E-13 6.0030E-15
    1319.16 4.8252E-13 7.7778E-15
    1321.20 1.1946E-12 1.3210E-14
    1322.02 3.1416E-12 3.4248E-14
    1323.79 8.8434E-12 8.2708E-14
    1324.95 1.1273E-11 8.5745E-14
    1327.95 1.1011E-11 9.5756E-14
    1329.52 8.7267E-12 7.7183E-14
    1334.09 1.7502E-12 3.0508E-14
    1337.86 6.0065E-13 1.2331E-14
    1356.68 2.2033E-13 3.9632E-15
ENDDATA            142
ENDSUBENT          164
SUBENT        C2009004   20160303   20160902   20160727       C157
BIB                  3          9
REACTION   (8-O-18(A,N)10-NE-21,PAR,PY,,TT)
STATUS     (TABLE) Data presented in fig. 6 of the reference
                    sent by author (A.B.)
           (DEP,C2009002) (a,n1) yield given
           (DEP,C2009003) (a,n0+n1) yield given
ANALYSIS   Yield to ground state determined by simultaneous
           R-matrix analysis of n1 channel and total neutron
           yield using R-matrix code AZURE. Subtraction of the
            (a,n1) yield from the (a,n) yield.
ENDBIB               9
COMMON               2          3
E-LVL      THICKNESS
KEV        ATOMS/B
0.0            7.5E+16
ENDCOMMON            3
DATA                 3        269
EN         DATA       ERR-T
KEV        PRD/INC    PRD/INC
    1141.56 4.6202E-14 2.9046E-15
    1151.82 2.1225E-13 1.1069E-14
    1153.04 4.0168E-13 2.0366E-14
    1154.76 6.4051E-13 3.2443E-14
    1155.86 1.7622E-12 8.8782E-14
    1156.71 5.8565E-12 2.9286E-13
    1157.69 9.5431E-12 4.7605E-13
     1158.3 1.0317E-11 5.1217E-13
    1158.54 1.0446E-11 5.1900E-13
    1159.03 1.1216E-11 5.5788E-13
    1159.89 1.0998E-11 5.4714E-13
    1160.74 1.1118E-11 5.5134E-13
    1162.21 7.4364E-12 3.6991E-13
    1163.19 5.6645E-12 2.8028E-13
    1163.56 5.7859E-12 2.8631E-13
    1165.88 1.5183E-12 7.5872E-14
    1168.81 5.1376E-13 2.5880E-14
    1169.18 3.9137E-13 1.9816E-14
    1172.23 2.2047E-13 1.1292E-14
    1177.12 1.2451E-13 6.5855E-15
    1180.91 8.1851E-14 4.5280E-15
    1189.83 6.1049E-14 3.5662E-15
    1190.93 4.9395E-14 3.0588E-15
    1224.54 4.3471E-14 2.7669E-15
    1238.72 6.4057E-14 3.5047E-15
     1260.6 6.7065E-14 3.8540E-15
    1268.79 9.3489E-14 5.0556E-15
    1273.43 1.7152E-13 8.7113E-15
      1276. 7.2891E-13 3.5638E-14
    1276.73 1.6076E-12 7.8333E-14
    1277.47 2.6473E-12 1.2889E-13
    1278.93 3.6747E-12 1.7856E-13
     1281.5 3.7385E-12 1.8070E-13
    1283.33 2.8721E-12 1.3937E-13
    1284.56 2.0827E-12 1.0026E-13
    1288.34 3.8829E-13 1.9144E-14
    1310.71 2.6072E-13 1.2980E-14
    1316.33 5.0974E-13 2.4871E-14
    1319.14 8.6850E-13 4.1807E-14
    1321.22 2.3739E-12 1.1289E-13
    1322.08 6.6129E-12 3.1407E-13
    1323.79 1.9051E-11 9.0272E-13
    1324.89 2.4346E-11 1.1516E-12
    1327.94 2.3715E-11 1.1218E-12
    1329.53 1.8676E-11 8.8330E-13
    1334.06 3.2687E-12 1.5689E-13
    1337.84 6.8739E-13 3.5048E-14
    1356.67 3.1453E-13 1.5343E-14
    1374.39 2.0644E-13 1.2009E-14
    1383.43 2.1865E-13 1.2672E-14
     1395.9 2.6277E-13 1.4849E-14
    1401.89 2.7338E-13 1.5771E-14
    1407.88 3.1487E-13 1.8262E-14
    1419.49 3.7806E-13 2.1876E-14
    1429.39 5.1481E-13 2.9591E-14
    1437.58 7.0567E-13 4.0182E-14
    1444.79 1.5428E-12 8.4924E-14
     1448.7 4.7518E-12 2.6013E-13
    1451.76 1.3663E-11 7.4403E-13
    1455.91 1.5247E-11 8.2486E-13
    1459.46 7.8503E-12 4.3327E-13
    1463.86 2.3537E-12 1.2966E-13
    1465.57 1.8219E-12 9.9549E-14
    1466.91 1.6718E-12 9.3182E-14
    1468.01 1.5839E-12 8.8148E-14
    1468.99 1.5350E-12 8.5377E-14
    1469.84 1.5010E-12 8.5939E-14
    1470.58 1.4907E-12 8.4071E-14
    1471.31 1.5362E-12 8.6829E-14
    1472.53 1.4675E-12 8.4504E-14
    1474.12 1.5482E-12 8.8514E-14
    1475.96 1.5892E-12 9.0915E-14
     1477.3 1.6493E-12 9.1316E-14
     1478.4 1.7358E-12 9.9208E-14
    1479.99 1.7993E-12 1.0204E-13
    1481.21 1.8602E-12 1.0611E-13
    1482.92 2.0605E-12 1.1678E-13
    1484.39 2.1202E-12 1.2084E-13
    1489.28 2.6551E-12 1.4997E-13
    1490.99 2.8082E-12 1.5804E-13
    1492.58 3.1952E-12 1.7801E-13
    1494.04 3.3689E-12 1.8891E-13
    1495.88 3.7643E-12 2.1049E-13
     1497.1 3.9078E-12 2.2190E-13
    1500.77 4.8709E-12 2.7688E-13
    1503.46 5.9653E-12 3.3487E-13
    1510.67 9.5914E-12 5.2560E-13
    1516.41 1.5696E-11 8.6795E-13
     1520.2 2.1999E-11 1.2023E-12
    1523.01 2.7600E-11 1.5110E-12
    1527.29 3.9338E-11 2.1485E-12
    1528.76 4.2493E-11 2.3157E-12
    1531.69 4.7550E-11 2.5916E-12
     1544.4 3.4328E-11 1.8656E-12
    1555.89 1.8177E-11 9.9100E-13
    1573.73 8.2483E-12 4.5962E-13
    1586.44 5.7664E-12 3.1388E-13
    1603.43 4.0088E-12 2.1941E-13
    1619.69 3.2674E-12 1.7874E-13
    1643.03 2.7537E-12 1.5159E-13
    1657.33 2.4725E-12 1.3709E-13
    1660.14 2.5123E-12 1.3745E-13
    1661.37 2.4912E-12 1.3671E-13
    1662.34 2.4594E-12 1.3573E-13
    1663.57 2.4484E-12 1.3499E-13
    1665.64 2.8789E-12 1.5834E-13
    1667.36 2.9935E-12 1.6455E-13
    1668.94 2.9894E-12 1.6439E-13
    1670.17 2.9158E-12 1.5974E-13
    1671.51 2.7809E-12 1.5226E-13
    1673.96 2.4791E-12 1.3560E-13
    1692.66 2.2417E-12 1.2549E-13
    1717.83 2.4521E-12 1.3695E-13
    1734.82 2.5571E-12 1.4253E-13
    1751.32 2.7212E-12 1.4804E-13
    1751.93 2.7492E-12 1.4949E-13
    1762.93 3.0150E-12 1.6769E-13
    1780.29 3.1161E-12 1.7296E-13
    1799.48 3.1864E-12 1.7699E-13
    1805.59 3.3240E-12 1.8430E-13
     1807.3 3.4088E-12 1.8815E-13
    1809.13 3.5186E-12 1.9456E-13
    1810.97 3.4906E-12 1.9098E-13
    1812.68 3.6711E-12 2.0315E-13
    1813.78 3.7525E-12 2.0750E-13
    1814.76 3.8366E-12 2.1208E-13
    1815.61 4.0901E-12 2.2576E-13
    1816.34 4.5366E-12 2.4974E-13
    1817.93 5.1895E-12 2.8512E-13
    1818.91 5.3385E-12 2.9319E-13
    1819.89 5.6332E-12 3.0806E-13
    1821.23 5.6279E-12 3.0877E-13
    1822.33 5.4040E-12 2.9673E-13
    1823.43 5.2791E-12 2.9077E-13
    1824.41 5.1167E-12 2.8205E-13
    1825.63 4.8838E-12 2.7274E-13
    1826.98 5.0042E-12 2.7995E-13
    1828.32 5.1111E-12 2.7991E-13
    1830.28 5.5116E-12 3.0487E-13
    1831.87 5.5148E-12 3.1238E-13
    1833.58 6.2548E-12 3.4910E-13
    1835.04 6.6335E-12 3.6671E-13
    1836.27 6.9634E-12 3.8884E-13
    1837.49 7.8434E-12 4.3787E-13
    1838.59 8.0253E-12 4.4799E-13
    1839.81 8.6542E-12 4.8216E-13
    1841.03 9.2153E-12 5.0503E-13
    1842.74 9.8716E-12 5.4039E-13
    1845.07 1.0445E-11 5.7374E-13
    1847.02 1.1117E-11 6.1027E-13
    1848.61 1.2161E-11 6.6890E-13
    1850.57 1.3800E-11 7.5615E-13
    1852.16 1.5728E-11 8.6362E-13
    1856.43 2.7041E-11 1.4848E-12
    1856.68 2.6120E-11 1.4820E-12
     1857.9 3.2536E-11 1.8404E-12
    1859.37 4.3608E-11 2.4921E-12
    1860.71 6.3230E-11 3.5576E-12
    1862.06 8.5669E-11 4.7672E-12
    1862.42 1.0957E-10 5.9660E-12
    1863.28 1.2201E-10 6.7051E-12
    1864.74 1.8240E-10 9.9900E-12
    1865.97 2.4786E-10 1.3528E-11
    1867.19 3.1218E-10 1.6999E-11
    1867.56 4.1193E-10 2.2281E-11
    1868.04 3.4451E-10 1.8748E-11
     1868.9 4.2419E-10 2.3017E-11
    1869.39 4.1449E-10 2.2466E-11
    1871.22 3.3314E-10 1.8019E-11
    1876.72 1.1161E-10 6.0483E-12
    1881.98 3.3179E-11 1.8185E-12
    1886.26 1.9876E-11 1.1244E-12
    1894.08 1.1754E-11 6.7722E-13
    1914.86 7.1729E-12 4.1389E-13
    1926.71 6.6099E-12 3.8142E-13
    1934.53 6.5574E-12 3.7731E-13
    1943.33 6.3319E-12 3.6505E-13
    1945.66 6.4735E-12 3.7323E-13
    1948.22 7.0089E-12 4.0470E-13
    1949.69 7.2325E-12 4.1482E-13
    1951.03 8.0418E-12 4.5875E-13
    1951.77 8.7670E-12 5.0282E-13
    1952.13 1.0845E-11 6.2204E-13
     1952.5 1.4428E-11 8.3021E-13
    1952.99 2.1771E-11 1.2352E-12
    1953.23 2.5547E-11 1.4463E-12
    1953.72 3.4473E-11 1.9171E-12
    1954.21 4.7104E-11 2.6423E-12
     1954.7 5.4750E-11 3.0575E-12
    1955.19 6.7128E-11 3.7030E-12
    1955.56 7.5673E-11 4.1719E-12
    1955.92 7.9155E-11 4.3434E-12
    1956.66 8.5743E-11 4.6975E-12
    1957.02 8.5523E-11 4.6950E-12
    1957.39 8.5525E-11 4.7046E-12
      1958. 8.5129E-11 4.6790E-12
    1958.37 8.1185E-11 4.4755E-12
    1958.98 7.3520E-11 4.0493E-12
    1959.71 6.5382E-11 3.5988E-12
    1960.44 5.3756E-11 2.9626E-12
    1961.54 4.1388E-11 2.2902E-12
    1962.77 2.7397E-11 1.5359E-12
    1964.11 1.7810E-11 1.0162E-12
    1968.76 8.9797E-12 5.1832E-13
    1970.34 8.5029E-12 4.8622E-13
    1976.58 7.9048E-12 4.5378E-13
     1984.4 8.2648E-12 4.7530E-13
    1989.17 8.3422E-12 4.7728E-13
    1994.91 8.1829E-12 4.7434E-13
    2005.42 9.9973E-12 5.7350E-13
    2009.82 1.0485E-11 6.0002E-13
    2013.61 1.1222E-11 6.4290E-13
     2018.5 1.3036E-11 7.4400E-13
    2022.41 1.6545E-11 9.4752E-13
    2025.83 1.5703E-11 9.0139E-13
    2035.12 1.3947E-11 7.9326E-13
    2043.56 1.5234E-11 8.7366E-13
     2052.6 1.6343E-11 9.3747E-13
    2062.26 1.8050E-11 1.0209E-12
    2086.21 2.5129E-11 1.4138E-12
    2094.89 3.0232E-11 1.7019E-12
     2103.2 3.5765E-11 1.9988E-12
    2107.23 3.8812E-11 2.1653E-12
    2111.27 4.3256E-11 2.4051E-12
     2116.4 4.8339E-11 2.6794E-12
    2121.78 5.6674E-11 3.1322E-12
    2129.11 7.3333E-11 3.9950E-12
     2132.9 8.2808E-11 4.5392E-12
    2137.42 9.7175E-11 5.3183E-12
    2150.74 1.4942E-10 8.1407E-12
     2154.9 1.6092E-10 8.7599E-12
     2158.2 1.6582E-10 9.0252E-12
    2161.87 1.6984E-10 9.2434E-12
    2165.78 1.6515E-10 8.9588E-12
    2169.57 1.5594E-10 8.4912E-12
    2172.74 1.4823E-10 8.0763E-12
    2175.68 1.4198E-10 7.7356E-12
    2178.61 1.3907E-10 7.5803E-12
    2181.42 1.3620E-10 7.3767E-12
    2185.58 1.4929E-10 8.1331E-12
    2188.14 1.9106E-10 1.0379E-11
    2189.73 2.3890E-10 1.2971E-11
    2191.69 3.8601E-10 2.0975E-11
    2192.67 4.3065E-10 2.3519E-11
    2192.79 4.5478E-10 2.4841E-11
    2194.26 7.1348E-10 3.8813E-11
    2195.97 1.1946E-09 6.4797E-11
    2196.82 1.2933E-09 7.0123E-11
    2198.53 1.3357E-09 7.2396E-11
    2198.66 1.2904E-09 6.9831E-11
    2200.24 1.1230E-09 6.0927E-11
     2203.3 6.7147E-10 3.6404E-11
    2206.11 3.4440E-10 1.8740E-11
    2207.58 2.7495E-10 1.4919E-11
    2209.41 1.7010E-10 9.2548E-12
    2211.73 1.1478E-10 6.2677E-12
    2216.13 7.7853E-11 4.2737E-12
    2223.59 6.0606E-11 3.3409E-12
    2234.47 5.2550E-11 2.8840E-12
    2242.78 5.0480E-11 2.7858E-12
    2252.31 5.3710E-11 2.9649E-12
     2259.4 6.3691E-11 3.4849E-12
    2267.59 9.3918E-11 5.1439E-12
    2277.86 6.1537E-11 3.3720E-12
    2288.49 6.0507E-11 3.3168E-12
    2298.88 7.2344E-11 3.9558E-12
    2309.39 7.2722E-11 3.9897E-12
    2310.37 7.6331E-11 4.1357E-12
    2314.89 8.5307E-11 4.6272E-12
ENDDATA            271
ENDSUBENT          289
SUBENT        C2009005   20160303   20160902   20160727       C157
BIB                  2          4
REACTION   (8-O-18(A,N)10-NE-21,PAR,SIG,,SFC)
STATUS     (TABLE) Data presented in fig. 8 of the reference
                    sent by author (A.B.)
           (DEP,C2009004)
ENDBIB               4
COMMON               1          3
E-LVL
KEV
0.0
ENDCOMMON            3
DATA                 3        269
EN-CM      DATA       ERR-T
MEV        B*MEV      B*MEV
     0.9340  1.074E+07  6.910E+06
     0.9424  2.710E+07  5.935E+07
     0.9434  8.296E+07  9.278E+07
     0.9448  1.586E+08  2.641E+08
     0.9457  4.468E+08  6.925E+08
     0.9464  1.350E+09  1.725E+09
     0.9472  1.802E+09  1.548E+09
     0.9477  1.429E+09  1.088E+09
     0.9479  9.444E+08  8.786E+08
     0.9483  5.619E+08  4.601E+08
     0.9490  2.427E+08  2.444E+08
     0.9497  7.866E+07  1.439E+08
     0.9509  2.042E+07  7.121E+07
     0.9517  2.914E+07  5.027E+07
     0.9520  6.371E+07  4.551E+07
     0.9539  2.717E+07  2.447E+07
     0.9563  1.282E+07  1.393E+07
     0.9566  1.271E+07  1.313E+07
     0.9591  8.382E+06  8.385E+06
     0.9631  5.155E+06  4.909E+06
     0.9662  3.571E+06  3.558E+06
     0.9735  2.577E+06  1.999E+06
     0.9744  2.219E+06  1.894E+06
     1.0019  1.484E+06  7.344E+05
     1.0135  1.892E+06  6.941E+05
     1.0314  2.091E+06  1.268E+06
     1.0381  3.256E+06  3.353E+06
     1.0419  6.573E+06  1.357E+07
     1.0440  2.908E+07  6.510E+07
     1.0446  6.172E+07  1.383E+08
     1.0452  8.378E+07  1.738E+08
     1.0464  7.738E+07  8.963E+07
     1.0485  3.798E+07  1.655E+07
     1.0500  9.103E+06  8.348E+06
     1.0510  4.865E+06  6.168E+06
     1.0541  3.066E+06  3.334E+06
     1.0724  3.778E+06  5.583E+06
     1.0770  1.112E+07  1.605E+07
     1.0793  2.370E+07  3.937E+07
     1.0810  6.905E+07  1.301E+08
     1.0817  1.794E+08  2.557E+08
     1.0831  4.038E+08  7.839E+08
     1.0840  3.286E+08  4.103E+08
     1.0865  1.486E+08  4.752E+07
     1.0878  3.835E+07  2.766E+07
     1.0915  4.894E+06  9.427E+06
     1.0946  2.574E+06  5.458E+06
     1.1100  1.734E+06  1.807E+06
     1.1245  1.572E+06  1.450E+06
     1.1319  1.743E+06  1.457E+06
     1.1421  1.883E+06  1.581E+06
     1.1470  1.878E+06  1.686E+06
     1.1519  2.062E+06  1.828E+06
     1.1614  2.321E+06  2.253E+06
     1.1695  3.103E+06  2.974E+06
     1.1762  4.209E+06  4.752E+06
     1.1821  8.468E+06  1.774E+07
     1.1853  2.285E+07  4.154E+07
     1.1878  5.033E+07  1.441E+07
     1.1912  3.714E+07  6.676E+06
     1.1941  1.335E+07  5.512E+06
     1.1977  3.857E+06  5.370E+06
     1.1991  3.891E+06  5.466E+06
     1.2002  4.852E+06  5.576E+06
     1.2011  5.595E+06  5.693E+06
     1.2019  6.014E+06  5.813E+06
     1.2026  6.239E+06  5.929E+06
     1.2032  5.987E+06  6.036E+06
     1.2038  5.920E+06  6.141E+06
     1.2048  5.497E+06  6.326E+06
     1.2061  5.574E+06  6.617E+06
     1.2076  5.654E+06  6.992E+06
     1.2087  5.718E+06  7.263E+06
     1.2096  6.302E+06  7.529E+06
     1.2109  6.536E+06  7.944E+06
     1.2119  6.837E+06  8.294E+06
     1.2133  7.501E+06  8.781E+06
     1.2145  7.728E+06  9.273E+06
     1.2185  9.278E+06  1.121E+07
     1.2199  9.695E+06  1.205E+07
     1.2212  1.082E+07  1.293E+07
     1.2224  1.139E+07  1.372E+07
     1.2239  1.258E+07  1.495E+07
     1.2249  1.328E+07  1.586E+07
     1.2279  1.641E+07  1.895E+07
     1.2301  1.994E+07  2.188E+07
     1.2360  3.043E+07  3.278E+07
     1.2407  4.916E+07  4.673E+07
     1.2438  6.655E+07  5.926E+07
     1.2461  8.018E+07  6.950E+07
     1.2496  1.046E+08  8.459E+07
     1.2508  1.023E+08  8.878E+07
     1.2532  1.009E+08  9.337E+07
     1.2636  5.991E+07  6.214E+07
     1.2730  2.756E+07  3.183E+07
     1.2876  1.115E+07  1.366E+07
     1.2980  7.168E+06  8.718E+06
     1.3119  4.622E+06  5.454E+06
     1.3252  3.473E+06  3.843E+06
     1.3443  2.567E+06  2.604E+06
     1.3560  2.155E+06  2.155E+06
     1.3583  2.181E+06  2.084E+06
     1.3593  2.218E+06  2.055E+06
     1.3601  2.237E+06  2.032E+06
     1.3611  2.213E+06  2.007E+06
     1.3628  2.504E+06  1.967E+06
     1.3642  2.461E+06  1.922E+06
     1.3655  2.310E+06  1.889E+06
     1.3665  2.138E+06  1.866E+06
     1.3676  1.989E+06  1.840E+06
     1.3696  1.766E+06  1.794E+06
     1.3849  1.487E+06  1.519E+06
     1.4055  1.423E+06  1.285E+06
     1.4194  1.362E+06  1.188E+06
     1.4329  1.293E+06  1.129E+06
     1.4334  1.304E+06  1.127E+06
     1.4424  1.360E+06  1.108E+06
     1.4566  1.251E+06  1.112E+06
     1.4723  1.133E+06  1.190E+06
     1.4773  1.135E+06  1.242E+06
     1.4787  1.155E+06  1.259E+06
     1.4802  1.205E+06  1.281E+06
     1.4817  1.215E+06  1.306E+06
     1.4831  1.344E+06  1.331E+06
     1.4840  1.434E+06  1.348E+06
     1.4848  1.511E+06  1.365E+06
     1.4855  1.620E+06  1.381E+06
     1.4861  1.750E+06  1.395E+06
     1.4874  1.885E+06  1.425E+06
     1.4882  1.794E+06  1.447E+06
     1.4890  1.733E+06  1.470E+06
     1.4901  1.615E+06  1.505E+06
     1.4910  1.491E+06  1.537E+06
     1.4919  1.455E+06  1.568E+06
     1.4927  1.449E+06  1.597E+06
     1.4937  1.457E+06  1.641E+06
     1.4948  1.557E+06  1.693E+06
     1.4959  1.611E+06  1.749E+06
     1.4975  1.792E+06  1.841E+06
     1.4988  1.864E+06  1.931E+06
     1.5002  2.095E+06  2.043E+06
     1.5014  2.201E+06  2.142E+06
     1.5024  2.319E+06  2.247E+06
     1.5034  2.576E+06  2.365E+06
     1.5043  2.586E+06  2.484E+06
     1.5053  2.722E+06  2.620E+06
     1.5063  2.796E+06  2.784E+06
     1.5077  2.947E+06  3.068E+06
     1.5096  3.108E+06  3.558E+06
     1.5112  3.334E+06  4.077E+06
     1.5125  3.741E+06  4.666E+06
     1.5141  4.377E+06  5.590E+06
     1.5154  5.260E+06  6.605E+06
     1.5189  9.503E+06  1.204E+07
     1.5191  1.031E+07  1.249E+07
     1.5201  1.388E+07  1.551E+07
     1.5213  2.023E+07  2.131E+07
     1.5224  3.069E+07  2.967E+07
     1.5235  4.283E+07  4.144E+07
     1.5238  5.473E+07  4.684E+07
     1.5245  6.074E+07  6.075E+07
     1.5257  8.598E+07  9.227E+07
     1.5267  1.063E+08  1.129E+08
     1.5277  1.164E+08  1.043E+08
     1.5280  1.268E+08  9.762E+07
     1.5284  8.399E+07  8.872E+07
     1.5291  7.743E+07  6.915E+07
     1.5295  5.638E+07  5.968E+07
     1.5310  3.627E+07  3.378E+07
     1.5355  1.151E+07  1.008E+07
     1.5398  3.938E+06  4.995E+06
     1.5433  2.932E+06  3.397E+06
     1.5497  2.003E+06  2.120E+06
     1.5667  1.210E+06  1.252E+06
     1.5764  1.088E+06  1.140E+06
     1.5828  1.029E+06  1.129E+06
     1.5900  9.455E+05  1.243E+06
     1.5919  1.004E+06  1.349E+06
     1.5940  1.245E+06  1.639E+06
     1.5952  1.591E+06  2.005E+06
     1.5963  2.251E+06  2.703E+06
     1.5969  3.101E+06  3.616E+06
     1.5972  4.612E+06  4.300E+06
     1.5975  7.000E+06  5.442E+06
     1.5979  1.117E+07  6.964E+06
     1.5981  1.325E+07  9.317E+06
     1.5985  1.678E+07  1.402E+07
     1.5989  2.088E+07  1.951E+07
     1.5993  2.059E+07  2.577E+07
     1.5997  2.007E+07  2.547E+07
     1.6000  1.721E+07  2.032E+07
     1.6003  1.297E+07  1.518E+07
     1.6009  9.774E+06  8.844E+06
     1.6012  6.799E+06  6.073E+06
     1.6015  4.995E+06  5.147E+06
     1.6020  4.073E+06  3.603E+06
     1.6023  3.670E+06  3.215E+06
     1.6028  3.467E+06  2.568E+06
     1.6034  3.378E+06  2.179E+06
     1.6040  3.090E+06  1.918E+06
     1.6049  2.667E+06  1.664E+06
     1.6059  2.030E+06  1.483E+06
     1.6070  1.557E+06  1.364E+06
     1.6108  9.106E+05  1.196E+06
     1.6121  9.744E+05  1.171E+06
     1.6172  9.731E+05  1.130E+06
     1.6236  1.038E+06  1.127E+06
     1.6275  1.046E+06  1.137E+06
     1.6322  1.023E+06  1.157E+06
     1.6408  1.184E+06  1.219E+06
     1.6444  1.223E+06  1.266E+06
     1.6475  1.292E+06  1.334E+06
     1.6515  1.452E+06  1.547E+06
     1.6547  1.782E+06  1.819E+06
     1.6575  1.633E+06  1.678E+06
     1.6651  1.355E+06  1.445E+06
     1.6720  1.432E+06  1.483E+06
     1.6794  1.486E+06  1.572E+06
     1.6873  1.569E+06  1.698E+06
     1.7069  1.969E+06  2.207E+06
     1.7140  2.308E+06  2.500E+06
     1.7208  2.637E+06  2.883E+06
     1.7241  2.832E+06  3.114E+06
     1.7274  3.119E+06  3.382E+06
     1.7316  3.431E+06  3.795E+06
     1.7360  3.958E+06  4.330E+06
     1.7420  4.921E+06  5.273E+06
     1.7451  5.509E+06  5.848E+06
     1.7488  6.286E+06  6.606E+06
     1.7597  8.932E+06  8.522E+06
     1.7631  9.248E+06  8.651E+06
     1.7658  9.167E+06  8.532E+06
     1.7688  8.997E+06  8.214E+06
     1.7720  8.341E+06  7.764E+06
     1.7751  7.585E+06  7.330E+06
     1.7777  7.007E+06  7.060E+06
     1.7801  6.670E+06  6.959E+06
     1.7825  6.747E+06  7.092E+06
     1.7848  7.106E+06  7.564E+06
     1.7882  8.754E+06  9.727E+06
     1.7903  1.273E+07  1.295E+07
     1.7916  1.791E+07  1.704E+07
     1.7932  3.138E+07  2.644E+07
     1.7940  3.644E+07  3.467E+07
     1.7941  3.780E+07  3.589E+07
     1.7953  5.419E+07  5.685E+07
     1.7967  7.777E+07  8.226E+07
     1.7974  6.836E+07  7.852E+07
     1.7988  5.455E+07  5.270E+07
     1.7989  4.036E+07  5.058E+07
     1.8002  2.782E+07  2.978E+07
     1.8027  1.433E+07  1.372E+07
     1.8050  7.182E+06  8.369E+06
     1.8062  6.224E+06  6.929E+06
     1.8077  4.453E+06  5.769E+06
     1.8096  3.507E+06  4.744E+06
     1.8132  2.695E+06  3.675E+06
     1.8193  2.262E+06  2.833E+06
     1.8282  1.993E+06  2.327E+06
     1.8350  1.928E+06  2.151E+06
     1.8428  1.994E+06  2.137E+06
     1.8486  2.258E+06  4.022E+06
     1.8553  3.157E+06  2.234E+06
     1.8637  1.950E+06  1.914E+06
     1.8724  1.836E+06  1.853E+06
     1.8809  2.132E+06  1.826E+06
     1.8895  2.117E+06  1.811E+06
     1.8903  2.265E+06  1.810E+06
     1.8940  2.598E+06  1.805E+06
ENDDATA            271
ENDSUBENT          284
SUBENT        C2009006   20160303   20160902   20160727       C157
BIB                  2          4
REACTION   (8-O-18(A,N)10-NE-21,PAR,SIG,,SFC)
STATUS     (TABLE) Data presented in fig. 8 of the reference
                    sent by author (A.B.)
           (DEP,C2009002)
ENDBIB               4
COMMON               1          3
E-LVL
KEV
350.7
ENDCOMMON            3
DATA                 3        246
EN-CM      DATA       ERR-T
MEV        B*MEV      B*MEV
     1.1580  6.175E+05  3.830E+05
     1.1682  9.083E+05  7.973E+05
     1.1727  1.323E+06  1.321E+06
     1.1753  1.803E+06  2.007E+06
     1.1762  2.310E+06  2.393E+06
     1.1783  3.935E+06  3.841E+06
     1.1792  5.217E+06  5.033E+06
     1.1802  7.719E+06  7.158E+06
     1.1811  1.221E+07  1.014E+07
     1.1818  1.543E+07  1.384E+07
     1.1828  2.378E+07  2.361E+07
     1.1836  2.994E+07  3.613E+07
     1.1844  3.811E+07  4.695E+07
     1.1851  3.481E+07  4.610E+07
     1.1860  2.679E+07  3.417E+07
     1.1875  1.665E+07  1.596E+07
     1.1894  7.900E+06  7.224E+06
     1.1911  3.760E+06  4.546E+06
     1.1928  2.504E+06  3.199E+06
     1.1948  1.930E+06  2.429E+06
     1.1969  1.421E+06  2.017E+06
     1.1999  1.400E+06  1.756E+06
     1.2023  1.213E+06  1.688E+06
     1.2048  1.219E+06  1.700E+06
     1.2063  1.305E+06  1.740E+06
     1.2076  1.279E+06  1.790E+06
     1.2092  1.655E+06  1.865E+06
     1.2105  1.380E+06  1.947E+06
     1.2132  1.672E+06  2.153E+06
     1.2149  2.000E+06  2.317E+06
     1.2165  2.208E+06  2.501E+06
     1.2181  2.202E+06  2.697E+06
     1.2201  2.204E+06  3.006E+06
     1.2216  2.630E+06  3.274E+06
     1.2229  2.784E+06  3.517E+06
     1.2245  3.375E+06  3.884E+06
     1.2256  3.446E+06  4.167E+06
     1.2271  4.010E+06  4.570E+06
     1.2285  4.722E+06  5.033E+06
     1.2300  4.965E+06  5.600E+06
     1.2315  5.823E+06  6.200E+06
     1.2329  6.836E+06  6.895E+06
     1.2354  8.445E+06  8.328E+06
     1.2379  1.095E+07  1.021E+07
     1.2404  1.392E+07  1.248E+07
     1.2422  1.700E+07  1.453E+07
     1.2437  2.445E+07  1.643E+07
     1.2440  1.909E+07  1.679E+07
     1.2446  2.415E+07  1.753E+07
     1.2454  2.530E+07  1.866E+07
     1.2459  2.099E+07  1.939E+07
     1.2461  2.806E+07  1.968E+07
     1.2469  2.657E+07  2.085E+07
     1.2473  2.287E+07  2.143E+07
     1.2477  2.510E+07  2.201E+07
     1.2485  2.691E+07  2.315E+07
     1.2493  2.974E+07  2.409E+07
     1.2501  2.615E+07  2.507E+07
     1.2511  2.811E+07  2.616E+07
     1.2519  2.196E+07  2.687E+07
     1.2525  2.260E+07  2.728E+07
     1.2560  2.404E+07  2.748E+07
     1.2572  1.762E+07  2.672E+07
     1.2584  1.812E+07  2.573E+07
     1.2607  1.689E+07  2.307E+07
     1.2627  1.555E+07  2.062E+07
     1.2671  1.252E+07  1.544E+07
     1.2714  1.001E+07  1.162E+07
     1.2753  7.975E+06  9.086E+06
     1.2795  6.497E+06  7.162E+06
     1.2836  4.556E+06  5.810E+06
     1.2893  3.721E+06  4.498E+06
     1.2950  3.170E+06  3.593E+06
     1.2996  2.892E+06  3.059E+06
     1.3039  2.334E+06  2.670E+06
     1.3081  2.264E+06  2.364E+06
     1.3136  2.094E+06  2.044E+06
     1.3206  1.659E+06  1.733E+06
     1.3253  1.735E+06  1.571E+06
     1.3295  1.529E+06  1.446E+06
     1.3340  1.432E+06  1.333E+06
     1.3384  1.369E+06  1.237E+06
     1.3426  1.301E+06  1.157E+06
     1.3481  1.164E+06  1.067E+06
     1.3523  1.208E+06  1.008E+06
     1.3541  1.138E+06  9.841E+05
     1.3558  1.268E+06  9.628E+05
     1.3570  1.310E+06  9.486E+05
     1.3580  1.279E+06  9.371E+05
     1.3591  1.624E+06  9.247E+05
     1.3597  1.487E+06  9.181E+05
     1.3608  1.548E+06  9.078E+05
     1.3616  1.312E+06  9.050E+05
     1.3624  1.203E+06  9.083E+05
     1.3630  1.246E+06  8.871E+05
     1.3638  1.217E+06  8.758E+05
     1.3648  9.997E+05  8.657E+05
     1.3656  1.096E+06  8.580E+05
     1.3663  1.063E+06  8.516E+05
     1.3671  1.014E+06  8.442E+05
     1.3685  9.297E+05  8.316E+05
     1.3698  1.172E+06  8.204E+05
     1.3742  8.765E+05  7.850E+05
     1.3829  8.919E+05  7.251E+05
     1.3914  6.916E+05  6.772E+05
     1.3989  8.779E+05  6.420E+05
     1.4099  9.006E+05  6.003E+05
     1.4197  6.973E+05  5.715E+05
     1.4287  6.227E+05  5.513E+05
     1.4379  6.707E+05  5.368E+05
     1.4459  7.286E+05  5.297E+05
     1.4539  6.236E+05  5.291E+05
     1.4626  5.668E+05  5.394E+05
     1.4705  5.776E+05  5.662E+05
     1.4792  5.637E+05  6.380E+05
     1.4809  5.764E+05  6.626E+05
     1.4829  5.973E+05  6.977E+05
     1.4848  5.931E+05  7.390E+05
     1.4859  6.893E+05  7.687E+05
     1.4876  7.233E+05  8.196E+05
     1.4885  7.853E+05  8.538E+05
     1.4910  7.284E+05  9.723E+05
     1.4931  8.114E+05  1.098E+06
     1.4952  9.146E+05  1.268E+06
     1.4973  1.586E+06  1.464E+06
     1.4997  1.952E+06  1.724E+06
     1.5009  1.827E+06  1.839E+06
     1.5018  1.580E+06  1.911E+06
     1.5037  1.980E+06  2.014E+06
     1.5054  2.084E+06  2.020E+06
     1.5076  1.646E+06  1.932E+06
     1.5141  1.578E+06  1.628E+06
     1.5170  1.783E+06  1.710E+06
     1.5183  2.590E+06  1.851E+06
     1.5199  4.006E+06  2.157E+06
     1.5213  5.312E+06  2.694E+06
     1.5223  7.968E+06  3.344E+06
     1.5228  8.518E+06  3.774E+06
     1.5232  1.041E+07  4.172E+06
     1.5239  1.233E+07  5.123E+06
     1.5243  1.189E+07  5.776E+06
     1.5254  1.207E+07  8.357E+06
     1.5262  1.167E+07  1.020E+07
     1.5271  8.551E+06  1.093E+07
     1.5278  7.385E+06  1.016E+07
     1.5282  4.507E+06  9.350E+06
     1.5285  3.988E+06  8.690E+06
     1.5292  3.312E+06  6.889E+06
     1.5302  3.065E+06  4.940E+06
     1.5311  2.718E+06  3.746E+06
     1.5316  2.791E+06  3.233E+06
     1.5323  2.020E+06  2.782E+06
     1.5336  2.174E+06  2.127E+06
     1.5346  1.514E+06  1.794E+06
     1.5346  1.646E+06  1.794E+06
     1.5361  1.274E+06  1.464E+06
     1.5370  1.412E+06  1.333E+06
     1.5377  1.299E+06  1.250E+06
     1.5388  1.346E+06  1.139E+06
     1.5388  1.366E+06  1.139E+06
     1.5437  1.020E+06  8.722E+05
     1.5472  1.021E+06  7.811E+05
     1.5537  9.795E+05  6.916E+05
     1.5607  7.761E+05  6.458E+05
     1.5677  7.900E+05  6.224E+05
     1.5743  7.121E+05  6.107E+05
     1.5790  6.604E+05  6.062E+05
     1.5899  8.462E+05  6.124E+05
     1.5939  9.706E+05  6.754E+05
     1.5971  1.194E+06  1.271E+06
     1.5986  1.583E+06  4.944E+06
     1.5999  3.178E+06  8.313E+06
     1.6009  6.681E+06  3.935E+06
     1.6024  1.105E+07  1.724E+06
     1.6036  1.192E+07  1.275E+06
     1.6047  9.934E+06  1.115E+06
     1.6060  3.999E+06  9.957E+05
     1.6071  1.886E+06  9.371E+05
     1.6084  8.819E+05  8.922E+05
     1.6097  8.994E+05  8.647E+05
     1.6111  9.337E+05  8.432E+05
     1.6134  7.919E+05  8.227E+05
     1.6201  9.250E+05  8.073E+05
     1.6293  9.407E+05  8.279E+05
     1.6418  1.032E+06  8.898E+05
     1.6552  1.259E+06  9.916E+05
     1.6650  1.240E+06  1.094E+06
     1.6735  1.305E+06  1.206E+06
     1.6817  1.358E+06  1.344E+06
     1.6883  1.490E+06  1.485E+06
     1.6951  1.480E+06  1.662E+06
     1.6992  1.632E+06  1.792E+06
     1.7074  1.693E+06  2.124E+06
     1.7124  1.980E+06  2.379E+06
     1.7208  2.481E+06  2.970E+06
     1.7287  2.682E+06  3.779E+06
     1.7354  3.359E+06  4.748E+06
     1.7408  4.874E+06  5.803E+06
     1.7578  8.251E+06  9.827E+06
     1.7629  9.422E+06  1.007E+07
     1.7676  8.941E+06  9.463E+06
     1.7704  8.034E+06  8.817E+06
     1.7724  7.423E+06  8.323E+06
     1.7751  7.993E+06  7.650E+06
     1.7766  6.084E+06  7.311E+06
     1.7796  6.293E+06  6.760E+06
     1.7813  6.382E+06  6.578E+06
     1.7838  7.353E+06  6.554E+06
     1.7868  6.922E+06  7.203E+06
     1.7883  1.057E+07  8.107E+06
     1.7896  1.404E+07  9.355E+06
     1.7909  1.949E+07  1.163E+07
     1.7922  2.530E+07  1.587E+07
     1.7934  3.535E+07  2.217E+07
     1.7946  4.811E+07  3.492E+07
     1.7964  6.303E+07  6.316E+07
     1.7983  4.755E+07  5.233E+07
     1.7997  2.555E+07  3.072E+07
     1.8013  1.258E+07  1.719E+07
     1.8026  6.194E+06  1.205E+07
     1.8038  5.410E+06  9.100E+06
     1.8052  4.895E+06  6.941E+06
     1.8067  4.607E+06  5.506E+06
     1.8085  3.494E+06  4.431E+06
     1.8106  3.328E+06  3.580E+06
     1.8136  2.538E+06  2.853E+06
     1.8169  2.149E+06  2.349E+06
     1.8207  2.050E+06  1.972E+06
     1.8240  1.746E+06  1.741E+06
     1.8267  1.774E+06  1.603E+06
     1.8297  1.871E+06  1.482E+06
     1.8326  1.539E+06  1.390E+06
     1.8357  1.848E+06  1.320E+06
     1.8438  1.561E+06  1.374E+06
     1.8471  1.600E+06  2.084E+06
     1.8504  2.312E+06  4.835E+06
     1.8532  2.325E+06  1.755E+06
     1.8590  9.642E+05  1.021E+06
     1.8672  5.513E+05  8.856E+05
     1.8702  6.341E+05  8.621E+05
     1.8745  6.771E+05  8.363E+05
     1.8780  6.986E+05  8.199E+05
     1.8815  6.893E+05  8.063E+05
     1.8858  8.464E+05  7.924E+05
     1.8890  8.140E+05  7.836E+05
     1.8938  8.730E+05  7.725E+05
ENDDATA            248
ENDSUBENT          261
ENDENTRY             6
