ENTRY            C2049   20130916   20140228   20140223       C136
SUBENT        C2049001   20130916   20140228   20140223       C136
BIB                 10         34
TITLE      High resolution measurement of proton resonances in
           57Co
AUTHOR     (W.A.Watson III,E.G.Bilpuch,G.E.Mitchell)
REFERENCE  (J,PR/C,24,(5),1992,1981)
           #doi:10.1103/PhysRevC.24.1992
INSTITUTE  (1USADKE,1USANCS,1USATNL)
FACILITY   (VDG,1USATNL)
SAMPLE     (26-FE-56,ENR=0.999) 2-3 microg/cm2 of Fe2O3 powder
           was evaporated  onto thin carbon foils (1-5
           microg/cm2).
DETECTOR   (SIBAR,NAICR) Five silicon surface barrier detectors
           were used for the proton measurements, and five
           7.6x7.6 cm NaI(Tl) crystals were used to obtain
           deexcitation gamma-ray angular distributions.
METHOD     (COINC,GSPEC) Excitation functions for elastic and
           inelastic scattering of protons on 56Fe were measured
           from Ep = 3.1 to 4.0 MeV and five scattering angles:
           89, 106, 124, 149, and 160 degrees. The spectra were
           stored on magnetic tape for off-line analysis.
ANALYSIS   (SHAPE) Background subtraction for the elastic peaks
           consisted of a linear fit to a few channels on each
           side of the peak. The elastic and inelastic
           scattering data were fit with a multilevel,
           multichannel R-matrix code. The program MULTI used to
           perform these analyses can simultaneously handle
           several hundred resonances of many different spins
           and parities, and can include the effects of up to 35
           competing channels. In the present work, elastic
           scattering and inelastic scattering to the first 2+
           state in 56Fe (Ex=0.85 MeV) are assumed to be the
           open channels. Shape analysis was sufficient to
           determine the orbital momentum of all but the weakest
           levels.
HISTORY    (20130916C)
ENDBIB              34
NOCOMMON             0          0
ENDSUBENT           37
SUBENT        C2049002   20130916   20140228   20140223       C136
BIB                  2          2
REACTION   (26-FE-56(P,EL)26-FE-56,,DA)
STATUS     (CURVE) Fig.1, page 1994.
ENDBIB               2
COMMON               1          3
ANG
ADEG
90.0
ENDCOMMON            3
DATA                 2        422
EN         DATA
MEV        MB/SR
      3.104    374.394
      3.109    364.795
      3.112    391.994
      3.115    379.194
      3.119    369.595
      3.121    337.596
      3.123    369.595
      3.125    387.194
      3.127    380.794
      3.130    369.595
      3.131    363.195
      3.133    340.795
      3.135    385.594
      3.137    372.794
      3.142    356.795
      3.144    380.794
      3.146    359.995
      3.147    294.397
      3.148    332.796
      3.150    353.595
      3.153    359.995
      3.155    385.594
      3.158    374.394
      3.159    359.995
      3.161    348.795
      3.164    375.994
      3.166    363.195
      3.169    371.195
      3.172    356.795
      3.177    371.195
      3.179    364.795
      3.183    319.996
      3.184    223.999
      3.185    303.997
      3.186    371.195
      3.188    350.395
      3.191    361.595
      3.192    340.795
      3.193    313.596
      3.194    254.398
      3.195    310.396
      3.196    343.995
      3.197    369.595
      3.202    359.995
      3.205    372.794
      3.206    350.395
      3.207    318.396
      3.209    228.799
      3.210    263.998
      3.211    305.597
      3.216    371.195
      3.217    355.195
      3.222    343.995
      3.224    339.196
      3.226    316.796
      3.227    367.995
      3.228    265.598
      3.230    339.196
      3.232    355.195
      3.235    324.796
      3.236    342.395
      3.237    318.396
      3.238    356.795
      3.240    345.595
      3.242    334.396
      3.243    307.197
      3.244    343.995
      3.246    369.595
      3.247    356.795
      3.251    353.595
      3.252    340.795
      3.253    319.996
      3.254    299.197
      3.255    331.196
      3.258    348.795
      3.262    340.795
      3.265    332.796
      3.267    350.395
      3.269    335.996
      3.270    321.596
      3.273    308.797
      3.274    353.595
      3.276    343.995
      3.278    332.796
      3.280    353.595
      3.281    337.596
      3.282    326.396
      3.283    310.396
      3.284    289.597
      3.285    303.997
      3.286    326.396
      3.287    348.795
      3.289    337.596
      3.291    353.595
      3.295    342.395
      3.299    323.196
      3.300    315.196
      3.303    334.396
      3.306    323.196
      3.309    307.197
      3.311    329.596
      3.315    335.996
      3.319    351.995
      3.320    308.797
      3.322    347.195
      3.324    331.196
      3.325    279.997
      3.327    302.397
      3.328    339.196
      3.330    324.796
      3.332    310.396
      3.333    339.196
      3.336    326.396
      3.339    339.196
      3.341    327.996
      3.342    335.996
      3.344    321.596
      3.347    311.996
      3.348    332.796
      3.351    327.996
      3.353    329.596
      3.354    286.397
      3.356    327.996
      3.359    313.596
      3.359    329.596
      3.363    324.796
      3.364    310.396
      3.365    334.396
      3.367    326.396
      3.369    297.597
      3.369    326.396
      3.371    303.997
      3.373    334.396
      3.375    316.796
      3.377    287.997
      3.378    323.196
      3.380    292.797
      3.382    329.596
      3.383    313.596
      3.385    310.396
      3.388    303.997
      3.392    276.798
      3.392    340.795
      3.394    318.396
      3.396    297.597
      3.397    265.598
      3.398    148.802
      3.399    283.197
      3.401    319.996
      3.405    310.396
      3.409    316.796
      3.412    313.596
      3.415    286.397
      3.415    326.396
      3.420    345.595
      3.423    321.596
      3.426    297.597
      3.427    233.599
      3.429    278.397
      3.432    331.196
      3.435    311.996
      3.439    318.396
      3.440    299.197
      3.443    276.798
      3.445    326.396
      3.448    323.196
      3.450    305.597
      3.453    319.996
      3.455    308.797
      3.456    287.997
      3.457    265.598
      3.458    184.001
      3.459    292.797
      3.461    321.596
      3.464    313.596
      3.465    284.797
      3.467    303.997
      3.470    334.396
      3.473    303.997
      3.474    271.998
      3.475    319.996
      3.477    300.797
      3.479    286.397
      3.481    303.997
      3.485    294.397
      3.488    337.596
      3.492    292.797
      3.494    265.598
      3.495    305.597
      3.498    289.597
      3.500    305.597
      3.503    291.197
      3.505    275.198
      3.509    297.597
      3.511    283.197
      3.514    308.797
      3.516    286.397
      3.519    311.996
      3.523    307.197
      3.524    291.197
      3.526    268.798
      3.527    180.801
      3.528    287.997
      3.532    303.997
      3.536    292.797
      3.537    273.598
      3.538    169.601
      3.540    279.997
      3.542    313.596
      3.544    287.997
      3.546    254.398
      3.547    124.802
      3.550    271.998
      3.552    291.197
      3.555    275.198
      3.560    287.997
      3.561    319.996
      3.563    283.197
      3.566    273.598
      3.569    295.997
      3.570    214.400
      3.571    166.401
      3.573    279.997
      3.578    239.999
      3.579    297.597
      3.582    276.798
      3.585    233.599
      3.586    278.397
      3.587    310.396
      3.590    289.597
      3.596    262.398
      3.597    185.600
      3.598    113.603
      3.600    196.800
      3.601    268.798
      3.604    251.198
      3.607    286.397
      3.608    271.998
      3.609    227.199
      3.610    286.397
      3.611    243.199
      3.613    299.197
      3.615    283.197
      3.616    267.198
      3.618    241.599
      3.620    203.200
      3.622    228.799
      3.623    260.798
      3.627    200.000
      3.628    220.799
      3.629    331.196
      3.631    310.396
      3.633    291.197
      3.634    262.398
      3.634    176.001
      3.637    281.597
      3.641    315.196
      3.642    284.797
      3.644    251.198
      3.645    295.997
      3.646    276.798
      3.650    254.398
      3.651    289.597
      3.653    273.598
      3.658    278.397
      3.661    271.998
      3.665    263.998
      3.667    246.399
      3.670    270.398
      3.671    289.597
      3.675    267.198
      3.677    278.397
      3.680    265.598
      3.683    251.198
      3.685    222.399
      3.686    188.800
      3.687    113.603
      3.689    206.400
      3.693    265.598
      3.695    257.598
      3.698    246.399
      3.700    230.399
      3.701    120.003
      3.702    244.799
      3.705    263.998
      3.706    251.198
      3.708    231.999
      3.709    203.200
      3.711    152.002
      3.712     96.003
      3.714    116.803
      3.715    206.400
      3.717    228.799
      3.720    259.198
      3.721    215.999
      3.723    273.598
      3.724    255.998
      3.726    212.800
      3.727    273.598
      3.729    257.598
      3.731    212.800
      3.732    236.799
      3.734    257.598
      3.738    244.799
      3.741    156.801
      3.742    275.198
      3.744    252.798
      3.745    230.399
      3.747    247.998
      3.749    323.196
      3.751    249.598
      3.754    247.998
      3.757    279.997
      3.758    262.398
      3.760    238.399
      3.762    211.200
      3.764     89.604
      3.765    196.800
      3.766    295.997
      3.768    270.398
      3.769    231.999
      3.771    241.599
      3.773    321.596
      3.776    291.197
      3.777    275.198
      3.780    251.198
      3.782    212.800
      3.784    228.799
      3.788    271.998
      3.790    259.198
      3.793    215.999
      3.795    268.798
      3.797    249.598
      3.800    223.999
      3.801    187.200
      3.802    115.203
      3.804     86.404
      3.806    139.202
      3.808    223.999
      3.810    249.598
      3.812    265.598
      3.817    278.397
      3.820    259.198
      3.823    246.399
      3.824    107.203
      3.826    201.600
      3.830    294.397
      3.831    263.998
      3.833    247.998
      3.834    223.999
      3.835    129.602
      3.836    257.598
      3.841    247.998
      3.842    212.800
      3.844    176.001
      3.845    137.602
      3.847     89.604
      3.849    195.200
      3.851    236.799
      3.854    255.998
      3.856    235.199
      3.858    247.998
      3.861    279.997
      3.862    255.998
      3.864    200.000
      3.865    271.998
      3.867    254.398
      3.869    276.798
      3.873    255.998
      3.875    238.399
      3.877    260.798
      3.879    247.998
      3.883    233.599
      3.884    263.998
      3.888    283.197
      3.891    259.198
      3.895    284.797
      3.896    252.798
      3.899    243.199
      3.901    222.399
      3.902    128.002
      3.904    243.199
      3.906    271.998
      3.910    251.198
      3.913    238.399
      3.913    211.200
      3.915     94.403
      3.916    236.799
      3.918    284.797
      3.919    230.399
      3.921    208.000
      3.923    251.198
      3.924    230.399
      3.926    156.801
      3.927    267.198
      3.929    254.398
      3.931    195.200
      3.933    270.398
      3.934    257.598
      3.935    212.800
      3.939    246.399
      3.940    270.398
      3.943    268.798
      3.944    203.200
      3.948    289.597
      3.951    279.997
      3.952    228.799
      3.954    192.000
      3.956    219.199
      3.957    211.200
      3.958    247.998
      3.959    145.602
      3.961    236.799
      3.962    270.398
      3.967    255.998
      3.971    251.198
      3.976    244.799
      3.978    217.599
      3.979    260.798
      3.982    249.598
      3.987    244.799
      3.992    244.799
ENDDATA            424
ENDSUBENT          435
SUBENT        C2049003   20130916   20140228   20140223       C136
BIB                  2          2
REACTION   (26-FE-56(P,EL)26-FE-56,,DA)
STATUS     (CURVE) Fig.1 page 1994.
ENDBIB               2
COMMON               1          3
ANG
ADEG
125.0
ENDCOMMON            3
DATA                 2        391
EN         DATA
MEV        MB/SR
      3.105    150.473
      3.109    152.378
      3.111    170.473
      3.113    153.330
      3.116    150.473
      3.118    148.569
      3.120    135.236
      3.121    169.520
      3.125    159.044
      3.128    150.473
      3.131    148.569
      3.133    167.616
      3.135    150.473
      3.140    146.664
      3.144    139.997
      3.147     82.856
      3.148    184.758
      3.150    164.759
      3.153    155.235
      3.155    164.759
      3.158    153.330
      3.162    151.426
      3.166    147.616
      3.168    156.187
      3.172    144.759
      3.175    143.807
      3.177    150.473
      3.178    140.950
      3.181    134.283
      3.183    126.665
      3.184    179.996
      3.185    164.759
      3.187    155.235
      3.190    149.521
      3.191    141.902
      3.195    151.426
      3.196    162.854
      3.199    148.569
      3.201    139.997
      3.203    131.426
      3.205    119.998
      3.206    101.903
      3.207    133.331
      3.208    170.473
      3.209    199.996
      3.211    182.853
      3.213    164.759
      3.216    155.235
      3.221    146.664
      3.224    143.807
      3.225    160.949
      3.226    134.283
      3.227    151.426
      3.228    100.951
      3.229    169.520
      3.231    153.330
      3.234    149.521
      3.237    162.854
      3.240    147.616
      3.243    152.378
      3.247    144.759
      3.249    141.902
      3.251    136.188
      3.253    112.379
      3.255    160.949
      3.256    150.473
      3.260    144.759
      3.265    143.807
      3.268    139.997
      3.270    130.474
      3.272    148.569
      3.273    142.855
      3.277    141.902
      3.280    134.283
      3.281    123.808
      3.282    108.570
      3.284    173.330
      3.285    153.330
      3.288    142.855
      3.293    141.902
      3.297    141.902
      3.299    144.759
      3.302    137.140
      3.306    139.045
      3.309    136.188
      3.312    134.283
      3.316    133.331
      3.319    136.188
      3.322    110.475
      3.325    175.234
      3.326    106.665
      3.328    159.044
      3.331    153.330
      3.334    147.616
      3.336    141.902
      3.339    124.760
      3.341    143.807
      3.345    139.045
      3.351    139.997
      3.354    147.616
      3.355    137.140
      3.360    134.283
      3.364    138.093
      3.366    130.474
      3.368    117.141
      3.369    142.855
      3.372    139.045
      3.373    133.331
      3.376    140.950
      3.380    132.379
      3.383    120.950
      3.388    119.046
      3.391    138.093
      3.392    122.855
      3.393    110.475
      3.396     94.285
      3.397    106.665
      3.398    174.282
      3.400    156.187
      3.401    139.045
      3.406    133.331
      3.412    130.474
      3.417    123.808
      3.419    136.188
      3.421    120.950
      3.426    101.903
      3.427    164.759
      3.429    155.235
      3.432    117.141
      3.433    133.331
      3.436    137.140
      3.439    128.569
      3.441    100.951
      3.442    148.569
      3.443    126.665
      3.445    136.188
      3.448    130.474
      3.451    125.712
      3.453    118.093
      3.455    108.570
      3.456     91.428
      3.457    120.950
      3.458    163.806
      3.460    142.855
      3.462    135.236
      3.465    126.665
      3.470    132.379
      3.475    129.522
      3.478    141.902
      3.480    134.283
      3.482    127.617
      3.484    123.808
      3.486    106.665
      3.488    128.569
      3.492    122.855
      3.494    133.331
      3.495    124.760
      3.500    121.903
      3.502    113.332
      3.504    148.569
      3.505     83.809
      3.506    124.760
      3.509    119.046
      3.513    130.474
      3.515    114.284
      3.517    118.093
      3.518    149.521
      3.521    118.093
      3.522    111.427
      3.524    102.856
      3.526     65.714
      3.527    149.521
      3.527    131.426
      3.528    123.808
      3.532    115.236
      3.533    109.522
      3.535    112.379
      3.536     84.761
      3.537     57.143
      3.539    150.473
      3.540    120.950
      3.542    105.713
      3.543     97.142
      3.544     81.904
      3.546    151.426
      3.547    170.473
      3.551    144.759
      3.555    133.331
      3.556    121.903
      3.560    127.617
      3.561    118.093
      3.566    113.332
      3.567    108.570
      3.569     91.428
      3.570     60.952
      3.571    133.331
      3.577    129.522
      3.578    121.903
      3.579    101.903
      3.582    112.379
      3.585    139.045
      3.586    118.093
      3.588    107.618
      3.593     93.332
      3.595     70.476
      3.597    105.713
      3.599    158.092
      3.601    145.712
      3.603    130.474
      3.606    121.903
      3.609    117.141
      3.611    129.522
      3.613    111.427
      3.614    100.951
      3.616     91.428
      3.618     76.190
      3.619     48.572
      3.620    156.187
      3.622    140.950
      3.624    132.379
      3.626    119.046
      3.628    161.902
      3.629    131.426
      3.631    105.713
      3.633     67.619
      3.635    144.759
      3.637    131.426
      3.639    124.760
      3.639    109.522
      3.642    121.903
      3.648    115.236
      3.651    107.618
      3.656    110.475
      3.661    107.618
      3.664    100.951
      3.666     70.476
      3.667    130.474
      3.672    106.665
      3.675     99.999
      3.676     84.761
      3.679     95.237
      3.683     66.666
      3.686     46.667
      3.689    140.950
      3.691    125.712
      3.692    110.475
      3.696    104.760
      3.697     95.237
      3.699     54.286
      3.700    148.569
      3.702    121.903
      3.704    109.522
      3.705     92.380
      3.707     80.952
      3.710     57.143
      3.711     73.333
      3.712    152.378
      3.715    181.901
      3.716    147.616
      3.719    135.236
      3.720    153.330
      3.723    133.331
      3.725    125.712
      3.728    118.093
      3.731    103.808
      3.732    122.855
      3.735    116.189
      3.737    112.379
      3.740    132.379
      3.742     94.285
      3.745    113.332
      3.746    171.425
      3.748    110.475
      3.751     74.285
      3.752    112.379
      3.756    125.712
      3.757    105.713
      3.762     93.332
      3.763    142.855
      3.765    112.379
      3.766     82.856
      3.769     39.048
      3.770    136.188
      3.771     88.571
      3.773    113.332
      3.774     99.999
      3.777    103.808
      3.778     88.571
      3.780     72.381
      3.782    196.186
      3.785    124.760
      3.787    106.665
      3.790     96.189
      3.793    112.379
      3.794     89.523
      3.795     68.571
      3.798     53.334
      3.801     36.191
      3.803     63.809
      3.804    134.283
      3.805    150.473
      3.807    169.520
      3.808    152.378
      3.810    143.807
      3.812    135.236
      3.815    121.903
      3.818    106.665
      3.821     88.571
      3.822     77.142
      3.823    150.473
      3.826    171.425
      3.827    129.522
      3.829    110.475
      3.831     96.189
      3.832     82.856
      3.834    142.855
      3.838     99.046
      3.839     78.095
      3.841     62.857
      3.844     29.525
      3.845     99.046
      3.847    115.236
      3.850    119.998
      3.851    159.997
      3.853    120.950
      3.854    145.712
      3.855    130.474
      3.861    139.045
      3.862     87.618
      3.863    159.044
      3.864    138.093
      3.866    128.569
      3.869     99.046
      3.872    132.379
      3.876    125.712
      3.877     76.190
      3.880    102.856
      3.881    177.139
      3.883    148.569
      3.885    113.332
      3.886     99.046
      3.887     68.571
      3.889    119.998
      3.890    115.236
      3.893     87.618
      3.894    110.475
      3.897    105.713
      3.898     95.237
      3.900     52.381
      3.901    143.807
      3.903    138.093
      3.904    114.284
      3.907    114.284
      3.909    102.856
      3.910     86.666
      3.912    167.616
      3.913    135.236
      3.916    101.903
      3.917    126.665
      3.921    140.950
      3.922    123.808
      3.924    155.235
      3.926    120.950
      3.929    113.332
      3.930    163.806
      3.932    111.427
      3.933    101.903
      3.935     79.047
      3.936    110.475
      3.938    118.093
      3.940     93.332
      3.942     74.285
      3.943    122.855
      3.945     88.571
      3.948     74.285
      3.951     66.666
      3.954    108.570
      3.955     62.857
      3.956    160.949
      3.957    136.188
      3.959    153.330
      3.961    142.855
      3.964    134.283
      3.967    128.569
      3.972    128.569
      3.975    121.903
      3.976    127.617
      3.983    121.903
      3.987    115.236
      3.989    122.855
      3.994    119.046
ENDDATA            393
ENDSUBENT          404
SUBENT        C2049004   20130916   20140228   20140223       C136
BIB                  2          2
REACTION   (26-FE-56(P,EL)26-FE-56,,DA)
STATUS     (CURVE) Fig.1 page 1994.
ENDBIB               2
COMMON               1          3
ANG
ADEG
150.0
ENDCOMMON            3
DATA                 2        436
EN         DATA
MEV        MB/SR
      3.103    109.162
      3.106    114.740
      3.110    128.286
      3.111    108.366
      3.113    114.740
      3.117    112.350
      3.120    132.270
      3.121    113.147
      3.124    129.083
      3.129    109.959
      3.132    130.676
      3.133    101.194
      3.137    107.569
      3.141    102.788
      3.145     95.617
      3.147    166.533
      3.148    134.660
      3.150    121.115
      3.154    116.334
      3.155    139.441
      3.157    110.756
      3.161    115.537
      3.163    105.178
      3.166    109.959
      3.166     96.414
      3.169    105.975
      3.174    104.382
      3.176    107.569
      3.178    100.398
      3.181     98.007
      3.183     59.760
      3.184    158.564
      3.186    133.067
      3.188     97.210
      3.191    114.740
      3.194    131.473
      3.195    118.724
      3.197    105.975
      3.199     92.430
      3.202     90.836
      3.207    201.592
      3.210    160.955
      3.212    124.302
      3.216    119.521
      3.219    109.959
      3.223    109.959
      3.224     86.852
      3.225    128.286
      3.227    140.238
      3.228    120.318
      3.231    115.537
      3.233    122.708
      3.234    109.162
      3.237    105.975
      3.241    111.553
      3.243    105.975
      3.245    101.194
      3.246     88.446
      3.248    102.788
      3.251     97.210
      3.253    146.612
      3.254    101.194
      3.257    106.772
      3.262    105.178
      3.265     96.414
      3.267    102.788
      3.269     98.007
      3.271    111.553
      3.272    118.724
      3.273     91.633
      3.275    101.194
      3.278    106.772
      3.279     98.007
      3.281     93.226
      3.283     61.354
      3.284    149.003
      3.285    129.083
      3.286    115.537
      3.286    104.382
      3.290    105.178
      3.293    101.194
      3.296    108.366
      3.299    121.911
      3.300    105.178
      3.303    100.398
      3.306     91.633
      3.309    104.382
      3.311     94.820
      3.315    101.991
      3.316     90.039
      3.317     74.900
      3.319    102.788
      3.322     77.290
      3.324     43.824
      3.325    106.772
      3.326    156.174
      3.328    133.067
      3.330    124.302
      3.332     98.804
      3.333    129.879
      3.334    107.569
      3.338     82.071
      3.339    113.943
      3.341    108.366
      3.346     84.461
      3.351    102.788
      3.352    115.537
      3.355     97.210
      3.359     98.804
      3.363    105.178
      3.366     92.430
      3.367    105.178
      3.369    100.398
      3.371     94.820
      3.372    107.569
      3.373     90.836
      3.375     82.868
      3.376    109.959
      3.377     98.007
      3.380    105.178
      3.383     86.055
      3.388     85.258
      3.390     54.183
      3.391     79.681
      3.396     95.617
      3.397    146.612
      3.399    125.099
      3.400    115.537
      3.401    103.585
      3.404    101.991
      3.407     96.414
      3.410     95.617
      3.412     90.836
      3.413    103.585
      3.414     82.071
      3.418     87.649
      3.419     75.697
      3.421     94.023
      3.422     84.461
      3.423     76.493
      3.426    167.329
      3.427    124.302
      3.429    112.350
      3.431     72.509
      3.432    105.178
      3.437    100.398
      3.438     94.023
      3.440     77.290
      3.442    100.398
      3.443    137.848
      3.444     94.023
      3.451     90.039
      3.453     82.868
      3.455     71.713
      3.456    105.178
      3.457    141.035
      3.459    115.537
      3.460    104.382
      3.462     97.210
      3.464     91.633
      3.467     83.665
      3.468     57.370
      3.469     74.900
      3.471     98.804
      3.472    106.772
      3.477     87.649
      3.478    118.724
      3.481     97.210
      3.482     88.446
      3.485     82.868
      3.486     56.573
      3.487    101.991
      3.492     98.007
      3.493     89.242
      3.497     97.210
      3.501     88.446
      3.503    125.895
      3.506    101.194
      3.508     92.430
      3.511    110.756
      3.513     66.932
      3.514    117.927
      3.515     82.868
      3.516    109.162
      3.517     90.039
      3.518    118.724
      3.520     74.103
      3.523     68.525
      3.525    100.398
      3.526    127.489
      3.529     90.039
      3.530     79.681
      3.534     85.258
      3.537     76.493
      3.538    101.991
      3.538    131.473
      3.541     86.852
      3.542     70.119
      3.545    138.644
      3.546    162.549
      3.550    119.521
      3.551    108.366
      3.553     97.210
      3.557    106.772
      3.557     90.039
      3.561     85.258
      3.566     84.461
      3.568     74.900
      3.569     53.386
      3.570    135.457
      3.571    107.569
      3.573     99.601
      3.576    109.162
      3.577     92.430
      3.580     85.258
      3.584    126.692
      3.587     66.932
      3.590     65.338
      3.593     57.370
      3.596     91.633
      3.597    121.115
      3.598    160.955
      3.599    139.441
      3.601    123.505
      3.604    105.975
      3.607    109.162
      3.608     96.414
      3.609     74.900
      3.610    113.943
      3.613     69.322
      3.615     64.541
      3.618    150.596
      3.619     94.023
      3.620    109.162
      3.624    117.131
      3.625    141.832
      3.626    178.485
      3.627    133.863
      3.628    115.537
      3.630     59.760
      3.631     86.852
      3.632     50.996
      3.633     70.119
      3.634    117.927
      3.637     90.836
      3.639     65.338
      3.641     92.430
      3.642     98.007
      3.643     84.461
      3.646     92.430
      3.648     84.461
      3.650     60.557
      3.653     75.697
      3.657     80.477
      3.660     74.900
      3.664     70.119
      3.665     50.996
      3.666    112.350
      3.667    100.398
      3.668     79.681
      3.670     74.103
      3.675     69.322
      3.677     75.697
      3.680     62.948
      3.683     54.183
      3.684     42.231
      3.685    127.489
      3.686    149.800
      3.688    121.115
      3.690    105.975
      3.694     83.665
      3.697     74.900
      3.699     50.199
      3.699     94.820
      3.700    118.724
      3.701     94.820
      3.704     79.681
      3.708     59.760
      3.710     71.713
      3.711    103.585
      3.712    124.302
      3.713    147.409
      3.716    137.848
      3.719    132.270
      3.720    113.943
      3.724    114.740
      3.725    101.194
      3.727     91.633
      3.730    102.788
      3.733    100.398
      3.735    109.959
      3.738    133.863
      3.740     51.792
      3.741     90.836
      3.744    164.142
      3.745    129.879
      3.746    204.779
      3.747     41.434
      3.749    100.398
      3.752     86.852
      3.754    113.147
      3.758     65.338
      3.759     86.852
      3.761    132.270
      3.762    179.281
      3.763    141.832
      3.764    117.927
      3.767     15.936
      3.768     60.557
      3.769     92.430
      3.771     70.916
      3.773     82.071
      3.775     64.541
      3.778     54.980
      3.780    156.174
      3.781    193.624
      3.782    137.848
      3.783     88.446
      3.787     64.541
      3.790     74.103
      3.792     50.996
      3.793     81.274
      3.795     35.059
      3.796     44.621
      3.798     26.295
      3.801     87.649
      3.802    111.553
      3.803    145.019
      3.804    125.099
      3.809    108.366
      3.812     98.007
      3.815     89.242
      3.817     65.338
      3.818     70.119
      3.820     55.776
      3.821     47.808
      3.822    113.147
      3.823    140.238
      3.824     82.071
      3.825    109.162
      3.827     74.103
      3.828     66.135
      3.831     54.183
      3.832     33.466
      3.833    125.099
      3.834     88.446
      3.836     74.900
      3.839     43.824
      3.840     35.856
      3.842     47.808
      3.843     80.477
      3.844     90.836
      3.845    101.991
      3.846    129.083
      3.847    118.724
      3.849    148.206
      3.850    115.537
      3.853    119.521
      3.855    101.194
      3.856     87.649
      3.858     74.103
      3.859    101.991
      3.860     79.681
      3.861     86.852
      3.862    144.222
      3.864    103.585
      3.865     83.665
      3.866     72.509
      3.868     52.589
      3.869    105.975
      3.872     90.836
      3.874     76.493
      3.875     67.729
      3.876     36.653
      3.877     87.649
      3.879     98.007
      3.880    154.580
      3.882    111.553
      3.884     69.322
      3.886     75.697
      3.887     91.633
      3.888     24.701
      3.890     83.665
      3.893    102.788
      3.894     85.258
      3.896     75.697
      3.898     86.852
      3.899    107.569
      3.900    133.067
      3.901     70.119
      3.903     83.665
      3.905     91.633
      3.907     77.290
      3.910     81.274
      3.911     35.856
      3.912    116.334
      3.913     75.697
      3.915    101.991
      3.916     85.258
      3.917    129.083
      3.918     69.322
      3.919    141.832
      3.922    165.736
      3.923     55.776
      3.924    125.895
      3.926     69.322
      3.928    117.131
      3.934     46.215
      3.936     62.151
      3.938     50.996
      3.940     27.888
      3.942     78.884
      3.943     35.059
      3.946     23.107
      3.948     62.948
      3.952     67.729
      3.954    137.848
      3.955    199.202
      3.957    137.848
      3.959    113.943
      3.962    117.927
      3.964    107.569
      3.965     73.306
      3.966    125.895
      3.968    116.334
      3.970    109.959
      3.973    105.975
      3.974    101.194
      3.975     91.633
      3.976    112.350
      3.979    101.194
      3.984     90.039
      3.985    105.178
      3.989     99.601
      3.990    105.975
      3.994    101.194
ENDDATA            438
ENDSUBENT          449
SUBENT        C2049005   20130916   20140228   20140223       C136
BIB                  2          2
REACTION   (26-FE-56(P,INL)26-FE-56,PAR,DA)
STATUS     (CURVE) Fig.1 page 1994.
ENDBIB               2
COMMON               2          3
ANG        E-LVL
ADEG       MEV
125.0      0.85
ENDCOMMON            3
DATA                 2        361
EN         DATA
MEV        MB/SR
      3.106      0.024
      3.109      0.261
      3.111      3.112
      3.116      0.024
      3.121      2.399
      3.123      0.261
      3.125      6.201
      3.127      0.261
      3.131      1.449
      3.134      0.261
      3.138      1.212
      3.141      0.024
      3.143      1.687
      3.144      0.261
      3.147      1.449
      3.152      0.024
      3.155      8.577
      3.158      0.974
      3.162      2.162
      3.163      7.626
      3.164      3.350
      3.166      7.864
      3.167      1.924
      3.170      0.024
      3.177      0.261
      3.181      0.499
      3.183      6.913
      3.184      1.924
      3.185      0.261
      3.188      2.637
      3.191      0.024
      3.194     23.069
      3.195      6.201
      3.196     14.278
      3.198      0.261
      3.200      5.488
      3.201      0.499
      3.205      0.261
      3.207      4.063
      3.208      0.974
      3.210      4.300
      3.213      0.974
      3.216      0.736
      3.219      3.350
      3.220      0.736
      3.224      0.261
      3.226      9.289
      3.227      6.913
      3.229      2.399
      3.231      0.024
      3.237      0.974
      3.241      0.499
      3.244     18.792
      3.246      4.063
      3.248      1.212
      3.252      1.212
      3.255      5.488
      3.257      0.974
      3.261      0.499
      3.264      0.974
      3.266      3.112
      3.267      0.974
      3.271      0.024
      3.273      5.013
      3.275      1.924
      3.278      0.736
      3.281      0.024
      3.283      5.488
      3.284      2.162
      3.287      5.250
      3.288      0.499
      3.292      0.499
      3.295      1.924
      3.298      0.499
      3.300     20.455
      3.301      7.626
      3.303      0.261
      3.305      2.637
      3.306      6.438
      3.308      0.974
      3.310      3.587
      3.312      0.499
      3.315      1.924
      3.317      8.339
      3.323      0.261
      3.328      1.924
      3.330      0.736
      3.333      8.814
      3.335      5.013
      3.336      0.974
      3.340      3.350
      3.342      0.261
      3.347     18.317
      3.348      7.864
      3.349      2.875
      3.351      0.024
      3.354      2.637
      3.355      7.626
      3.358      0.024
      3.360      2.162
      3.363      0.499
      3.366      1.449
      3.369      2.162
      3.373      3.587
      3.375      0.974
      3.380      0.736
      3.381      5.013
      3.384      0.499
      3.386      1.449
      3.389      0.499
      3.392     12.615
      3.393      3.587
      3.396      0.499
      3.398      9.527
      3.400      0.736
      3.404      0.499
      3.407      2.637
      3.409      0.499
      3.410      2.162
      3.414      0.261
      3.415      7.626
      3.418      0.499
      3.421      4.063
      3.422      0.499
      3.426      0.261
      3.428      3.350
      3.431      0.499
      3.433      1.687
      3.435      0.261
      3.437      2.162
      3.440      0.974
      3.443      1.687
      3.444      3.825
      3.446      5.250
      3.448      0.736
      3.451      1.924
      3.453      0.499
      3.457      0.974
      3.460      0.261
      3.462      3.112
      3.466      0.261
      3.468      0.736
      3.470      5.013
      3.472      0.736
      3.474      5.963
      3.477      0.261
      3.479      1.924
      3.481      0.499
      3.484      1.449
      3.487      0.499
      3.492      0.261
      3.494      8.814
      3.497      2.875
      3.499      4.063
      3.500      0.736
      3.504      4.300
      3.505      0.736
      3.508      0.261
      3.510      2.162
      3.512      0.024
      3.514     13.328
      3.516      2.637
      3.518      0.736
      3.519     10.002
      3.522      1.687
      3.524      0.974
      3.528      2.399
      3.531      0.024
      3.535      3.350
      3.536      7.389
      3.538      2.162
      3.542      3.112
      3.544      1.212
      3.548      2.399
      3.552      5.250
      3.555      1.924
      3.558      0.261
      3.560      9.052
      3.561      4.300
      3.564      0.974
      3.567      2.637
      3.570      0.974
      3.577      3.825
      3.579     10.715
      3.581      7.151
      3.582      3.587
      3.583      0.974
      3.587      6.438
      3.590      0.024
      3.596      1.212
      3.601      2.875
      3.603      0.499
      3.606     12.140
      3.608      0.499
      3.610     16.654
      3.613      3.825
      3.616      0.024
      3.618      5.250
      3.620      2.637
      3.625      0.499
      3.627      7.626
      3.629     23.544
      3.631      7.626
      3.633      1.449
      3.634      5.250
      3.637      0.024
      3.641      2.399
      3.644      0.261
      3.645      7.864
      3.648      0.499
      3.650      4.775
      3.652     15.466
      3.653      6.676
      3.654      2.637
      3.657      0.024
      3.659      2.875
      3.662      1.449
      3.666      0.261
      3.668      1.449
      3.670     13.803
      3.672      2.162
      3.675      0.261
      3.678      5.726
      3.680      2.875
      3.687      4.300
      3.690      1.212
      3.694      7.389
      3.697      4.063
      3.699      1.687
      3.702     22.594
      3.703      2.162
      3.705      0.736
      3.711     16.179
      3.713      7.151
      3.716      4.063
      3.717     10.715
      3.719     10.952
      3.720      2.162
      3.722     10.715
      3.725      1.449
      3.726     22.119
      3.727      9.527
      3.728      6.438
      3.730      1.687
      3.732      9.289
      3.734      1.924
      3.736      4.538
      3.739      1.924
      3.741     28.058
      3.743      7.864
      3.746      0.499
      3.754      4.775
      3.756      8.577
      3.757     29.721
      3.758     12.615
      3.759      4.538
      3.764      4.775
      3.765     22.119
      3.768      9.289
      3.769      3.350
      3.771      1.212
      3.773      4.063
      3.776      6.438
      3.783      2.875
      3.784      8.339
      3.785      5.488
      3.787      1.687
      3.790      4.775
      3.792      1.212
      3.793     15.466
      3.795      7.626
      3.797      2.399
      3.798     15.229
      3.801      3.350
      3.804      3.587
      3.807     12.140
      3.809      6.676
      3.812      2.875
      3.814      0.736
      3.818      0.736
      3.820      7.864
      3.821      1.687
      3.824      6.676
      3.825      2.162
      3.829      7.864
      3.830      1.687
      3.833      1.449
      3.836      0.736
      3.839      4.063
      3.841     12.615
      3.842      2.162
      3.845      5.488
      3.846      2.637
      3.850      0.974
      3.852      3.825
      3.853     18.080
      3.855      7.864
      3.856      2.162
      3.858      0.736
      3.862      1.687
      3.864      4.775
      3.865     12.378
      3.866      2.875
      3.869      0.736
      3.872      6.913
      3.875      1.212
      3.876      4.063
      3.877      8.577
      3.878     19.505
      3.880      7.626
      3.881      1.687
      3.883     16.654
      3.884      6.913
      3.886      0.974
      3.888     21.643
      3.891      5.963
      3.892      0.261
      3.894      1.687
      3.895      9.527
      3.898      3.587
      3.899      0.974
      3.904      1.212
      3.907      4.063
      3.908      5.963
      3.911      1.924
      3.914      5.250
      3.915     11.427
      3.917      3.587
      3.919      0.736
      3.921      3.587
      3.922     26.395
      3.927      4.063
      3.931      2.637
      3.935      0.261
      3.938      2.399
      3.941      8.101
      3.942      3.350
      3.944      8.814
      3.946      3.112
      3.948      1.212
      3.951      3.587
      3.954      7.389
      3.955     12.615
      3.957      5.963
      3.959      3.825
      3.960      7.626
      3.961      4.538
      3.962      3.112
      3.963      9.764
      3.966      0.499
      3.968      9.289
      3.969      3.112
      3.970      0.499
      3.973      3.112
      3.975      3.350
      3.977      1.687
      3.979     14.991
      3.981      1.924
      3.985      0.024
      3.986      2.399
      3.992      1.212
ENDDATA            363
ENDSUBENT          374
SUBENT        C2049006   20130916   20140228   20140223       C136
BIB                  2          2
REACTION   (26-FE-56(P,EL)26-FE-56,,DA)
STATUS     (CURVE) Fig.2 page 1994.
ENDBIB               2
COMMON               1          3
ANG
ADEG
107.0
ENDCOMMON            3
DATA                 2        129
EN         DATA
MEV        MB/SR
      3.701    106.049
      3.702     62.891
      3.703    141.629
      3.704    177.199
      3.705    161.983
      3.706    141.688
      3.708    134.092
      3.709    116.339
      3.711     98.584
      3.712     68.119
      3.713     83.377
      3.714     91.019
      3.715    126.585
      3.716    164.692
      3.717    179.950
      3.719    179.978
      3.720    187.625
      3.722    172.404
      3.723    154.646
      3.724    200.374
      3.725    172.457
      3.726    164.852
      3.727    147.094
      3.728    192.822
      3.729    177.601
      3.731    164.928
      3.732    157.332
      3.733    131.949
      3.734    175.135
      3.735    157.374
      3.736    157.402
      3.738    147.263
      3.739    149.819
      3.740    134.604
      3.741    114.306
      3.742    190.513
      3.743    167.665
      3.744    139.739
      3.745    162.613
      3.746    149.929
      3.747    137.253
      3.748    116.947
      3.749    254.115
      3.750    203.336
      3.751    175.413
      3.752    122.091
      3.753    183.057
      3.754    157.683
      3.755    150.084
      3.757    134.868
      3.758    190.761
      3.759    162.844
      3.761    152.705
      3.762    137.492
      3.763    124.811
      3.764    101.973
      3.765     81.670
      3.766    180.734
      3.767    218.835
      3.768    188.381
      3.769    162.996
      3.770    137.616
      3.771     76.683
      3.772    190.989
      3.773    201.161
      3.774    180.861
      3.776    180.889
      3.777    155.506
      3.778    158.066
      3.780    147.929
      3.781    137.796
      3.782    107.340
      3.783     84.491
      3.784     59.108
      3.785    216.585
      3.786    241.990
      3.787    198.841
      3.789    173.475
      3.791    165.890
      3.793    148.138
      3.794    165.935
      3.795    127.859
      3.796    160.887
      3.797    143.126
      3.798    122.822
      3.799    105.056
      3.800    122.848
      3.801     97.468
      3.803     74.641
      3.804     49.264
      3.805     67.065
      3.806    102.634
      3.807    148.360
      3.808    168.697
      3.810    176.341
      3.811    194.139
      3.813    186.559
      3.816    186.596
      3.818    171.391
      3.820    168.882
      3.821    153.667
      3.823    151.158
      3.824    115.619
      3.825     90.231
      3.826    148.672
      3.827    166.458
      3.828    163.932
      3.829    209.661
      3.831    174.133
      3.832    161.466
      3.834    143.713
      3.835    115.788
      3.836    115.811
      3.837    164.070
      3.838    171.712
      3.840    143.812
      3.842    148.917
      3.843    118.457
      3.844     98.154
      3.845     88.006
      3.846     49.928
      3.847     60.107
      3.848    126.161
      3.850    154.125
      3.851    169.380
      3.852    169.400
      3.854    187.197
      3.855    184.683
      3.857    182.177
ENDDATA            131
ENDSUBENT          142
SUBENT        C2049007   20130916   20140228   20140223       C136
BIB                  2          2
REACTION   (26-FE-56(P,INL)26-FE-56,PAR,DA)
STATUS     (CURVE) Fig.2 page 1994.
ENDBIB               2
COMMON               2          3
ANG        E-LVL
ADEG       MEV
90.0       0.85
ENDCOMMON            3
DATA                 2        112
EN         DATA
MEV        MB/SR
      3.701      0.488
      3.702     15.967
      3.703     11.133
      3.704      0.498
      3.706      0.502
      3.709      0.510
      3.711      0.033
      3.712      4.874
      3.713      9.711
      3.715      0.529
      3.716      6.335
      3.718      1.021
      3.719      7.311
      3.720      0.060
      3.721      4.900
      3.723      7.809
      3.724      2.008
      3.725      0.560
      3.727     15.559
      3.728     25.716
      3.729      2.506
      3.732      1.547
      3.733     12.675
      3.734      5.424
      3.735      1.074
      3.736      0.110
      3.738      2.050
      3.739      0.602
      3.741      0.607
      3.742     25.277
      3.743     16.573
      3.746      2.558
      3.747      0.143
      3.749      7.403
      3.750      3.537
      3.753      0.161
      3.754      0.647
      3.755      6.453
      3.756      0.653
      3.757      2.107
      3.758     23.390
      3.759      4.048
      3.760      5.501
      3.763      0.190
      3.764      2.129
      3.765      7.452
      3.766     18.578
      3.767     11.810
      3.768      4.076
      3.769      7.464
      3.770      3.597
      3.771      1.667
      3.772      0.220
      3.773      3.124
      3.774      4.577
      3.775      1.194
      3.777      5.553
      3.778      0.720
      3.780      0.727
      3.782      0.250
      3.784      8.960
      3.785      3.643
      3.786      8.481
      3.788      1.716
      3.790      3.658
      3.791      0.275
      3.793      1.248
      3.794     12.375
      3.795      2.707
      3.796      7.545
      3.797      2.711
      3.799     14.326
      3.800      7.073
      3.802      0.792
      3.803      2.729
      3.804      1.766
      3.805      1.770
      3.806      1.773
      3.807      2.743
      3.808     10.966
      3.809      1.298
      3.810      3.236
      3.811      0.820
      3.813      1.308
      3.814      0.347
      3.817      0.354
      3.818      0.841
      3.819      0.362
      3.820      7.618
      3.822      0.854
      3.824      5.696
      3.825      1.828
      3.826      0.864
      3.829      4.742
      3.831      0.397
      3.834      0.891
      3.839      2.837
      3.840      2.841
      3.841     11.551
      3.842      6.232
      3.844      0.919
      3.845      4.307
      3.846      3.827
      3.847      1.412
      3.850      0.455
      3.852      1.912
      3.853      4.333
      3.854     10.621
      3.855      1.437
      3.856      7.727
      3.857      2.410
      3.858      0.960
ENDDATA            114
ENDSUBENT          125
SUBENT        C2049008   20130916   20140228   20140223       C136
BIB                  2          2
REACTION   (26-FE-56(P,INL)26-FE-56,PAR,DA)
STATUS     (CURVE) Fig.2 page 1994.
ENDBIB               2
COMMON               2          3
ANG        E-LVL
ADEG       MEV
107.0      0.85
ENDCOMMON            3
DATA                 2        121
EN         DATA
MEV        MB/SR
      3.701      1.453
      3.702      8.216
      3.703     18.840
      3.704      4.356
      3.705      0.498
      3.707      0.504
      3.709      0.510
      3.711      0.999
      3.712      4.383
      3.713     12.110
      3.714      2.456
      3.715      1.976
      3.716      5.841
      3.717      0.535
      3.718      7.781
      3.719      3.920
      3.720      3.442
      3.721      7.305
      3.722      0.548
      3.723      8.762
      3.724      4.900
      3.726      0.562
      3.727     15.534
      3.728     25.192
      3.729      5.398
      3.730      0.091
      3.731      1.543
      3.732      0.097
      3.733     11.689
      3.734      6.380
      3.737      0.594
      3.738      3.494
      3.739      0.599
      3.741      5.920
      3.742     26.202
      3.743     18.961
      3.744      1.099
      3.746      1.587
      3.748      1.111
      3.749      6.909
      3.750      2.566
      3.755      5.477
      3.756      2.102
      3.757      7.415
      3.758     25.284
      3.759      1.627
      3.760      4.527
      3.764      0.195
      3.765      5.992
      3.766     19.515
      3.767     12.757
      3.768      2.620
      3.769      6.003
      3.770      3.592
      3.772      0.218
      3.774      4.569
      3.776      0.230
      3.777      5.061
      3.778      1.200
      3.782      1.212
      3.783      1.218
      3.784      7.979
      3.785      3.153
      3.786      7.501
      3.787      1.711
      3.788      1.230
      3.790      4.136
      3.791      0.275
      3.792      0.279
      3.793      1.245
      3.794     12.838
      3.795      1.252
      3.796      8.015
      3.797      0.294
      3.798      1.263
      3.799     13.820
      3.800      6.095
      3.801      0.305
      3.802      2.723
      3.803      2.243
      3.805      1.765
      3.806      3.216
      3.807      2.738
      3.808     12.880
      3.809      1.296
      3.810      6.127
      3.811      1.301
      3.812      1.305
      3.814      1.309
      3.815      0.348
      3.816      0.351
      3.818      0.839
      3.820      0.844
      3.820      7.123
      3.823      1.819
      3.824      5.686
      3.825      0.860
      3.826      1.346
      3.827      0.867
      3.828      6.182
      3.829      1.356
      3.831      0.394
      3.833      0.400
      3.834      0.887
      3.836      0.894
      3.839      0.902
      3.840      2.353
      3.841     10.566
      3.842      4.290
      3.844      1.883
      3.845      4.300
      3.846      2.856
      3.848      1.413
      3.851      0.455
      3.852      0.942
      3.853      4.808
      3.854     13.501
      3.855      1.917
      3.856     10.130
      3.857      3.370
      3.858      0.476
ENDDATA            123
ENDSUBENT          134
SUBENT        C2049009   20130916   20140228   20140223       C136
BIB                  2          2
REACTION   (26-FE-56(P,INL)26-FE-56,PAR,DA)
STATUS     (CURVE) Fig.2 page 1994.
ENDBIB               2
COMMON               2          3
ANG        E-LVL
ADEG       MEV
150.0      0.85
ENDCOMMON            3
DATA                 2        118
EN         DATA
MEV        MB/SR
      3.701      0.487
      3.702     24.200
      3.703     18.880
      3.704      4.366
      3.705      0.498
      3.707      2.439
      3.708      1.959
      3.709      0.028
      3.711      1.000
      3.712     18.424
      3.713     24.715
      3.714      7.784
      3.715      5.851
      3.716      7.789
      3.717      0.052
      3.718     19.894
      3.719      4.897
      3.721      8.288
      3.722      0.551
      3.723     12.651
      3.724      3.459
      3.725      1.043
      3.726      0.563
      3.727     11.212
      3.728     20.406
      3.729      0.571
      3.730      2.510
      3.731      5.901
      3.732      3.966
      3.733      5.907
      3.734      3.006
      3.735      1.075
      3.737      0.111
      3.738      5.437
      3.739      1.568
      3.741      3.510
      3.742     33.031
      3.743     18.516
      3.744      4.972
      3.745      2.557
      3.746      0.624
      3.748      4.017
      3.749      9.343
      3.750      2.087
      3.755      5.971
      3.756      1.620
      3.757     16.625
      3.758     34.530
      3.759      7.920
      3.760      6.955
      3.761      0.183
      3.764      2.613
      3.766     28.265
      3.767     20.525
      3.768      4.561
      3.769      7.467
      3.770      2.631
      3.772      0.218
      3.773      2.641
      3.775      1.678
      3.776      1.683
      3.777      5.555
      3.778      0.237
      3.782      0.249
      3.784      6.061
      3.785      3.161
      3.786      8.970
      3.787      4.134
      3.788      1.235
      3.790      6.563
      3.791      2.210
      3.793      2.216
      3.793      7.540
      3.794     17.703
      3.795      0.772
      3.796      8.516
      3.797      3.680
      3.798      5.619
      3.799     19.172
      3.800      9.012
      3.801      3.691
      3.802      4.180
      3.803      7.084
      3.804      5.154
      3.806      7.095
      3.807      8.066
      3.808     17.261
      3.808      8.068
      3.810      7.107
      3.811      3.723
      3.812      2.758
      3.813      4.697
      3.814      4.217
      3.815      3.735
      3.816      1.319
      3.818      2.776
      3.820      8.589
      3.821      1.818
      3.822      1.822
      3.823      3.277
      3.824      8.600
      3.825      2.315
      3.826      3.768
      3.827      1.835
      3.828      5.226
      3.829     10.066
      3.830      3.298
      3.831      2.332
      3.833      0.885
      3.834      3.308
      3.835      1.861
      3.837      2.832
      3.838      2.836
      3.839      3.808
      3.840      4.294
      3.841     14.943
      3.842      6.719
      3.843      1.402
ENDDATA            120
ENDSUBENT          131
SUBENT        C2049010   20130916   20140228   20140223       C136
BIB                  2          2
REACTION   (26-FE-56(P,EL)26-FE-56,,DA)
STATUS     (CURVE) Fig.3 page 1995.
ENDBIB               2
COMMON               1          3
ANG
ADEG
160.0
ENDCOMMON            3
DATA                 2        141
EN         DATA
MEV        MB/SR
      3.852     62.182
      3.853     96.170
      3.854     84.435
      3.855     72.684
      3.856     74.412
      3.857     82.021
      3.858     76.143
      3.859     70.836
      3.860     64.948
      3.861     59.060
      3.863     54.931
      3.864     67.797
      3.865     83.030
      3.866     92.983
      3.867     66.567
      3.868     67.719
      3.869     65.944
      3.870     60.653
      3.871     68.827
      3.873     72.907
      3.874     74.645
      3.875     63.481
      3.876     63.455
      3.877     59.334
      3.878     59.316
      3.879     45.806
      3.880     68.655
      3.881     62.767
      3.882     54.535
      3.883     42.203
      3.884     89.683
      3.885     57.413
      3.886     59.741
      3.887     57.963
      3.888     52.067
      3.889     42.670
      3.890     66.691
      3.891     67.251
      3.892     63.130
      3.893     57.242
      3.894     59.580
      3.895     47.832
      3.896     61.876
      3.897     75.939
      3.898     63.008
      3.899     66.516
      3.900     62.977
      3.901     55.918
      3.902     47.100
      3.903     89.885
      3.904     82.837
      3.905     71.675
      3.906     65.792
      3.907     65.761
      3.908     60.469
      3.909     66.319
      3.910     63.365
      3.911     62.761
      3.912     55.694
      3.913     50.981
      3.914     46.277
      3.915     80.259
      3.916     63.832
      3.918     56.755
      3.919     49.092
      3.920     87.782
      3.922     88.343
      3.923     99.466
      3.924     60.139
      3.925     71.262
      3.926    119.917
      3.927    107.009
      3.928     51.842
      3.930     57.092
      3.931     54.725
      3.932     61.161
      3.932     67.018
      3.933     81.673
      3.935     47.607
      3.937     44.641
      3.938     53.404
      3.939     49.286
      3.940     51.614
      3.941     49.247
      3.942     35.739
      3.943     30.427
      3.944     46.831
      3.945     56.788
      3.946     38.010
      3.948     30.333
      3.950     31.475
      3.951     42.585
      3.952     61.921
      3.953     54.873
      3.954     57.787
      3.955     58.934
      3.956     41.907
      3.957     56.554
      3.958     45.979
      3.959     81.719
      3.960    129.214
      3.961    120.404
      3.962     91.051
      3.963     90.443
      3.964     79.271
      3.966     83.351
      3.967     80.981
      3.968     75.677
      3.969     76.827
      3.970     89.724
      3.971     83.833
      3.972     80.883
      3.973     81.440
      3.974     76.146
      3.975     77.877
      3.976     74.929
      3.977     77.249
      3.978     74.301
      3.979     71.940
      3.979     80.140
      3.980     68.991
      3.981     71.901
      3.982     73.045
      3.984     73.016
      3.985     71.820
      3.986     71.207
      3.987     68.843
      3.988     70.579
      3.989     69.393
      3.990     75.243
      3.991     72.289
      3.993     71.077
      3.994     73.981
      3.995     70.442
      3.996     68.080
      3.998     69.806
      3.999     63.909
      4.000     77.375
      4.001     82.646
      4.002     57.401
      4.003     63.831
ENDDATA            143
ENDSUBENT          154
SUBENT        C2049011   20130916   20140228   20140223       C136
BIB                  3          9
REACTION  1(26-FE-56(P,0),,EN)
          2(26-FE-56(P,0),,J)
          3(26-FE-56(P,0),,L)
          4(26-FE-56(P,0),,PTY)
          5(26-FE-56(P,TOT),,WID)
ERR-ANALYS5(DATA-ERR) Systematic errors in the background,
           resulting in positive or  negative average yields off
           resonance, were removed.
STATUS     (TABLE) Table I, page 1996.
ENDBIB               9
NOCOMMON             0          0
DATA                 6          8
DATA      1DATA      2DATA      3DATA      4DATA      5DATA-ERR  5
MEV        NO-DIM     NO-DIM     NO-DIM     KEV        KEV
      3.423        2.5         3.        -1.      0.021      0.003
      3.423        2.5         1.        -1.      0.016      0.004
      3.713        4.5         4.         1.      0.060      0.006
      3.764        2.5         2.         1.        3.6        0.6
      3.890        1.5         1.        -1.        1.0        0.1
      3.890        1.5         1.        -1.        0.9        0.2
      3.955        0.5         1.        -1.       19.0        3.0
      3.955        0.5         1.        -1.        0.4        0.1
ENDDATA             10
ENDSUBENT           24
SUBENT        C2049012   20130916   20140228   20140223       C136
BIB                  5          7
REACTION   (26-FE-56(P,0),,STF)
ANALYSIS   The strength functions and level densities were
           extracted by the comparing the width distributions
           with a Porter-Thomas distribution.
ERR-ANALYS (DATA-ERR) No details are given.
REL-REF    (E,,A.Gilbert+,J,CJP,43,1446,1965)
STATUS     (TABLE) Table III, page 1999.
ENDBIB               7
NOCOMMON             0          0
DATA                 8          7
EN-RES-MIN EN-RES-MAX SPIN J     PARITY     DATA       +DATA-ERR
-DATA-ERR  DATA-MAX
MEV        MEV        NO-DIM     NO-DIM     NO-DIM     NO-DIM
NO-DIM     NO-DIM
      3.418      3.428        2.5       -1.0
                 0.001
        3.5        3.7        0.5       -1.0      0.015       0.01
      0.005
        3.7        4.0        0.5        1.0      0.075       0.01
       0.02
        3.7        3.9        1.5        1.0       0.04       0.01
       0.01
      3.711      3.715        4.5        1.0
                 0.001
      3.760      3.788        2.5        1.0      0.055      0.015
      0.015
      3.888      3.902        1.5       -1.0      0.009      0.003
      0.003
ENDDATA             18
ENDSUBENT           30
SUBENT        C2049013   20131120   20140228   20140223       C136
BIB                  3         11
REACTION   (26-FE-56(0,0),,LD)
ANALYSIS   (PES) In determining the level densities, a correction
           was made for weak levels missed experimentally. This
           was done by comparing the width distributions with a
           Porter-Thomas distribution. The level densities are
           expected to have an exponential energy dependence of
           the form rho(E,J)~(2J+1)exp[-J(J+1)/2sigma2]exp[E/T],
           where T is the nuclear temperature and sigma is the
           spin cutoff parameter. Of particular interest here is
           the J dependence on level density.
STATUS     (TABLE) Table III, page 1999.
ENDBIB              11
NOCOMMON             0          0
DATA                 4          6
SPIN J     PARITY     DATA       DATA-ERR
NO-DIM     NO-DIM     1/MEV      1/MEV
        0.5        1.0       80.0        8.0
        0.5       -1.0       90.0       10.0
        1.5       -1.0      100.0       25.0
        1.5        1.0       95.0       10.0
        2.5        1.0      140.0       20.0
        4.5        1.0       80.0       40.0
ENDDATA              8
ENDSUBENT           24
ENDENTRY            13
