ENTRY            F0535   20130315   20130812   20130702       F050
SUBENT        F0535001   20130315   20130812   20130702       F050
BIB                  8         25
TITLE      Cross sections and thermonuclear reaction rates for
           41K(a,n)44Sc and 41K(a,p)44Ca.
AUTHOR     (A.F.Scott,A.J.Morton,C.I.W.Tingwell,S.G.Tims,
           V.Y.Hansper,D.G.Sargood)
INSTITUTE  (3AULAML)
REFERENCE  (J,NP/A,523,373,1991)
           #doi:10.1016/0375-9474(91)90009-U
FACILITY   (ACCEL,3AULAML) 5U Pelletron accelerator
METHOD     (ACTIV)
SAMPLE     Three targets of KBr, enriched to 99.35% in 41K, were
           prepared by evaporation of KBr from outgassed tungsten
           boats on to gold foils which had been etched in aqua
           regia, rinsed in distilled water, and outgassed. Two
           of gold foils were of a stopping thickness for 10 MeV
           a-particles and the third readily transmitted 4 MeV.
           The KBr was prepared from KCl, the chemical form in
           which the enriched isotope was supplied, as described
           in A.F.SCOTT+, (J,NP/A,475,548,1987))
           Targets thicknesses (6.66+-0.40)x10**17,
            (9.58+-0.57)x10**17,
            (5.72+-0.17)x10**17 K-41 atoms*cm**(-2)
HISTORY    (20030710C)
           (20130315A)Opening paren. in SAMPLE in sub 001 was
           corrected. Data presentation in sub 002, 003, 004, 005
           was changed.
ENDBIB              25
NOCOMMON             0          0
ENDSUBENT           28
SUBENT        F0535002   20130315   20130812   20130702       F050
BIB                  5         15
REACTION   (19-K-41(A,N)21-SC-44,,SIG)
DETECTOR   (D4PI) The chamber consisted of stainless steel
           tubular cross mounted at the center of neutron
           detector. This was a 32x32x44 cm**3 paraffin block in
           which were embedded six 3He-filled proportional
           counters, the outputs of which were summed
           (GELI) 125 cm**3 Ge(Li) detector 2.3 cm from the
           target in the 0 degr direction
ERR-ANALYS (ERR-S) Statistical errors from graphic bars
           (DATA-ERR)  Error in the cross section scale
           (EN-ERR-DIG)Energy digitizing error
           (ERR-DIG) Data digitizing error
FLAG       (1.) neutron counting measurements
           (2.) activation measurements
STATUS     (CURVE) Fig.2
ENDBIB              15
COMMON               2          3
EN-ERR-DIG ERR-DIG
MEV        PER-CENT
      0.003        0.2
ENDCOMMON            3
DATA                 5        128
EN         DATA       ERR-S      DATA-ERR   FLAG
MEV        MB         MB         PER-CENT   NO-DIM
     4.1236    0.12073                   13.         1.
     4.1819    0.15727                   13.         1.
     4.2443    0.19986                   13.         1.
     4.3025    0.30208                   13.         1.
     4.3608    0.26034                   13.         1.
     4.4065    0.427400.98058E-01        10.         2.
     4.4190    0.47981                   13.         1.
     4.4814    0.64603                   13.         1.
     4.4980    0.86981    0.17338        10.         2.
     4.5438    0.70168                   13.         1.
     4.5896    0.85558    0.13718        10.         2.
     4.6021    0.96846                   13.         1.
     4.6645     1.1238                   13.         1.
     4.6728     1.2932    0.13478        10.         2.
     4.7227     1.3816                   13.         1.
     4.7601     2.2310    0.29434        10.         2.
     4.7810     1.6434                   13.         1.
     4.8392     1.8757                   13.         1.
     4.8434     1.8449    0.22622        10.         2.
     4.9058     2.1057                   13.         1.
     4.9307     2.8823    0.27422        10.         2.
     4.9640     2.8586                   13.         1.
     5.0140     3.0793                   13.         1.
     5.0140     3.5145    0.27129        10.         2.
     5.0639     3.6327                   13.         1.
     5.0972     4.8508                   10.         2.
     5.0972     5.1396                   10.         2.
     5.1138     4.3210                   13.         1.
     5.1637     4.9726                   13.         1.
     5.1762     5.8178    0.39752        10.         2.
     5.2137     5.9639                   13.         1.
     5.2594     7.0939                   10.         2.
     5.2636     6.1136                   13.         1.
     5.3094     6.3715                   13.         1.
     5.3385     8.1637    0.48605        10.         2.
     5.3635     6.8070                   13.         1.
     5.4092     9.1649                   13.         1.
     5.4134     9.3176                   10.         2.
     5.4633     9.9544                   13.         1.
     5.4966     12.340                   10.         2.
     5.5133     10.547                   13.         1.
     5.5673     12.650                   13.         1.
     5.5798     15.046                   10.         2.
     5.6173     14.319                   13.         1.
     5.6506     15.047                   10.         2.
     5.6672     14.800                   13.         1.
     5.7130     16.075                   13.         1.
     5.7379     19.927                   10.         2.
     5.7671     18.964                   13.         1.
     5.8128     21.466                   13.         1.
     5.8128     23.123                   10.         2.
     5.8669     20.941                   13.         1.
     5.8877     25.115                   10.         2.
     5.9169     23.900                   13.         1.
     5.9626     29.874                   10.         2.
     5.9668     26.611                   13.         1.
     6.0167     30.878                   13.         1.
     6.0375     35.829                   10.         2.
     6.0667     34.096                   13.         1.
     6.1124     39.892                   10.         2.
     6.1166     36.729                   13.         1.
     6.1707     38.916                   13.         1.
     6.1873     42.268                   10.         2.
     6.2165     45.909                   13.         1.
     6.2622     52.397                   10.         2.
     6.2664     49.046                   13.         1.
     6.3163     49.047                   13.         1.
     6.3371     56.443                   10.         2.
     6.3663     54.159                   13.         1.
     6.4120     59.805                   10.         2.
     6.4162     61.306                   13.         1.
     6.4620     64.956                   13.         1.
     6.4911     66.039                   10.         2.
     6.5160     68.259                   13.         1.
     6.5493     77.265                   10.         2.
     6.5618     72.323                   13.         1.
     6.6159     77.907                   13.         1.
     6.6201     80.525                   10.         2.
     6.6617     82.547                   13.         1.
     6.7158     84.619                   13.         1.
     6.7615     99.824                   10.         2.
     6.7616     94.215                   13.         1.
     6.8115     103.18                   13.         1.
     6.8323     109.32                   10.         2.
     6.8614     105.77                   13.         1.
     6.9197     108.43                   13.         1.
     6.9655     113.94                   13.         1.
     6.9738     124.78                   10.         2.
     7.0029     116.80                   13.         1.
     7.0403     128.97                   10.         2.
     7.0404     124.78                   13.         1.
     7.0820     125.82                   13.         1.
     7.1069     137.79                   10.         2.
     7.1194     135.53                   13.         1.
     7.1610     135.53                   13.         1.
     7.1735     142.42                   10.         2.
     7.2026     138.93                   13.         1.
     7.2401     141.25                   13.         1.
     7.2484     143.60                   10.         2.
     7.2817     146.00                   13.         1.
     7.3108     158.57                   10.         2.
     7.3192     152.16                   13.         1.
     7.3608     157.27                   13.         1.
     7.3732     170.82                   10.         2.
     7.4024     163.90                   13.         1.
     7.4315     166.64                   10.         2.
     7.4440     166.64                   13.         1.
     7.4773     175.11                   13.         1.
     7.5022     182.49                   10.         2.
     7.5231     172.24                   13.         1.
     7.5647     176.56                   13.         1.
     7.5730     184.01                   10.         2.
     7.6063     179.51                   13.         1.
     7.6354     220.69                   10.         2.
     7.6437     185.54                   13.         1.
     7.6812     191.78                   13.         1.
     7.7020     196.59                   10.         2.
     7.7228     194.97                   13.         1.
     7.7644     193.37                   13.         1.
     7.7686     204.89                   10.         2.
     7.8019     199.87                   13.         1.
     7.8310     201.53                   10.         2.
     7.8435     213.53                   13.         1.
     7.8851     201.53                   13.         1.
     7.8976     215.30                   10.         2.
     7.9267     218.89                   13.         1.
     7.9642     220.71                   10.         2.
     7.9683     213.54                   13.         1.
ENDDATA            130
ENDSUBENT          154
SUBENT        F0535003   20130315   20130812   20130702       F050
BIB                  4         12
REACTION   (19-K-41(A,P)20-CA-44,PAR,SIG)
DETECTOR   (SIBAR) surface barrier detector located 5.28 cm from
           the target in the 125 degr direction
           (GELI)an additional aid to identification of
           contaminants, 60 cm**3 detector was mounted 2.4 cm from
           the target in the 55 degr. direction, and  gamma-ray
           spectra were collected at each point
ERR-ANALYS (ERR-S) Error bars reflect statistical uncertainties
           (ERR-1) The uncertainties in the cross-section scale
           (EN-ERR-DIG)Energy digitizing error
           (ERR-DIG)  Data digitizing error
STATUS     (CURVE) Fig.4
ENDBIB              12
COMMON               3          3
ERR-1      EN-ERR-DIG ERR-DIG
PER-CENT   MEV        PER-CENT
         7.      0.006        0.2
ENDCOMMON            3
DATA                 4        282
E-LVL      EN         DATA       ERR-S
KEV        MEV        MB         MB
         0.     4.65720.63972E-010.22496E-01
         0.     4.75480.57630E-010.21618E-01
         0.     4.85170.90063E-010.23557E-01
         0.     4.9469    0.128040.21471E-01
         0.     5.0481    0.250270.22526E-01
         0.     5.1376    0.263270.26139E-01
         0.     5.2308    0.337550.27182E-01
         0.     5.3168    0.296370.26634E-01
         0.     5.4169    0.303770.30203E-01
         0.     5.5913    0.474310.33804E-01
         0.     5.6753    0.375590.30246E-01
         0.     5.7669    0.441860.39709E-01
         0.     5.8728    0.617360.49801E-01
         0.     5.9499    0.606290.48824E-01
         0.     6.0400    0.660100.47046E-01
         0.     6.1369     1.02280.54334E-01
         0.     6.2234    0.921480.65674E-01
         0.     6.3105    0.859300.77223E-01
         0.     6.3878    0.851180.76494E-01
         0.     6.4690     1.03660.83473E-01
         0.     6.5484     1.14830.81840E-01
         0.     6.6293    0.772140.69390E-01
         0.     6.7138     1.11690.90097E-01
         0.     6.7902     1.05980.65801E-01
         0.     6.8701     1.20470.85859E-01
         0.     6.9495     1.33460.95115E-01
         0.     7.0353     1.16170.93552E-01
         0.     7.1118     1.10230.78559E-01
         0.     7.2004     1.11070.89441E-01
         0.     7.2785     1.14850.81857E-01
         0.     7.3616    0.863720.77740E-01
         0.     7.4328     1.11730.79629E-01
         0.     7.5192    0.998010.80369E-01
         0.     7.5950    0.914900.73676E-01
         0.     7.6811    0.810230.57745E-01
         0.     7.7582    0.795690.56709E-01
         0.     7.8383    0.912340.56648E-01
         0.     7.9196    0.624120.44481E-01
         0.     8.0024    0.828360.51546E-01
         0.     8.0746     1.12830.70058E-01
         0.     8.1563    0.441120.35523E-01
         0.     8.2312    0.689560.49145E-01
         0.     8.3140    0.509710.41046E-01
         0.     8.3958    0.642460.51736E-01
         0.     8.4745    0.687630.49008E-01
         0.     8.5580    0.944610.58652E-01
         0.     8.6380    0.603210.43073E-01
         0.     8.7073    0.703730.50156E-01
         0.     8.7948    0.667640.47583E-01
         0.     8.8712    0.633480.45148E-01
         0.     8.9571    0.551430.44406E-01
      1157.     4.6507    0.184680.36685E-01
      1157.     4.7488    0.320360.31870E-01
      1157.     4.8524    0.410890.40876E-01
      1157.     4.9469    0.325190.32350E-01
      1157.     5.0440    0.531040.33036E-01
      1157.     5.1440    0.563440.40234E-01
      1157.     5.2362    0.710400.37717E-01
      1157.     5.3348    0.697460.43390E-01
      1157.     5.4134    0.766170.47664E-01
      1157.     5.5406     1.0709
      1157.     5.5958     1.08890.57809E-01
      1157.     5.6858     1.2168
      1157.     5.7844     1.1946
      1157.     5.8632     1.3237
      1157.     5.9556     1.6834
      1157.     6.0464     1.9640
      1157.     6.1414     1.5951
      1157.     6.2230     2.0464
      1157.     6.3015     2.2287    0.11832
      1157.     6.3892     2.2073    0.11719
      1157.     6.4695     2.6431
      1157.     6.5445     2.3812    0.12611
      1157.     6.6243     2.7785    0.14752
      1157.     6.7028     3.0260
      1157.     6.7810     3.2393
      1157.     6.8677     3.0465
      1157.     6.9466     3.3756
      1157.     7.0292     2.5371    0.20506
      1157.     7.1093     3.0119    0.13268
      1157.     7.1860     2.9834
      1157.     7.2658     3.4812
      1157.     7.3505     2.9269
      1157.     7.4289     3.1603
      1157.     7.5143     2.7741    0.14765
      1157.     7.5922     2.9188    0.15496
      1157.     7.6675     2.6753
      1157.     7.7446     2.6961
      1157.     7.8318     2.6021
      1157.     7.9105     2.8584
      1157.     7.9893     3.1672
      1157.     8.0719     2.3805
      1157.     8.1364     2.2011
      1157.     8.2230     2.0523
      1157.     8.3030     2.4155
      1157.     8.3899     2.2914
      1157.     8.4670     2.3092
      1157.     8.5445     2.3881
      1157.     8.6197     2.1702
      1157.     8.7066     2.0587
      1157.     8.7803     1.7311
      1157.     8.8703     1.9344
      1157.     8.9433     1.5715
      1884.     5.31020.60903E-010.32030E-01
      1884.     5.3983    0.118190.36232E-01
      1884.     5.5123    0.159610.54397E-01
      1884.     5.5841    0.231070.53120E-01
      1884.     5.6802    0.213570.56015E-01
      1884.     5.7625    0.169050.51796E-01
      1884.     5.8545    0.224460.58869E-01
      1884.     5.9453    0.280570.64499E-01
      1884.     6.0379    0.385600.80538E-01
      1884.     6.1321    0.324160.71097E-01
      1884.     6.2156    0.489890.97235E-01
      1884.     6.3031    0.51095    0.10149
      1884.     6.3877    0.45631    0.11473
      1884.     6.4689    0.340020.96588E-01
      1884.     6.5476    0.39675    0.10833
      1884.     6.6241    0.41030    0.10755
      1884.     6.7010    0.43544    0.10474
      1884.     6.7907    0.51242    0.12334
      1884.     6.8720    0.68636    0.13634
      1884.     6.9447    0.58213    0.12768
      1884.     7.0333    0.64493    0.13470
      1884.     7.1091    0.64435    0.13458
      1884.     7.1879    0.75186    0.13394
      1884.     7.2731    0.69501    0.11668
      1884.     7.3635    0.47505    0.11434
      1884.     7.4374    0.42798    0.10754
      1884.     7.5142    0.45030    0.10831
      1884.     7.5948    0.58270    0.10975
      1884.     7.6738    0.69174    0.11613
      1884.     7.7495    0.685190.94599E-01
      1884.     7.8250    0.672880.99529E-01
      1884.     7.9081    0.556050.87776E-01
      1884.     7.9861    0.621450.91922E-01
      1884.     8.0660    0.77691    0.10726
      1884.     8.1465    0.554500.87531E-01
      1884.     8.2256    0.663960.98211E-01
      1884.     8.3141    0.729270.93664E-01
      1884.     8.3954    0.548130.92102E-01
      1884.     8.4685    0.263130.63292E-01
      1884.     8.5496    0.349420.72980E-01
      1884.     8.6305    0.460020.81881E-01
      1884.     8.7004    0.334080.69776E-01
      1884.     8.7790    0.386470.72731E-01
      1884.     8.8559    0.410140.77187E-01
      1884.     8.9354    0.499660.94033E-01
      2283.     4.9428    0.109590.33117E-01
      2283.     5.0372    0.173820.45180E-01
      2283.     5.1373    0.198190.49483E-01
      2283.     5.2404    0.273190.57125E-01
      2283.     5.3331    0.191420.47794E-01
      2283.     5.4125    0.233190.53425E-01
      2283.     5.5277    0.349040.69479E-01
      2283.     5.5949    0.391560.70258E-01
      2283.     5.6823    0.394500.82448E-01
      2283.     5.7761    0.605430.85449E-01
      2283.     5.8722    0.530090.79886E-01
      2283.     5.9522    0.672950.88668E-01
      2283.     6.0415    0.767340.93968E-01
      2283.     6.1415    0.867690.98253E-01
      2283.     6.2305    0.97320    0.11020
      2283.     6.3074     1.0052    0.12298
      2283.     6.3974     1.2043    0.13637
      2283.     6.4730     1.1454    0.12970
      2283.     6.5534     1.4905    0.14162
      2283.     6.6382     1.2733    0.12098
      2283.     6.7175     1.5511    0.13342
      2283.     6.7932     1.4874    0.14132
      2283.     6.8828     1.7242    0.14849
      2283.     6.9586     1.6671    0.14340
      2283.     7.0357     1.7505    0.13495
      2283.     7.1211     1.5584    0.13421
      2283.     7.1992     1.7480    0.15054
      2283.     7.2759     1.7906    0.15402
      2283.     7.3540     2.0085    0.15484
      2283.     7.4298     1.9420    0.14971
      2283.     7.5065     1.9894    0.15336
      2283.     7.5864     2.5047
      2283.     7.6721     2.2669    0.17499
      2283.     7.7469     2.0518    0.17648
      2283.     7.8352     2.1901    0.18838
      2283.     7.9114     2.1706    0.14812
      2283.     7.9793     2.5586    0.17434
      2283.     8.0642     2.1857    0.14893
      2283.     8.1504     2.0445    0.13952
      2283.     8.2295     2.4498    0.16717
      2283.     8.3147     2.1452    0.14661
      2283.     8.3905     2.0741    0.15990
      2283.     8.4670     2.0899    0.17976
      2283.     8.5439     2.1764    0.16779
      2283.     8.6211     2.3043    0.17764
      2283.     8.6972     2.2651    0.17462
      2283.     8.7829     2.0500    0.15803
      2283.     8.8696     1.9819    0.15299
      2283.     8.9461     1.9969    0.15395
      2657.     5.2498    0.330230.62480E-01
      2657.     5.3401    0.376520.67557E-01
      2657.     5.4241    0.559070.84191E-01
      2657.     5.6021    0.621320.87690E-01
      2657.     5.7003    0.590740.83374E-01
      2657.     5.7866    0.530200.79842E-01
      2657.     5.8801    0.724840.95503E-01
      2657.     5.9669    0.67238    0.10125
      2657.     6.0507    0.99019    0.12126
      2657.     6.1502     1.0140    0.12418
      2657.     6.2379    0.98840    0.12104
      2657.     6.3258    0.97944    0.12006
      2657.     6.3945     1.1355    0.11819
      2657.     6.4711     1.1069    0.10517
      2657.     6.5632     1.3935    0.13240
      2657.     6.6384     1.2508    0.11884
      2657.     6.7194     1.5618    0.13433
      2657.     6.8001     1.9340    0.14909
      2657.     6.8761     1.8091    0.15561
      2657.     6.9633     1.7203
      2657.     6.9646     1.8529
      2657.     7.0304     1.8214    0.17306
      2657.     7.1185     1.8198    0.15653
      2657.     7.1967     1.9426    0.14975
      2657.     7.2822     1.6730    0.15915
      2657.     7.3609     1.8306    0.14112
      2657.     7.4402     2.0874    0.17955
      2657.     7.5172     2.0687    0.14140
      2657.     7.6044     1.9671    0.15164
      2657.     7.6806     1.8707    0.14421
      2657.     7.7610     2.2599    0.15422
      2657.     7.8441     1.6916    0.13041
      2657.     7.9219     1.7615    0.15152
      2657.     7.9882     1.7897    0.15373
      2657.     8.0648     1.7303    0.14883
      2657.     8.1531     1.7576    0.15138
      2657.     8.2296     1.6993    0.14616
      2657.     8.3145     1.4043    0.13343
      2657.     8.3965     1.8731    0.14440
      2657.     8.4735     1.8563    0.15967
      2657.     8.5593     1.6254    0.15462
      2657.     8.6369     1.6786    0.14439
      2657.     8.7131     1.5964    0.13731
      2657.     8.7922     1.7905    0.15380
      2657.     8.8776     1.5294    0.13155
      2657.     8.9623     1.2536    0.13048
      3044.     5.8151    0.318880.60213E-01
      3044.     5.9125    0.351690.69867E-01
      3044.     6.0108    0.407530.72980E-01
      3044.     6.1316    0.438400.91439E-01
      3044.     6.2288    0.479550.76700E-01
      3044.     6.3143    0.528950.84534E-01
      3044.     6.3875    0.573980.91730E-01
      3044.     6.4757    0.728270.95772E-01
      3044.     6.5571    0.653810.79994E-01
      3044.     6.6338    0.85041    0.10394
      3044.     6.7238    0.642130.84524E-01
      3044.     6.8021    0.90692    0.11096
      3044.     6.8720    0.82781    0.10886
      3044.     6.9590    0.99149    0.11206
      3044.     7.0342     1.1877
      3044.     7.1170     1.1483    0.11929
      3044.     7.2012     1.1858    0.13402
      3044.     7.2873     1.3518    0.12836
      3044.     7.3558     1.1552    0.12001
      3044.     7.4424     1.3498    0.12801
      3044.     7.5265     1.3940    0.14482
      3044.     7.6019     1.6836    0.14454
      3044.     7.6860     1.7386    0.14927
      3044.     7.7669     1.5227    0.14441
      3044.     7.8506     1.5341    0.13190
      3044.     7.9370     1.7779    0.15264
      3044.     8.0080     1.7192    0.13228
      3044.     8.0920     1.7608    0.15117
      3044.     8.1766     1.8638    0.16002
      3044.     8.2579     1.6595    0.14248
      3044.     8.3296     1.6721    0.12867
      3044.     8.4015     1.6988    0.16110
      3044.     8.4850     1.6975    0.14573
      3044.     8.5694     1.7674    0.15174
      3044.     8.6421     1.8711    0.16064
      3044.     8.7232     1.6523    0.12714
      3044.     8.8067     1.6510    0.14175
      3044.     8.8773     1.5704    0.14893
      3044.     8.9644     1.8809    0.14473
ENDDATA            284
ENDSUBENT          305
SUBENT        F0535004   20130315   20130812   20130702       F050
BIB                  3          6
REACTION   (19-K-41(A,N)21-SC-44,,SGV,,MXW)
ANALYSIS   Calculated by means of the equation of Fowler. When
           cross sections for energies outside the experimental
           range were required, these were calculated by means
           of HAUSER*4.
STATUS     (TABLE) Tbl.2
ENDBIB               6
NOCOMMON             0          0
DATA                 2         21
KT         DATA
K9         CM3/S/MOL
        0.50.49900E-31
        0.60.26500E-25
        0.80.40700E-18
        1.00.90800E-14
        1.20.77200E-11
        1.40.10500E-08
        1.50.73800E-08
        1.60.42100E-07
        1.80.80400E-06
        2.00.88900E-05
        2.50.78500E-03
        3.0     1.8300
        3.5     19.500
        4.0     121.00
        4.5     557.00
        5.0     1910.0
        6.0     12800.
        7.0     51000.
        8.00.14300E+06
        9.00.31000E+06
       10.00.55400E+06
ENDDATA             23
ENDSUBENT           34
SUBENT        F0535005   20130315   20130812   20130702       F050
BIB                  3          6
REACTION   (19-K-41(A,P)20-CA-44,,SGV,,MXW)
ANALYSIS   Calculated by means of the equation of Fowler. When
           cross sections for energies outside the experimental
           range were required, these were calculated by means
           of HAUSER*4.
STATUS     (TABLE) Tbl.2
ENDBIB               6
NOCOMMON             0          0
DATA                 2         21
KT         DATA
K9         CM3/S/MOL
        0.50.56400E-18
        0.60.11000E-15
        0.80.24200E-12
        1.00.55300E-10
        1.20.33600E-08
        1.40.85700E-07
        1.50.33900E-06
        1.60.11800E-05
        1.80.10200E-04
        2.00.62400E-04
        2.50.20000E-02
        3.0     2.4600
        3.5     16.900
        4.0     79.700
        4.5     290.00
        5.0     860.00
        6.0     4800.0
        7.0     16900.
        8.0     43500.
        9.0     87800.
       10.00.14900E+06
ENDDATA             23
ENDSUBENT           34
ENDENTRY             5
