ENTRY            F0545   20030807   20050616                  Y000
SUBENT        F0545001   20030807   20050616                  Y000
BIB                  8         17
TITLE      The 25Mg(p,g)26Al and 25Mg(p,p') resonances for
           Ep=0.31-1.84 MeV
AUTHOR     (P.M.ENDT,P.DE WIT,C.ALDERLIESTEN)
INSTITUTE  (2NEDUTR)
REFERENCE  (J,NP/A,459,61,1986)
FACILITY   (VDG)
DETECTOR   (GE-IN) The 90 cm**2 n-type Ge detector at an angle
           of 55 degree to the beam and a front-face-to-target
           distance of 3 cm
SAMPLE     Three enriched Mg targets (24Mg 1.36%,25Mg 98.25%,
           26Mg 0.39%) have been used of thicknesses of 5-10 mu-g/
           cm**2 evaporated onto 0.3 mm thick Na-free Ta backings.
           Finally,the three strong resonances were remeasured
           with one and the same,relatively thick,target (14 mu-g/
           cm**2) to interconnect the yields measured with
           different targets
HISTORY    (20030424C)
ENDBIB              17
NOCOMMON             0          0
ENDSUBENT           20
SUBENT        F0545002   20030807   20050616                  Y000
BIB                  3          4
REACTION  1(12-MG-25(P,0),,EN)
          2(12-MG-25(P,G),,WID/STR)
ERR-ANALYS (DATA-ERR) Error in the data definition
STATUS     (TABLE) tbl.1
ENDBIB               4
NOCOMMON             0          0
DATA                 4         76
DATA      1DATA-ERR  1DATA      2DATA-ERR  2
KEV        KEV        EV         EV
 316.70    0.50000    0.43000    0.50000E-01
 389.60    0.50000    0.88000    0.80000E-01
 435.10    0.50000     1.5700    0.19000
 497.00    0.50000     1.0400    0.15000
 502.80    0.50000    0.86000    0.11000
 515.10    0.50000    0.58000    0.90000E-01
 515.60    0.50000    0.23000    0.90000E-01
 530.30    0.50000    0.40000E-03
 532.50    0.50000    0.25000    0.20000E-01
 567.40    0.50000     3.8000    0.40000
 591.20    0.50000    0.14000    0.60000E-01
 592.70    0.50000     2.6000    0.20000
 609.30    0.50000    0.17000E-010.70000E-02
 655.60    0.50000    0.39000    0.40000E-01
 685.00    0.50000     5.6000    0.80000E-01
 722.90    0.50000     2.2000    0.20000
 737.60    0.50000    0.37000    0.50000E-01
 775.20    0.50000     1.6000    0.13000
 811.40    0.50000     1.7000    0.30000
 818.50    0.50000    0.19000    0.20000
 835.10    0.50000    0.52000    0.40000E-01
 869.50    0.50000    0.69000    0.70000E-01
 881.00    0.50000     3.9000    0.40000
 889.50    0.50000    0.60000    0.50000E-01
 896.40    0.50000    0.54000    0.50000E-01
 928.40    0.50000     4.0000    0.40000
 953.40    0.50000     7.6000    0.70000
 969.30    0.50000    0.75000    0.11000
 985.80    0.50000     8.7000    0.11000
 1019.1    0.50000    0.41000E-010.15000E-01
 1025.1    0.50000     3.1000    0.30000E-01
 1042.7    0.50000     8.3000    0.70000E-01
 1083.9    0.50000     5.7000    0.60000E-01
 1103.0    0.50000     2.8000    0.30000E-01
 1134.9    0.50000     1.2500    0.12000
 1136.8    0.50000     5.6000    0.60000
 1148.1    0.50000     4.4000    0.70000
 1164.2    0.50000     2.4000    0.30000
 1179.2    0.50000    0.50000E-010.20000E-01
 1184.1    0.50000    0.39000    0.30000E-01
 1195.7    0.50000     4.5000    0.40000
 1205.2    0.50000     5.3000    0.70000
 1237.3    0.50000     8.3000     1.1000
 1239.0    0.20000     1.7000    0.30000
 1272.6    0.50000    0.10000    0.40000E-01
 1283.3    0.50000     3.7000     1.0000
 1292.3    0.50000    0.21000    0.50000E-01
 1302.1    0.60000     4.3000    0.80000
 1305.8    0.50000     13.000     2.0000
 1337.4    0.50000     1.0000    0.30000
 1342.1    0.50000     2.9000    0.30000
 1351.2    0.50000     1.2000    0.20000
 1369.8    0.50000     1.4000    0.30000
 1374.8    0.50000     14.900    0.12000
 1395.9    0.60000    0.12000E-010.30000E-02
 1514.6    0.50000     1.2000    0.40000
 1525.4    0.50000     2.9000    0.40000
 1526.0    0.20000    0.70000E-010.20000E-01
 1568.4    0.50000     1.2000    0.30000
 1579.9    0.50000     1.1000    0.30000
 1587.2    0.50000     8.2000     1.0000
 1621.9    0.60000     3.7000     1.2000
 1631.6    0.50000     7.2000    0.60000
 1637.1    0.60000     1.2000    0.20000
 1649.1    0.50000     35.000     3.0000
 1680.4    0.50000    0.40000    0.20000
 1698.7    0.50000     25.000     3.0000
 1713.8    0.50000     38.000     3.0000
 1744.0    0.20000     14.800     1.5000
 1763.0    0.50000     1.1000    0.20000
 1770.8    0.50000     2.3000    0.40000
 1773.9    0.50000     2.4000    0.80000
 1799.5    0.60000    0.18000    0.30000E-01
 1810.9    0.50000    0.90000    0.20000
 1829.0    0.20000     7.6000     1.5000
 1832.5    0.50000     2.3000    0.70000
ENDDATA             78
ENDSUBENT           87
SUBENT        F0545003   20030807   20050616                  Y000
BIB                  3          4
REACTION  1(12-MG-25(P,0),,EN)
          2(12-MG-25(P,INL),PAR,WID/STR)
ERR-ANALYS (DATA-ERR) Error in the data definition
STATUS     (TABLE) tbl.1
ENDBIB               4
NOCOMMON             0          0
DATA                 5         45
E-LVL      DATA      1DATA-ERR  1DATA      2DATA-ERR  2
KEV        KEV        EV         EV         EV
 585.00     985.80    0.50000    0.90000    0.20000
 585.00     1019.1    0.50000    0.90000E-010.20000E-01
 585.00     1134.9    0.50000    0.18000    0.30000E-01
 585.00     1136.8    0.50000    0.70000E-010.13000E-01
 585.00     1148.1    0.50000    0.50000E-010.20000E-01
 585.00     1164.2    0.50000    0.13000E-010.40000E-02
 585.00     1179.2    0.50000     1.0000    0.20000
 585.00     1184.1    0.50000     30.000     3.0000
 585.00     1195.7    0.50000     4.5000    0.40000
 585.00     1239.0    0.20000     46.000     5.0000
 585.00     1283.3    0.50000     490.00     50.000
 585.00     1302.1    0.60000     1.9000    0.40000
 585.00     1305.8    0.50000     3.6000    0.60000
 585.00     1351.2    0.50000     27.000     4.0000
 585.00     1369.8    0.50000     32.000     6.0000
 585.00     1395.9    0.60000     3.8000    0.60000
 585.00     1514.6    0.50000    0.80000    0.20000
 585.00     1526.0    0.20000     19.000     4.0000
 585.00     1568.4    0.50000     2100.0     400.00
 585.00     1637.1    0.60000     480.00     100.00
 585.00     1698.7    0.50000     13.000     2.0000
 585.00     1744.0    0.20000     26.000     3.0000
 585.00     1763.0    0.50000     520.00     100.00
 585.00     1770.8    0.50000     54.000     12.000
 585.00     1799.5    0.60000     120.00     20.000
 585.00     1810.9    0.50000     25.000     6.0000
 975.00     1302.1    0.60000    0.31000E-010.60000E-02
 975.00     1305.8    0.50000    0.46000    0.11000
 975.00     1351.2    0.50000    0.22000    0.50000E-01
 975.00     1369.8    0.50000    0.27000E-010.60000E-01
 975.00     1514.6    0.50000     2.0000    0.40000
 975.00     1526.0    0.20000     1.1000    0.30000
 975.00     1568.4    0.50000     52.000     12.000
 975.00     1587.2    0.50000     1.1000    0.30000
 975.00     1631.6    0.50000     2.7000     1.0000
 975.00     1637.1    0.60000     49.000     10.000
 975.00     1649.1    0.50000     1.1000    0.30000
 975.00     1698.7    0.50000     11.000     2.0000
 975.00     1744.0    0.20000     4.6000    0.50000
 975.00     1763.0    0.50000     16.000     3.0000
 975.00     1770.8    0.50000     90.000     20.000
 975.00     1799.5    0.60000     21.000     5.0000
 975.00     1810.9    0.50000     88.000     20.000
 975.00     1829.0    0.20000     750.00     150.00
 975.00     1831.0    0.20000     130.00     35.000
ENDDATA             47
ENDSUBENT           56
SUBENT        F0545004   20030807   20050616                  Y000
BIB                  4          5
REACTION   (12-MG-25(P,G)13-AL-26,,DA,,REL)
ERR-ANALYS (EN-ERR-DIG) Digitizing error
           (ERR-DIG) Digitizing error
STATUS     (CURVE) Fig.1A,1B
COMMENT    Data are measured in the number of counts (10**4/3 mC)
ENDBIB               5
COMMON               3          3
ANG        EN-ERR-DIG ERR-DIG
ADEG       KEV        ARB-UNITS
  55.0      1.          0.003
ENDCOMMON            3
DATA                 2       1159
EN         DATA
KEV        ARB-UNITS
 310.02    0.11295
 311.78    0.86353E-01
 313.11    0.77418E-01
 315.32    0.86021E-01
 316.31    0.55290
 317.22    0.64973
 318.97    0.54384
 319.35    0.29710
 320.65    0.19125
 321.52    0.12949
 322.84    0.94127E-01
 324.61    0.85150E-01
 325.94    0.76215E-01
 328.15    0.67198E-01
 330.36    0.75801E-01
 332.13    0.84445E-01
 334.35    0.84238E-01
 336.56    0.84031E-01
 338.33    0.92675E-01
 339.68    0.17185
 340.57    0.18938
 341.88    0.14521
 343.65    0.11861
 345.41    0.10082
 347.18    0.91846E-01
 348.50    0.82911E-01
 350.27    0.73935E-01
 352.48    0.73727E-01
 354.25    0.64751E-01
 356.46    0.64543E-01
 358.68    0.73147E-01
 360.89    0.64129E-01
 363.10    0.63921E-01
 365.75    0.54862E-01
 367.97    0.54655E-01
 370.18    0.54447E-01
 372.39    0.45429E-01
 374.60    0.45222E-01
 376.81    0.45015E-01
 379.03    0.44807E-01
 380.79    0.35831E-01
 382.57    0.44476E-01
 384.78    0.44268E-01
 386.99    0.44061E-01
 388.89    0.59015
 390.75    0.98645
 392.01    0.69558
 393.71    0.38705
 394.55    0.19313
 395.86    0.11372
 397.18    0.87160E-01
 398.50    0.51793E-01
 400.26    0.34006E-01
 402.91    0.73258E-02
 405.13    0.15929E-01
 407.34    0.15722E-01
 409.11    0.15556E-01
 411.32    0.15348E-01
 413.53    0.15141E-01
 415.30    0.14975E-01
 417.07    0.14809E-01
 419.28    0.14602E-01
 421.94    0.14353E-01
 424.15    0.14146E-01
 425.92    0.22790E-01
 427.69    0.13814E-01
 429.90    0.13607E-01
 432.56    0.13358E-01
 433.96    0.32160
 434.10    0.90310
 435.01     1.0175
 435.88    0.94698
 436.29    0.81478
 436.68    0.62091
 437.53    0.43581
 437.94    0.30361
 439.23    0.14489
 440.09    0.74326E-01
 441.85    0.30108E-01
 444.06    0.12280E-01
 445.83    0.12114E-01
 447.60    0.20758E-01
 449.82    0.20551E-01
 452.03    0.29154E-01
 452.92    0.64313E-01
 455.13    0.46485E-01
 456.01    0.19970E-01
 458.22    0.10952E-01
 460.44    0.19556E-01
 462.65    0.19348E-01
 464.86    0.19141E-01
 466.63    0.18975E-01
 468.84    0.18768E-01
 471.50    0.18519E-01
 473.71    0.18311E-01
 475.48    0.26956E-01
 477.69    0.26749E-01
 479.91    0.26541E-01
 482.12    0.17523E-01
 483.01    0.43872E-01
 483.90    0.79031E-01
 485.66    0.34813E-01
 486.54    0.82983E-02
 489.20    0.25670E-01
 490.97    0.16694E-01
 493.62    0.16445E-01
 495.39    0.16279E-01
 497.60    0.16072E-01
 498.72    0.99396
 499.10    0.74722
 500.80    0.44750
 501.20    0.25362
 502.51    0.20064
 503.98    0.78201
 505.69    0.54396
 506.52    0.29718
 507.37    0.17375
 508.24    0.10318
 509.12    0.67857E-01
 511.33    0.58839E-01
 513.98    0.49780E-01
 514.88    0.10256
 515.04    0.76335
 516.35    0.70155
 516.37    0.79847
 517.17    0.43715
 517.21    0.59574
 518.01    0.26086
 518.03    0.34896
 518.88    0.18148
 519.31    0.13739
 520.63    0.93210E-01
 521.51    0.57885E-01
 523.27    0.40098E-01
 525.49    0.48701E-01
 526.81    0.48577E-01
 528.58    0.48411E-01
 530.79    0.39393E-01
 533.01    0.47996E-01
 533.07    0.31231
 534.39    0.25932
 534.81    0.18880
 536.12    0.12700
 536.99    0.65244E-01
 538.31    0.29878E-01
 540.53    0.38481E-01
 542.30    0.29504E-01
 544.51    0.38108E-01
 546.72    0.29090E-01
 548.49    0.37734E-01
 550.70    0.28716E-01
 552.92    0.37320E-01
 554.69    0.37154E-01
 556.90    0.36946E-01
 559.11    0.36739E-01
 561.77    0.36490E-01
 563.54    0.36324E-01
 565.75    0.68266E-01
 567.96    0.89774E-01
 568.26     3.3056
 569.59     3.2392
 569.94     2.2700
 570.73     1.3226
 572.00    0.68355
 572.85    0.33092
 574.16    0.13238
 576.37    0.87804E-01
 578.58    0.34914E-01
 580.35    0.43559E-01
 583.01    0.43310E-01
 585.22    0.43103E-01
 585.92    0.43024E-01
 587.05    0.42429E-01
 587.43    0.42895E-01
 588.19    0.41834E-01
 589.10    0.26653E-01
 589.20    0.42729E-01
 590.01    0.40881E-01
 590.47    0.14358
 590.93    0.18746
 590.97    0.51374E-01
 591.61    0.14298
 592.33     2.2603
 592.34    0.20103
 593.03     2.3923
 593.68     2.1860
 593.72     2.3155
 594.14     2.2273
 594.34     1.9651
 594.74     1.5384
 595.29     1.4871
 595.39     1.2587
 596.23    0.72880
 596.46    0.79096
 597.10    0.40482
 597.20    0.20057
 597.24    0.37678
 598.21    0.19835
 598.51    0.10353
 599.79    0.94583E-01
 600.69    0.64697E-01
 600.71    0.68083E-01
 601.60    0.34811E-01
 602.48    0.59106E-01
 602.96    0.34096E-01
 604.24    0.32509E-01
 605.68    0.24855E-01
 606.01    0.41154E-01
 606.77    0.26601E-01
 607.64    0.27910E-01
 608.08    0.29658E-01
 608.23    0.40946E-01
 608.95    0.37094E-01
 609.18    0.47596E-01
 609.55    0.40822E-01
 609.62    0.53283E-01
 609.84    0.50656E-01
 610.49    0.49341E-01
 610.92    0.47588E-01
 611.32    0.40656E-01
 611.79    0.42333E-01
 613.08    0.32699E-01
 613.53    0.31638E-01
 614.38    0.27442E-01
 615.30    0.31472E-01
 615.68    0.24373E-01
 617.51    0.22454E-01
 617.63    0.23051E-01
 619.73    0.31057E-01
 622.38    0.30809E-01
 624.15    0.30643E-01
 626.37    0.30435E-01
 628.58    0.30228E-01
 630.79    0.38831E-01
 633.00    0.29813E-01
 635.21    0.29606E-01
 637.87    0.29357E-01
 640.08    0.37960E-01
 642.30    0.37753E-01
 644.06    0.28777E-01
 646.28    0.37380E-01
 648.49    0.37172E-01
 650.70    0.28154E-01
 652.03    0.28030E-01
 653.80    0.27864E-01
 656.01    0.36467E-01
 656.53    0.33598
 657.83    0.22132
 658.69    0.12432
 659.56    0.80188E-01
 661.33    0.53591E-01
 663.09    0.44614E-01
 664.87    0.62069E-01
 666.20    0.79566E-01
 667.53    0.97063E-01
 669.31    0.11452
 671.07    0.10554
 673.28    0.96524E-01
 675.05    0.78737E-01
 676.81    0.60950E-01
 679.03    0.51932E-01
 680.79    0.41310E-01
 682.56    0.84948E-01
 684.34    0.15061
 685.54     3.4984
 686.43     3.6083
 687.24     2.7931
 687.58     1.7138
 688.39    0.89857
 688.80    0.54605
 689.66    0.25950
 690.21    0.52848E-01
 690.53    0.12713
 692.42    0.34941E-01
 694.63    0.17034E-01
 696.40    0.16868E-01
 698.61    0.78109E-02
 700.82    0.16453E-01
 703.03    0.16245E-01
 705.68    0.15996E-01
 707.90    0.15788E-01
 710.11    0.15580E-01
 711.43    0.15456E-01
 713.64    0.15248E-01
 715.86    0.15040E-01
 717.18    0.23765E-01
 719.40    0.23557E-01
 721.61    0.23350E-01
 724.16     1.4922
 724.47    0.93460
 724.82    0.51863
 726.07    0.21762
 726.93    0.10250
 727.80    0.49317E-01
 730.01    0.22560E-01
 732.22    0.13503E-01
 733.99    0.13337E-01
 735.76    0.22020E-01
 737.53    0.21854E-01
 738.08    0.49969
 738.49    0.37575
 739.34    0.21638
 740.21    0.12780
 741.51    0.39179E-01
 743.28    0.21314E-01
 745.49    0.21106E-01
 747.26    0.20940E-01
 749.47    0.20732E-01
 751.68    0.20525E-01
 753.89    0.20317E-01
 755.66    0.20151E-01
 757.87    0.19943E-01
 760.08    0.19735E-01
 762.29    0.19528E-01
 764.50    0.19320E-01
 766.71    0.19112E-01
 768.93    0.18904E-01
 771.14    0.18697E-01
 773.35    0.27339E-01
 774.29    0.28389
 775.50     1.6378
 776.69     1.0890
 777.03    0.62878
 777.84    0.32781
 778.68    0.14188
 779.56    0.88704E-01
 780.43    0.44373E-01
 781.75    0.17700E-01
 783.96    0.17492E-01
 786.17    0.17284E-01
 787.94    0.25968E-01
 789.71    0.25801E-01
 791.48    0.25635E-01
 793.69    0.25428E-01
 795.90    0.16370E-01
 798.11    0.25012E-01
 800.33    0.24804E-01
 802.54    0.24597E-01
 804.75    0.24389E-01
 806.96    0.24181E-01
 809.61    0.23932E-01
 810.51    0.85796E-01
 812.27     1.9441
 812.56     1.2626
 814.08    0.20051
 814.13    0.41290
 815.38    0.10304
 817.14    0.58624E-01
 817.18    0.54479E-01
 818.12    0.11419
 818.59    0.14516
 818.99    0.10090
 820.31    0.92017E-01
 820.71    0.49971E-01
 822.46    0.32230E-01
 824.24    0.38826E-01
 824.69    0.52090E-01
 826.01    0.38785E-01
 827.32    0.29904E-01
 828.65    0.27660E-01
 830.42    0.27619E-01
 831.31    0.36448E-01
 833.08    0.40831E-01
 833.97    0.47447E-01
 833.98    0.54084E-01
 835.20    0.40583
 836.46    0.33722
 836.80    0.23101
 838.04    0.13806
 838.43    0.78317E-01
 839.29    0.56172E-01
 841.09    0.91529E-01
 842.38    0.53887E-01
 842.81    0.40602E-01
 843.69    0.31732E-01
 845.90    0.29468E-01
 848.11    0.29416E-01
 849.86    0.72503E-01
 849.88    0.31587E-01
 852.07    0.49860E-01
 854.28    0.71464E-01
 856.49    0.48821E-01
 858.26    0.70529E-01
 860.47    0.70010E-01
 862.24    0.11384
 864.02    0.15767
 864.09    -.22736E-02
 865.35    0.22373
 866.69    0.35617
 866.82    -.22587E-02
 867.58    0.42233
 868.51    0.95310
 868.57     1.5283
 868.63    0.68422E-02
 869.98    0.68213E-01
 870.34     1.5058
 870.44    0.43216E-01
 870.81     1.8154
 871.26     1.9702
 871.36    0.22766E-01
 872.72    0.91372E-02
 873.02     1.8813
 873.85     1.2173
 873.88     1.5492
 874.09    0.53768E-04
 875.15    0.92941
 876.01    0.70797
 876.36    0.66178E-04
 877.32    0.57491
 878.18    0.76106E-04
 878.64    0.46398
 879.96    0.39730
 880.45    0.88516E-04
 881.09     2.9635
 881.20     4.2024
 881.75    0.30919
 882.21    0.25919
 882.70     1.3480
 883.14    0.16147
 883.53    0.70620
 884.37    0.28564
 884.53    0.79656E-01
 884.99    0.41022E-01
 885.69    0.19683
 885.90    0.16027E-01
 886.81    0.69414E-02
 887.01    0.13015
 888.34    0.12984
 889.09    0.24084E-02
 889.27    0.61636
 890.14    0.52765
 890.56    0.28419
 891.00    0.17346
 892.76    0.10668
 894.53    0.84137E-01
 895.86    0.15020
 895.90    0.63692
 897.22    0.52599
 897.64    0.32677
 898.08    0.23817
 898.95    0.12735
 900.72    0.82683E-01
 902.04    0.60247E-01
 904.69    0.59624E-01
 906.02    0.81436E-01
 908.23    0.80917E-01
 910.01    0.10263
 912.21    0.79982E-01
 914.42    0.57339E-01
 916.64    0.78944E-01
 917.96    0.56508E-01
 919.73    0.10034
 921.94    0.77697E-01
 923.71    0.66068E-01
 925.92    0.15353
 926.85     1.0823
 927.26    0.28565
 927.85     3.4713
 928.22     1.9224
 929.06     1.0813
 929.49    0.77133
 931.70    0.68180
 933.02    0.63693
 933.91    0.76926
 935.23    0.63589
 936.11    0.50273
 937.43    0.36936
 939.20    0.32429
 940.52    0.19092
 942.73    0.18988
 944.94    0.14459
 947.15    0.14355
 948.92    0.98476E-01
 951.13    0.18593
 952.03    0.49525
 953.29     8.4594
 953.69     7.5743
 953.97     4.0785
 954.76     2.0427
 955.15    0.93628
 956.01    0.49338
 956.88    0.22748
 959.55    0.89495E-01
 961.31    0.80479E-01
 963.52    0.62572E-01
 965.73    0.62364E-01
 967.06    0.79939E-01
 967.56    0.30114
 967.95    0.10640
 968.53    0.69043
 969.79    0.38057
 969.81    0.48677
 970.64    0.23005
 971.94    0.13258
 972.82    0.97098E-01
 974.59    0.96932E-01
 975.92    0.13221
 976.81    0.14982
 978.14    0.18509
 979.04    0.22926
 979.93    0.26457
 980.83    0.33529
 981.74    0.43255
 982.65    0.53866
 983.60    0.81292
 984.14     1.2288
 984.26     1.7332
 985.65     2.0074
 986.50     1.8835
 987.32     1.5825
 988.09     1.1045
 989.30    0.59114
 990.99    0.29008
 991.86    0.21036
 993.18    0.16598
 994.93    0.12157
 996.70    0.94855E-01
 998.46    0.76989E-01
 998.48    0.13894
 999.79    0.94564E-01
 1001.6    0.76698E-01
 1003.3    0.67683E-01
 1004.6    0.58709E-01
 1006.9    0.49651E-01
 1009.1    0.49444E-01
 1011.3    0.49236E-01
 1013.1    0.57919E-01
 1015.0    0.73556E-01
 1015.3    0.48862E-01
 1015.9    0.70442E-01
 1017.0    0.68439E-01
 1017.0    0.39846E-01
 1017.9    0.67770E-01
 1018.4    0.75120E-01
 1019.0    0.68656E-01
 1019.7    0.39597E-01
 1019.9    0.73098E-01
 1021.3    0.79761E-01
 1021.9    0.57088E-01
 1022.1    0.76203E-01
 1023.0    0.72422E-01
 1023.7    0.65772E-01
 1023.9    0.75087E-01
 1024.5     1.5348
 1024.5     1.7737
 1025.4    0.65605E-01
 1025.6    0.87976
 1026.8    0.39291
 1027.2    0.19818
 1028.1    0.91905E-01
 1029.9    0.65190E-01
 1031.2    0.47366E-01
 1032.9    0.47200E-01
 1035.2    0.46992E-01
 1036.9    0.37977E-01
 1038.7    0.37811E-01
 1041.8    0.23185
 1041.9     3.3734
 1043.0     6.0279
 1044.1     3.1512
 1044.9     1.4251
 1045.4    0.67266
 1046.7    0.14107
 1048.4    0.51739E-01
 1050.2    0.95156E-01
 1052.0    0.50078E-01
 1053.7    0.49247E-01
 1055.9    0.48208E-01
 1058.6    0.46962E-01
 1060.8    0.90171E-01
 1062.6    0.45092E-01
 1064.8    0.88302E-01
 1066.6    0.87471E-01
 1069.2    0.48081E-01
 1071.6    0.48254E-01
 1073.7    0.48399E-01
 1074.9    0.64945E-01
 1076.1    0.81492E-01
 1077.8    0.10630
 1079.0    0.13930
 1080.2    0.22169
 1081.8    0.52631
 1083.7     1.5058
 1085.6     2.0656
 1086.2     1.2344
 1087.1    0.50200
 1088.0    0.27985
 1089.2    0.16472
 1090.9    0.12368
 1092.1    0.90849E-01
 1094.2    0.74533E-01
 1095.8    0.66419E-01
 1097.9    0.74793E-01
 1099.5    0.66679E-01
 1101.6    0.83283E-01
 1102.4    0.17387
 1105.2     2.5114
 1105.5    0.89011
 1106.4    0.40460
 1106.5     2.5362
 1106.9    0.14127
 1108.1    0.83745E-01
 1110.2    0.75660E-01
 1111.8    0.84005E-01
 1113.4    0.75891E-01
 1115.5    0.76035E-01
 1117.1    0.84381E-01
 1119.2    0.92755E-01
 1120.8    0.92871E-01
 1122.5    0.10945
 1124.1    0.10133
 1126.2    0.10971
 1127.4    0.11802
 1129.0    0.13460
 1130.7    0.16763
 1132.3    0.20890
 1133.5    0.29951
 1134.9     1.4436
 1135.0     1.1555
 1136.2     1.5013
 1136.6     1.6001
 1136.9     1.8470
 1137.0     1.5343
 1137.3     1.9376
 1137.7     2.1433
 1138.5     2.0940
 1139.0     1.7072
 1139.5     1.3122
 1140.0    0.88430
 1140.8    0.56339
 1141.3    0.32475
 1142.1    0.24251
 1143.8    0.20971
 1145.0    0.17687
 1147.1    0.19348
 1147.4    0.35811
 1147.7    0.97538
 1150.0     2.4158
 1150.1     1.8068
 1150.6    0.97558
 1151.1    0.39952
 1152.0    0.22675
 1153.2    0.19391
 1154.5    0.16108
 1156.1    0.13650
 1158.2    0.12019
 1160.2    0.12033
 1162.3    0.12048
 1163.5    0.17817
 1163.8    0.47448
 1164.1     1.1082
 1165.2     2.0301
 1165.6     2.2194
 1166.6    0.80388
 1167.1    0.42533
 1167.6    0.26076
 1167.6    0.17023
 1169.2    0.13743
 1170.9    0.12109
 1172.9    0.14592
 1173.2    0.13334
 1174.1    0.12507
 1174.6    0.12135
 1175.1    0.12306
 1176.3    0.11898
 1176.6    0.12149
 1177.3    0.11905
 1178.4    0.11912
 1178.8    0.12957
 1179.1    0.12166
 1179.1    0.15668
 1179.4    0.13586
 1179.5    0.17107
 1180.2    0.15675
 1180.2    0.14634
 1180.7    0.13001
 1180.8    0.14013
 1181.4    0.13184
 1182.2    0.12982
 1182.4    0.13012
 1182.8    0.19599
 1183.0    0.12988
 1183.1    0.31947
 1183.4    0.19240
 1183.5    0.44295
 1185.2    0.46775
 1185.6    0.40194
 1186.0    0.31144
 1186.4    0.20448
 1187.3    0.14693
 1188.9    0.13059
 1191.0    0.14165
 1191.0    0.13896
 1193.0    0.16259
 1194.6     1.7471
 1195.1    0.18353
 1195.7     3.2287
 1196.1     2.8379
 1197.0     1.8093
 1197.5     1.1510
 1197.9    0.47208
 1199.2    0.24597
 1201.2    0.16403
 1203.3    0.18497
 1204.5    0.39093
 1205.2     2.3868
 1205.8     5.1646
 1206.7     4.4446
 1207.2     2.6135
 1207.3    0.94696
 1209.0    0.39173
 1209.8    0.20670
 1211.5    0.14526
 1213.5    0.12505
 1215.6    0.12541
 1217.6    0.12577
 1219.7    0.12613
 1222.2    0.12657
 1224.2    0.14750
 1226.3    0.14786
 1228.3    0.14823
 1230.4    0.14859
 1232.0    0.16945
 1233.6    0.16974
 1236.1    0.23190
 1236.1    0.35535
 1236.9     1.0756
 1237.5     3.8328
 1237.7     6.0344
 1239.1     4.9030
 1239.2     3.0718
 1240.1     2.0638
 1241.0     1.0146
 1241.0    0.68541
 1241.8    0.45923
 1242.7    0.31535
 1243.9    0.25384
 1245.5    0.19241
 1247.6    0.17220
 1249.2    0.15191
 1251.7    0.15234
 1253.7    0.15270
 1255.8    0.17364
 1257.8    0.19458
 1259.9    0.17436
 1261.9    0.17472
 1264.4    0.17516
 1266.0    0.17545
 1266.9    0.15101
 1268.1    0.15303
 1268.5    0.19645
 1269.0    0.15506
 1269.8    0.15301
 1270.6    0.19681
 1270.8    0.15504
 1271.9    0.16114
 1271.9    0.19788
 1272.2    0.19710
 1272.7    0.24277
 1273.0    0.30012
 1273.1    0.22235
 1273.5    0.19786
 1274.0    0.18152
 1274.7    0.21811
 1274.8    0.18559
 1275.4    0.19171
 1276.2    0.20598
 1276.3    0.23898
 1277.1    0.21413
 1278.3    0.32164
 1279.6    0.42473
 1280.8    0.67184
 1282.7     1.8450
 1284.0     1.7423
 1285.3     1.0224
 1286.9    0.59063
 1287.8    0.42617
 1289.4    0.32359
 1291.5    0.30337
 1292.7    0.44761
 1293.9    0.36553
 1294.7    0.30395
 1296.4    0.32481
 1298.4    0.34575
 1299.7    0.38712
 1300.5    0.44898
 1300.5    0.61358
 1300.8     1.2103
 1301.6     2.4244
 1301.9     3.4943
 1302.7     3.6179
 1303.2     2.8773
 1303.2     2.2189
 1303.3     1.6428
 1304.9     1.6843
 1305.3     2.0753
 1305.7     2.4457
 1306.5     2.8779
 1306.9     2.9808
 1307.3     2.7134
 1308.6     2.2404
 1309.0     1.7467
 1309.4     1.4587
 1310.7    0.86229
 1312.0    0.61561
 1312.8    0.45115
 1314.0    0.34849
 1315.3    0.28699
 1317.7    0.22570
 1317.7    0.16435
 1319.4    0.13154
 1321.0    0.98739E-01
 1323.1    0.90654E-01
 1325.5    0.90827E-01
 1328.0    0.99230E-01
 1330.4    0.99404E-01
 1332.5    0.10778
 1334.1    0.12435
 1335.8    0.91549E-01
 1337.0    0.26446
 1338.6    0.21520
 1339.5    0.16588
 1341.0    0.59395
 1342.6    0.98910
 1342.7    0.52000
 1344.3    0.49542
 1345.1    0.47079
 1346.4    0.35566
 1347.6    0.27345
 1348.1    0.21587
 1349.3    0.18303
 1350.1    0.23247
 1350.9    0.38067
 1351.7    0.30665
 1352.6    0.19972
 1354.2    0.15869
 1356.7    0.15063
 1358.3    0.15075
 1358.7    0.20016
 1359.9    0.24139
 1361.6    0.28266
 1362.8    0.35681
 1364.8    0.46395
 1366.0    0.57102
 1367.3    0.63695
 1368.5    0.72757
 1369.2     1.0815
 1370.1    0.93343
 1371.3    0.81007
 1371.8    0.76072
 1373.0    0.70319
 1374.1     3.5276
 1375.8     2.3140
 1376.3    0.75039
 1377.2    0.50364
 1378.4    0.42156
 1380.1    0.40127
 1381.7    0.36041
 1382.9    0.29890
 1384.6    0.25804
 1386.6    0.25840
 1389.1    0.23826
 1391.2    0.24383
 1391.6    0.19755
 1391.9    0.23762
 1392.7    0.22934
 1393.2    0.17726
 1393.5    0.22731
 1393.9    0.22109
 1394.8    0.17755
 1394.9    0.22324
 1395.5    0.22536
 1396.3    0.22333
 1396.3    0.20042
 1396.9    0.21906
 1397.9    0.19636
 1398.7    0.18808
 1399.4    0.17834
 1399.9    0.17774
 1401.5    0.17577
 1401.8    0.17878
 1402.9    0.16544
 1403.9    0.15856
 1405.1    0.15878
 1405.3    0.15727
 1406.3    0.24130
 1408.0    0.15929
 1410.4    0.18029
 1412.5    0.16008
 1414.9    0.13994
 1417.0    0.16087
 1419.1    0.14066
 1421.5    0.12052
 1424.0    0.14153
 1426.0    0.14189
 1428.1    0.14225
 1430.5    0.12211
 1433.0    0.12254
 1435.0    0.12290
 1436.3    0.20542
 1437.9    0.12341
 1440.4    0.12384
 1442.8    0.12427
 1444.9    0.10406
 1446.9    0.10442
 1469.4    0.99237E-01
 1471.8    0.91105E-01
 1473.9    0.91215E-01
 1475.9    0.99590E-01
 1478.0    0.10796
 1479.6    0.83259E-01
 1481.7    0.10816
 1484.1    0.83502E-01
 1485.8    0.10838
 1488.2    0.10025
 1491.1    0.92140E-01
 1493.2    0.11704
 1494.8    0.84074E-01
 1497.3    0.92471E-01
 1499.7    0.10087
 1501.8    0.10924
 1503.4    0.84537E-01
 1505.1    0.11768
 1507.5    0.11781
 1509.6    0.11792
 1511.6    0.11803
 1512.0    0.17591
 1512.8    0.24206
 1514.5    0.20083
 1515.7    0.15958
 1516.9    0.12658
 1519.0    0.11843
 1520.6    0.11852
 1521.9    0.13511
 1523.1    0.17650
 1524.3    0.52367
 1525.9    0.90391
 1526.3    0.57336
 1526.8    0.29240
 1527.6    0.25112
 1528.4    0.19332
 1530.1    0.16861
 1531.7    0.14391
 1533.3    0.12747
 1535.0    0.11929
 1537.0    0.11114
 1539.5    0.11127
 1542.0    0.11140
 1544.4    0.10327
 1546.9    0.10340
 1547.7    0.16129
 1549.8    0.12008
 1551.4    0.11191
 1553.0    0.12026
 1555.1    0.12037
 1556.3    0.17002
 1558.0    0.12879
 1560.4    0.12066
 1562.9    0.12905
 1564.5    0.13740
 1566.1    0.15402
 1566.1    0.19534
 1567.4    0.26979
 1568.2    0.31115
 1569.4    0.22858
 1570.7    0.17906
 1571.5    0.14604
 1573.1    0.13787
 1575.2    0.12971
 1576.8    0.12154
 1578.9    0.17950
 1579.7    0.24565
 1581.3    0.22921
 1582.1    0.17967
 1584.2    0.17152
 1586.2    0.17163
 1587.5    0.21302
 1588.5     2.0064
 1588.9     1.8329
 1589.0    0.84945
 1589.9    0.37843
 1590.7    0.22146
 1592.0    0.16367
 1593.6    0.14723
 1595.7    0.14734
 1597.7    0.15572
 1599.8    0.16409
 1601.4    0.18071
 1603.0    0.21385
 1605.5    0.21398
 1606.3    0.18097
 1608.8    0.17284
 1610.8    0.17295
 1612.5    0.18957
 1615.4    0.19798
 1617.0    0.21460
 1618.2    0.22293
 1619.4    0.25605
 1621.1    0.29746
 1622.7    0.33061
 1624.8    0.32246
 1626.0    0.29773
 1628.1    0.28957
 1629.3    0.31443
 1630.5    0.67813
 1632.0     1.3559
 1632.9     1.1493
 1633.8    0.60393
 1634.2    0.42213
 1635.4    0.33129
 1636.7    0.31483
 1638.3    0.30665
 1639.9    0.28195
 1640.8    0.24894
 1642.8    0.29484
 1642.8    0.28210
 1645.7    0.25429
 1646.9    0.50255
 1648.2    0.87477
 1648.5     2.7757
 1650.1     5.4620
 1651.0     2.4458
 1651.8     1.0824
 1652.7    0.54541
 1654.3    0.46321
 1656.0    0.38100
 1658.4    0.38167
 1660.1    0.34078
 1662.5    0.38277
 1664.6    0.38332
 1667.0    0.38398
 1669.1    0.34321
 1670.7    0.42629
 1672.8    0.38552
 1674.8    0.38607
 1676.5    0.42783
 1678.5    0.42838
 1680.6    0.42893
 1681.4    0.71840
 1682.6    0.47081
 1685.1    0.47147
 1687.1    0.43070
 1689.2    0.47257
 1690.8    0.51433
 1692.5    0.55609
 1694.5    0.59796
 1695.7    0.68094
 1697.0    0.84655
 1697.8     1.4666
 1698.5     2.8717
 1699.8     3.5332
 1700.6     2.7483
 1701.4     2.0461
 1702.3     1.0959
 1702.7    0.84809
 1704.3    0.60061
 1706.4    0.51851
 1708.5    0.51906
 1710.1    0.47818
 1712.6    0.56149
 1713.4     1.2228
 1714.8     7.9587
 1714.9     3.7439
 1716.2     1.1823
 1717.1    0.81063
 1718.3    0.48039
 1719.9    0.39818
 1721.2    0.39851
 1723.2    0.35774
 1725.3    0.35829
 1727.3    0.31752
 1729.3    0.34460
 1731.0    0.37775
 1732.2    0.39434
 1733.4    0.41920
 1735.9    0.41107
 1737.5    0.45248
 1738.3    0.49384
 1739.2    0.51868
 1739.6    0.56829
 1740.8    0.59315
 1741.6    0.64277
 1742.8    0.70069
 1745.3    0.71735
 1746.5    0.67610
 1747.7    0.97368
 1749.0    0.67623
 1749.8    0.55231
 1750.6    0.49450
 1751.9    0.34581
 1752.7    0.29627
 1754.4    0.26330
 1756.0    0.25512
 1757.6    0.25521
 1759.7    0.24706
 1762.2    0.23893
 1763.4    0.43734
 1763.8    0.34645
 1765.4    0.24737
 1766.7    0.28049
 1767.5    0.23921
 1768.7    0.28886
 1769.5    0.24759
 1770.8    0.28071
 1771.6    0.44604
 1772.3     1.0163
 1774.0    0.60319
 1774.8    0.39663
 1776.4    0.67770
 1777.7    0.35546
 1778.5    0.32245
 1779.0    0.28115
 1780.6    0.24818
 1782.2    0.23174
 1784.3    0.23185
 1786.3    0.24023
 1788.0    0.23205
 1789.6    0.24040
 1792.1    0.24053
 1794.1    0.24064
 1795.8    0.24073
 1797.8    0.23258
 1799.5    0.24919
 1801.1    0.25755
 1801.1    0.36498
 1802.7    0.27416
 1804.0    0.24944
 1806.0    0.26608
 1807.7    0.29096
 1809.7    0.31586
 1810.1    0.35720
 1811.3    0.39859
 1812.2    0.44822
 1813.0    0.40694
 1814.2    0.33263
 1815.5    0.30790
 1816.7    0.29144
 1818.7    0.27502
 1820.4    0.28338
 1822.0    0.32478
 1822.8    0.37441
 1823.6    0.40752
 1825.3    0.42413
 1826.1    0.50682
 1827.3    0.63085
 1828.9    0.77143
 1828.9    0.96151
 1830.1    0.83761
 1831.8    0.77985
 1833.0    0.73033
 1834.5     1.6808
 1834.6     1.4742
 1835.9    0.75528
 1836.7    0.57351
 1837.6    0.48264
 1838.4    0.44137
 1839.6    0.41664
 1841.3    0.39193
 1843.3    0.37552
ENDDATA           1161
ENDSUBENT         1175
SUBENT        F0545005   20030807   20050616                  Y000
BIB                  4          5
REACTION   (12-MG-25(P,INL)12-MG-25,PAR,DA,,REL)
ERR-ANALYS (EN-ERR-DIG) Digitizing error
           (ERR-DIG) Digitizing error
STATUS     (CURVE) Fig.2,3
COMMENT    Data are measured in the number of counts (10**4/3 mC)
ENDBIB               5
COMMON               3          3
ANG        EN-ERR-DIG ERR-DIG
ADEG       KEV        ARB-UNITS
  55.0      1.          0.001
ENDCOMMON            3
DATA                 3        967
E-LVL      EN         DATA
KEV        KEV        ARB-UNITS
 585.00     978.84    0.52670E-05
 585.00     980.49    0.82112E-03
 585.00     981.74    0.33477E-02
 585.00     982.99    0.10112E-01
 585.00     983.85    0.19423E-01
 585.00     984.70    0.30429E-01
 585.00     985.16    0.44831E-01
 585.00     986.42    0.53290E-01
 585.00     987.23    0.49042E-01
 585.00     988.03    0.38014E-01
 585.00     988.83    0.30377E-01
 585.00     989.61    0.16807E-01
 585.00     991.64    0.57637E-02
 585.00     993.28    0.40477E-02
 585.00     994.93    0.23317E-02
 585.00     996.99    0.14579E-02
 585.00     999.05    0.58411E-03
 585.00     1001.1    -.28968E-03
 585.00     1004.0    -.32655E-03
 585.00     1006.5    -.35815E-03
 585.00     1009.4    -.39502E-03
 585.00     1011.0    -.12635E-02
 585.00     1012.7    -.43716E-03
 585.00     1014.3    0.38923E-03
 585.00     1016.4    0.36290E-03
 585.00     1018.0    0.11893E-02
 585.00     1019.3    0.13885E-01
 585.00     1020.9    0.62372E-02
 585.00     1021.3    0.11472E-02
 585.00     1023.8    0.11155E-02
 585.00     1025.8    0.10892E-02
 585.00     1027.9    0.10629E-02
 585.00     1088.9    0.19307E-02
 585.00     1091.0    0.19055E-02
 585.00     1093.5    0.18753E-02
 585.00     1095.2    0.26884E-02
 585.00     1097.3    0.18300E-02
 585.00     1099.4    0.18048E-02
 585.00     1101.0    0.17846E-02
 585.00     1102.7    0.34311E-02
 585.00     1104.8    0.17393E-02
 585.00     1106.9    0.17141E-02
 585.00     1108.5    0.86069E-03
 585.00     1110.2    0.25071E-02
 585.00     1112.3    0.24819E-02
 585.00     1114.4    0.24568E-02
 585.00     1116.5    0.24316E-02
 585.00     1118.5    0.15731E-02
 585.00     1120.6    0.15479E-02
 585.00     1122.3    0.69449E-03
 585.00     1124.0    0.31742E-02
 585.00     1125.6    0.14875E-02
 585.00     1126.9    0.31390E-02
 585.00     1128.5    -.21435E-03
 585.00     1130.6    0.59376E-03
 585.00     1133.1    0.30634E-02
 585.00     1133.6    0.20558E-01
 585.00     1134.1    0.28052E-01
 585.00     1135.3    0.23871E-01
 585.00     1135.7    0.20532E-01
 585.00     1136.5    0.14689E-01
 585.00     1137.3    0.12179E-01
 585.00     1138.6    0.71644E-02
 585.00     1139.8    0.21495E-02
 585.00     1141.5    0.21294E-02
 585.00     1143.6    0.29375E-02
 585.00     1145.7    0.29123E-02
 585.00     1146.9    0.45638E-02
 585.00     1149.0    0.28720E-02
 585.00     1150.7    0.28519E-02
 585.00     1152.7    0.36600E-02
 585.00     1154.4    0.28066E-02
 585.00     1156.5    0.44480E-02
 585.00     1158.6    0.19229E-02
 585.00     1160.3    0.27361E-02
 585.00     1161.9    0.35492E-02
 585.00     1163.6    0.68622E-02
 585.00     1164.4    0.26857E-02
 585.00     1167.3    0.26504E-02
 585.00     1168.6    0.51352E-02
 585.00     1170.7    0.26101E-02
 585.00     1171.9    0.50949E-02
 585.00     1173.6    0.25749E-02
 585.00     1174.0    0.67363E-02
 585.00     1176.1    0.10878E-01
 585.00     1177.8    0.13357E-01
 585.00     1178.3    0.33351E-01
 585.00     1178.9    0.93343E-01
 585.00     1179.0    0.14751
 585.00     1179.6    0.18083
 585.00     1179.9    0.16583
 585.00     1180.2    0.11416
 585.00     1181.0    0.90818E-01
 585.00     1181.3    0.78314E-01
 585.00     1181.3    0.71648E-01
 585.00     1181.9    0.82686E-01
 585.00     1182.4    0.35338
 585.00     1182.5     1.1450
 585.00     1182.8    0.16576
 585.00     1183.3     4.7280
 585.00     1183.5     2.9780
 585.00     1184.2     5.0403
 585.00     1184.5     4.2277
 585.00     1184.8     3.1026
 585.00     1186.2     1.1230
 585.00     1187.4    0.41437
 585.00     1188.2    0.16413
 585.00     1189.0    0.80546E-01
 585.00     1191.1    0.38252E-01
 585.00     1192.8    0.37748E-01
 585.00     1194.5    0.18307
 585.00     1194.9    0.37119E-01
 585.00     1195.3    0.34948
 585.00     1196.6    0.26577
 585.00     1196.6    0.18244
 585.00     1197.4    0.98860E-01
 585.00     1198.6    0.77650E-01
 585.00     1199.9    0.35608E-01
 585.00     1201.5    0.35104E-01
 585.00     1203.6    0.34474E-01
 585.00     1205.7    0.54677E-01
 585.00     1207.0    0.54300E-01
 585.00     1208.6    0.32964E-01
 585.00     1210.7    0.32334E-01
 585.00     1212.8    0.31704E-01
 585.00     1214.9    0.51907E-01
 585.00     1216.6    0.30571E-01
 585.00     1217.8    0.30194E-01
 585.00     1219.9    0.29564E-01
 585.00     1222.0    0.49767E-01
 585.00     1224.9    0.69718E-01
 585.00     1227.0    0.69088E-01
 585.00     1229.1    0.89291E-01
 585.00     1230.8    0.13045
 585.00     1232.4    0.15078
 585.00     1233.3    0.21303
 585.00     1234.1    0.27527
 585.00     1235.0    0.37918
 585.00     1235.8    0.52476
 585.00     1236.2    0.71212
 585.00     1237.1     1.1077
 585.00     1237.8     3.0866
 585.00     1238.8     4.2322
 585.00     1239.1     4.0029
 585.00     1239.9     3.4193
 585.00     1240.5     1.7733
 585.00     1241.3     1.1898
 585.00     1242.1    0.73119
 585.00     1242.5    0.41858
 585.00     1243.3    0.29333
 585.00     1243.7    0.20988
 585.00     1244.9    0.12617
 585.00     1247.0    0.63045E-01
 585.00     1249.1    0.41583E-01
 585.00     1250.8    0.41079E-01
 585.00     1252.8    0.40449E-01
 585.00     1254.9    0.39820E-01
 585.00     1256.6    0.39316E-01
 585.00     1258.3    0.38813E-01
 585.00     1260.4    0.38183E-01
 585.00     1262.4    0.37554E-01
 585.00     1264.1    0.57882E-01
 585.00     1266.2    0.57253E-01
 585.00     1268.7    0.35665E-01
 585.00     1270.0    0.35287E-01
 585.00     1272.0    0.34658E-01
 585.00     1273.7    0.75819
 585.00     1275.8    0.96021
 585.00     1277.1     1.5814
 585.00     1278.3     2.2026
 585.00     1278.7     3.0346
 585.00     1279.6     4.0737
 585.00     1280.9     9.2780
 585.00     1282.9     39.272
 585.00     1284.1     36.143
 585.00     1285.6     19.264
 585.00     1286.7     9.2604
 585.00     1288.8     5.0876
 585.00     1289.6     3.8352
 585.00     1290.4     2.9994
 585.00     1292.1     2.3694
 585.00     1293.3     1.5323
 585.00     1294.6     1.1119
 585.00     1296.7    0.89726
 585.00     1297.6    0.18941
 585.00     1298.8    0.16106
 585.00     1300.0    0.14938
 585.00     1301.5    0.22936
 585.00     1302.5    0.14352
 585.00     1303.3    0.13101
 585.00     1304.6    0.14932
 585.00     1305.8    0.13931
 585.00     1306.6    0.11763
 585.00     1307.4    0.98459E-01
 585.00     1309.4    0.79268E-01
 585.00     1310.6    0.74253E-01
 585.00     1312.3    0.61733E-01
 585.00     1313.9    0.55047E-01
 585.00     1316.0    0.54188E-01
 585.00     1317.2    0.50007E-01
 585.00     1318.5    0.48325E-01
 585.00     1320.6    0.46633E-01
 585.00     1322.2    0.43280E-01
 585.00     1324.3    0.39922E-01
 585.00     1326.4    0.37396E-01
 585.00     1328.5    0.35705E-01
 585.00     1331.0    0.34841E-01
 585.00     1332.6    0.37321E-01
 585.00     1333.9    0.34806E-01
 585.00     1335.5    0.35619E-01
 585.00     1337.6    0.33094E-01
 585.00     1339.3    0.30574E-01
 585.00     1341.4    0.32215E-01
 585.00     1343.0    0.38633E-01
 585.00     1345.0    0.55047E-01
 585.00     1346.7    0.63178E-01
 585.00     1348.0    0.88026E-01
 585.00     1348.8    0.12959
 585.00     1350.1    0.37109
 585.00     1351.2    0.93763
 585.00     1351.9    0.49589
 585.00     1353.0    0.13742
 585.00     1353.4    0.70706E-01
 585.00     1354.6    0.20557E-01
 585.00     1356.3    0.12022E-01
 585.00     1358.4    0.20104E-01
 585.00     1359.6    0.11620E-01
 585.00     1360.9    0.19801E-01
 585.00     1363.4    0.27832E-01
 585.00     1365.5    0.19247E-01
 585.00     1366.7    0.27429E-01
 585.00     1368.4    0.43894E-01
 585.00     1369.6     1.2021
 585.00     1370.2    0.58533
 585.00     1370.9    0.10192
 585.00     1371.3    0.43541E-01
 585.00     1373.8    0.34906E-01
 585.00     1375.1    0.10975E-01
 585.00     1375.9    0.76319E-02
 585.00     1377.2    0.10950E-01
 585.00     1378.8    0.92632E-02
 585.00     1380.5    0.12576E-01
 585.00     1383.0    0.92128E-02
 585.00     1383.9    0.13369E-01
 585.00     1385.1    0.10021E-01
 585.00     1386.8    0.12501E-01
 585.00     1388.4    0.91474E-02
 585.00     1390.5    0.99555E-02
 585.00     1392.6    0.10764E-01
 585.00     1393.5    0.13253E-01
 585.00     1394.6    0.10991
 585.00     1396.0    0.15822
 585.00     1396.4    0.37384E-01
 585.00     1397.6    0.17370E-01
 585.00     1398.9    0.81882E-02
 585.00     1400.5    0.98346E-02
 585.00     1402.2    0.81479E-02
 585.00     1403.5    0.11466E-01
 585.00     1405.5    0.89409E-02
 585.00     1408.0    0.97440E-02
 585.00     1409.7    0.10557E-01
 585.00     1411.0    0.80421E-02
 585.00     1412.6    0.10522E-01
 585.00     1414.3    0.11335E-01
 585.00     1415.5    0.88200E-02
 585.00     1417.2    0.96332E-02
 585.00     1418.5    0.11285E-01
 585.00     1420.1    0.79313E-02
 585.00     1422.2    0.87394E-02
 585.00     1424.3    0.87142E-02
 585.00     1426.0    0.10361E-01
 585.00     1428.1    0.86689E-02
 585.00     1429.7    0.10315E-01
 585.00     1431.0    0.12800E-01
 585.00     1432.2    0.94518E-02
 585.00     1433.9    0.11098E-01
 585.00     1435.6    0.85783E-02
 585.00     1436.8    0.11896E-01
 585.00     1438.9    0.85380E-02
 585.00     1440.2    0.12689E-01
 585.00     1441.8    0.93360E-02
 585.00     1444.7    0.93008E-02
 585.00     1447.3    0.11770E-01
 585.00     1448.5    0.10922E-01
 585.00     1450.2    0.10069E-01
 585.00     1451.8    0.10882E-01
 585.00     1453.5    0.13361E-01
 585.00     1455.2    0.10841E-01
 585.00     1456.8    0.99880E-02
 585.00     1459.4    0.10791E-01
 585.00     1460.6    0.11609E-01
 585.00     1462.7    0.12417E-01
 585.00     1463.9    0.12402E-01
 585.00     1466.0    0.12377E-01
 585.00     1468.1    0.10685E-01
 585.00     1468.9    0.10167E-01
 585.00     1471.0    0.12654E-01
 585.00     1472.3    0.12640E-01
 585.00     1473.9    0.10948E-01
 585.00     1476.0    0.11762E-01
 585.00     1477.3    0.13421E-01
 585.00     1479.3    0.11725E-01
 585.00     1481.4    0.10865E-01
 585.00     1483.9    0.12510E-01
 585.00     1484.8    0.15012E-01
 585.00     1486.4    0.11646E-01
 585.00     1488.5    0.11623E-01
 585.00     1489.3    0.14961E-01
 585.00     1491.4    0.13264E-01
 585.00     1493.5    0.16588E-01
 585.00     1495.2    0.18243E-01
 585.00     1497.2    0.18220E-01
 585.00     1499.7    0.18192E-01
 585.00     1501.8    0.19006E-01
 585.00     1503.9    0.24003E-01
 585.00     1505.6    0.24821E-01
 585.00     1507.2    0.24803E-01
 585.00     1508.5    0.28973E-01
 585.00     1509.8    0.35653E-01
 585.00     1512.3    0.44830E-01
 585.00     1513.6    0.49000E-01
 585.00     1514.0    0.54853E-01
 585.00     1515.2    0.45635E-01
 585.00     1516.5    0.46458E-01
 585.00     1517.3    0.48959E-01
 585.00     1517.7    0.55648E-01
 585.00     1519.4    0.65671E-01
 585.00     1520.3    0.76540E-01
 585.00     1521.6    0.90752E-01
 585.00     1522.4    0.10078
 585.00     1523.3    0.12504
 585.00     1523.8    0.14428
 585.00     1523.8    0.15433
 585.00     1525.6    0.17439
 585.00     1526.3    0.15179
 585.00     1527.1    0.12249
 585.00     1528.2    0.89004E-01
 585.00     1528.6    0.71427E-01
 585.00     1529.8    0.55514E-01
 585.00     1531.0    0.43785E-01
 585.00     1532.7    0.36235E-01
 585.00     1534.3    0.37054E-01
 585.00     1535.1    0.33697E-01
 585.00     1536.0    0.40382E-01
 585.00     1538.1    0.38685E-01
 585.00     1539.8    0.45361E-01
 585.00     1541.0    0.47858E-01
 585.00     1541.9    0.53706E-01
 585.00     1542.7    0.62901E-01
 585.00     1544.0    0.65398E-01
 585.00     1544.8    0.70409E-01
 585.00     1546.1    0.76253E-01
 585.00     1546.9    0.84612E-01
 585.00     1548.2    0.94639E-01
 585.00     1549.1    0.10384
 585.00     1550.4    0.12139
 585.00     1551.7    0.13477
 585.00     1553.0    0.15484
 585.00     1553.9    0.18579
 585.00     1554.2    0.42140
 585.00     1556.3    0.62481
 585.00     1557.9    0.20177
 585.00     1559.6    0.61554
 585.00     1561.3     1.0293
 585.00     1562.9     1.8615
 585.00     1563.4     3.3247
 585.00     1563.8     4.9971
 585.00     1563.8     4.1603
 585.00     1564.2     6.4604
 585.00     1565.1     7.2948
 585.00     1565.5     9.3857
 585.00     1566.0     16.497
 585.00     1567.0     26.746
 585.00     1567.8     30.091
 585.00     1569.0     22.974
 585.00     1569.8     15.022
 585.00     1570.5     6.8614
 585.00     1571.3     3.7211
 585.00     1571.7     2.4647
 585.00     1572.5     1.2072
 585.00     1574.6    0.99222
 585.00     1576.3    0.77839
 585.00     1578.3    0.77259
 585.00     1580.8    0.55644
 585.00     1582.2    0.18296
 585.00     1582.5    0.15953
 585.00     1584.1    0.14278
 585.00     1584.9    0.12268
 585.00     1585.7    0.11012
 585.00     1586.5    0.92539E-01
 585.00     1587.7    0.95036E-01
 585.00     1588.1    0.84153E-01
 585.00     1588.9    0.75776E-01
 585.00     1589.3    0.68240E-01
 585.00     1591.0    0.66548E-01
 585.00     1592.2    0.54819E-01
 585.00     1593.4    0.44763E-01
 585.00     1594.6    0.33034E-01
 585.00     1595.9    0.29673E-01
 585.00     1597.5    0.27144E-01
 585.00     1598.8    0.26294E-01
 585.00     1600.4    0.21254E-01
 585.00     1602.1    0.18725E-01
 585.00     1604.2    0.17029E-01
 585.00     1605.4    0.14504E-01
 585.00     1606.6    0.12817E-01
 585.00     1608.3    0.11961E-01
 585.00     1609.6    0.11111E-01
 585.00     1611.6    0.10251E-01
 585.00     1612.5    0.68943E-02
 585.00     1613.7    0.11064E-01
 585.00     1615.0    0.77033E-02
 585.00     1616.6    0.76847E-02
 585.00     1617.9    0.11018E-01
 585.00     1619.5    0.11836E-01
 585.00     1620.8    0.17680E-01
 585.00     1621.6    0.11813E-01
 585.00     1622.1    0.21013E-01
 585.00     1623.3    0.22673E-01
 585.00     1623.7    0.26852E-01
 585.00     1624.6    0.30190E-01
 585.00     1625.4    0.33528E-01
 585.00     1626.3    0.37703E-01
 585.00     1627.6    0.53588E-01
 585.00     1627.6    0.71161E-01
 585.00     1628.9    0.87046E-01
 585.00     1629.4    0.12972
 585.00     1629.5    0.10485
 585.00     1630.4    0.23013
 585.00     1631.6    0.33439
 585.00     1632.5    0.43875
 585.00     1632.9    0.54324
 585.00     1633.7    0.73129
 585.00     1634.7     1.7143
 585.00     1635.6     2.9065
 585.00     1636.7     4.5171
 585.00     1637.5     4.7888
 585.00     1638.6     3.6379
 585.00     1640.6     2.5495
 585.00     1640.9     1.5243
 585.00     1641.7    0.91736
 585.00     1642.5    0.56149
 585.00     1644.5    0.39355
 585.00     1645.3    0.30964
 585.00     1646.6    0.24654
 585.00     1647.8    0.20435
 585.00     1648.7    0.16228
 585.00     1650.3    0.14089
 585.00     1651.9    0.12445
 585.00     1652.7    0.11691
 585.00     1654.3    0.93458E-01
 585.00     1655.5    0.90097E-01
 585.00     1657.2    0.83384E-01
 585.00     1658.8    0.72487E-01
 585.00     1660.1    0.72473E-01
 585.00     1661.3    0.65765E-01
 585.00     1662.5    0.60730E-01
 585.00     1663.8    0.54022E-01
 585.00     1665.4    0.49819E-01
 585.00     1667.5    0.53143E-01
 585.00     1668.3    0.48950E-01
 585.00     1670.0    0.50605E-01
 585.00     1671.2    0.51428E-01
 585.00     1672.0    0.42214E-01
 585.00     1674.1    0.43864E-01
 585.00     1674.9    0.36324E-01
 585.00     1677.0    0.37137E-01
 585.00     1678.7    0.35445E-01
 585.00     1679.1    0.32093E-01
 585.00     1680.4    0.36263E-01
 585.00     1682.4    0.29546E-01
 585.00     1684.1    0.35385E-01
 585.00     1685.3    0.32024E-01
 585.00     1686.6    0.37868E-01
 585.00     1688.3    0.37012E-01
 585.00     1689.5    0.36998E-01
 585.00     1690.8    0.38658E-01
 585.00     1691.6    0.31954E-01
 585.00     1692.4    0.38639E-01
 585.00     1693.7    0.36115E-01
 585.00     1694.9    0.41122E-01
 585.00     1696.2    0.50313E-01
 585.00     1696.7    0.63697E-01
 585.00     1697.6    0.10971
 585.00     1698.3    0.21933
 585.00     1699.3    0.26785
 585.00     1700.0    0.23437
 585.00     1701.1    0.17076
 585.00     1702.1    0.85393E-01
 585.00     1703.3    0.51908E-01
 585.00     1704.1    0.47714E-01
 585.00     1704.9    0.41011E-01
 585.00     1706.6    0.38482E-01
 585.00     1707.0    0.45172E-01
 585.00     1708.2    0.35116E-01
 585.00     1709.9    0.32587E-01
 585.00     1711.5    0.28385E-01
 585.00     1713.2    0.34224E-01
 585.00     1713.6    0.20830E-01
 585.00     1714.9    0.30858E-01
 585.00     1716.1    0.28334E-01
 585.00     1716.5    0.35860E-01
 585.00     1718.2    0.37515E-01
 585.00     1719.0    0.34996E-01
 585.00     1720.7    0.34140E-01
 585.00     1722.4    0.40816E-01
 585.00     1724.5    0.40793E-01
 585.00     1725.3    0.48315E-01
 585.00     1725.7    0.38269E-01
 585.00     1727.0    0.44949E-01
 585.00     1728.2    0.50793E-01
 585.00     1730.3    0.46586E-01
 585.00     1731.1    0.49924E-01
 585.00     1732.0    0.52425E-01
 585.00     1732.4    0.64972E-01
 585.00     1733.3    0.59105E-01
 585.00     1734.5    0.49050E-01
 585.00     1735.3    0.53224E-01
 585.00     1736.2    0.59910E-01
 585.00     1737.0    0.57390E-01
 585.00     1738.7    0.60718E-01
 585.00     1739.1    0.67408E-01
 585.00     1739.9    0.69909E-01
 585.00     1740.4    0.82457E-01
 585.00     1741.6    0.78259E-01
 585.00     1742.5    0.82433E-01
 585.00     1743.7    0.86604E-01
 585.00     1745.0    0.84079E-01
 585.00     1746.2    0.81555E-01
 585.00     1747.4    0.72336E-01
 585.00     1749.1    0.69807E-01
 585.00     1749.5    0.63108E-01
 585.00     1750.7    0.56400E-01
 585.00     1751.5    0.43002E-01
 585.00     1752.3    0.36298E-01
 585.00     1754.0    0.39627E-01
 585.00     1755.3    0.49655E-01
 585.00     1757.0    0.74740E-01
 585.00     1758.8    0.11154
 585.00     1759.3    0.30475
 585.00     1760.6    0.42957
 585.00     1761.9     2.1025
 585.00     1763.0     6.3697
 585.00     1763.9     7.1223
 585.00     1764.9     2.6866
 585.00     1766.1     2.3512
 585.00     1766.9     1.2211
 585.00     1768.1    0.96932
 585.00     1768.9    0.67598
 585.00     1770.3     5.2835
 585.00     1770.6    0.59137
 585.00     1771.2     7.2072
 585.00     1772.5     11.808
 585.00     1773.7     10.050
 585.00     1774.4     4.8605
 585.00     1775.6     1.7629
 585.00     1777.7     1.5096
 585.00     1779.3     1.1730
 585.00     1781.4    0.91965
 585.00     1783.5    0.91734
 585.00     1785.1    0.99916
 585.00     1786.8    0.74627
 585.00     1789.3    0.82717
 585.00     1790.9    0.57428
 585.00     1792.6    0.57242
 585.00     1795.1    0.56964
 585.00     1796.8    0.56779
 585.00     1798.8    0.81651
 585.00     1799.8     5.5853
 585.00     1800.7     22.488
 585.00     1801.7     13.366
 585.00     1803.1     5.0795
 585.00     1803.5     2.6524
 585.00     1804.3     2.1494
 585.00     1805.1     1.7300
 585.00     1807.6     1.8109
 585.00     1808.5     2.2284
 585.00     1809.3     2.6459
 585.00     1810.2     3.9001
 585.00     1810.7     8.4184
 585.00     1812.0     9.2538
 585.00     1812.8     7.5793
 585.00     1813.9     4.1470
 585.00     1814.3     3.1424
 585.00     1816.0     2.7221
 585.00     1817.6     2.8040
 585.00     1818.9     2.8863
 585.00     1819.7     3.3037
 585.00     1821.0     3.5534
 585.00     1822.2     4.3051
 585.00     1823.5     5.1405
 585.00     1824.8     6.0596
 585.00     1826.1     7.3971
 585.00     1827.0     9.2371
 585.00     1828.3     11.160
 585.00     1829.7     20.029
 585.00     1829.9     12.163
 585.00     1831.4     18.270
 585.00     1832.6     16.176
 585.00     1834.1     10.484
 585.00     1834.4     7.8899
 585.00     1835.2     6.8848
 585.00     1836.0     5.7960
 585.00     1836.4     4.9588
 585.00     1837.2     4.2047
 585.00     1838.5     3.8686
 585.00     1840.1     3.4484
 585.00     1841.4     3.1959
 585.00     1842.2     2.8603
 585.00     1843.0     2.5247
 585.00     1844.7     2.7738
 975.00     1297.7    0.12563E-02
 975.00     1299.3    0.51678E-03
 975.00     1299.4    0.19453E-02
 975.00     1301.3    0.12807E-03
 975.00     1301.8    0.15503E-02
 975.00     1303.3    0.63222E-03
 975.00     1303.9    0.29473E-02
 975.00     1306.6    0.54095E-02
 975.00     1307.1    0.20040E-02
 975.00     1308.7    0.21573E-02
 975.00     1310.0    0.28527E-02
 975.00     1310.7    0.15900E-02
 975.00     1312.3    0.85049E-03
 975.00     1312.8    0.17370E-02
 975.00     1315.2    0.16992E-02
 975.00     1317.2    0.95331E-03
 975.00     1319.3    0.16360E-02
 975.00     1320.8    0.89650E-03
 975.00     1323.2    0.68006E-03
 975.00     1324.9    0.13691E-02
 975.00     1326.9    0.98039E-03
 975.00     1328.6    0.13123E-02
 975.00     1331.0    0.10958E-02
 975.00     1332.6    0.71344E-03
 975.00     1333.9    0.14088E-02
 975.00     1335.4    0.66925E-03
 975.00     1337.5    0.13520E-02
 975.00     1338.3    0.62506E-03
 975.00     1339.9    0.11355E-02
 975.00     1340.6    -.12710E-03
 975.00     1341.9    0.56825E-03
 975.00     1342.8    0.14485E-02
 975.00     1345.2    0.87490E-03
 975.00     1347.2    0.10219E-02
 975.00     1348.9    0.99665E-03
 975.00     1349.3    0.20618E-02
 975.00     1350.7    0.34714E-02
 975.00     1351.8    0.22025E-02
 975.00     1353.0    0.14692E-02
 975.00     1354.5    0.90828E-03
 975.00     1355.4    0.14314E-02
 975.00     1357.8    0.85778E-03
 975.00     1467.6    0.25126E-03
 975.00     1469.6    0.23419E-03
 975.00     1471.2    0.15000E-04
 975.00     1473.3    0.61449E-03
 975.00     1474.5    -.12324E-04
 975.00     1476.2    0.59058E-03
 975.00     1477.8    0.57692E-03
 975.00     1479.5    0.76878E-03
 975.00     1481.1    0.13855E-03
 975.00     1483.1    0.12147E-03
 975.00     1485.2    0.30992E-03
 975.00     1486.4    0.50519E-03
 975.00     1488.9    0.48470E-03
 975.00     1490.5    0.59991E-04
 975.00     1492.1    0.25185E-03
 975.00     1493.3    0.24161E-03
 975.00     1495.4    0.19004E-04
 975.00     1497.4    0.19258E-05
 975.00     1499.9    0.18696E-03
 975.00     1502.4    0.78303E-03
 975.00     1504.0    0.15280E-03
 975.00     1505.7    0.11668E-02
 975.00     1507.7    0.12206E-03
 975.00     1509.3    0.72497E-03
 975.00     1512.3    0.50171E-02
 975.00     1513.7    0.10145E-01
 975.00     1514.4    0.68497E-02
 975.00     1515.5    0.31400E-02
 975.00     1517.1    0.20987E-02
 975.00     1517.2    0.35374E-02
 975.00     1519.2    0.14651E-02
 975.00     1520.0    0.84169E-03
 975.00     1520.8    0.24790E-02
 975.00     1522.0    0.16467E-02
 975.00     1522.9    0.22564E-02
 975.00     1523.7    0.32772E-02
 975.00     1524.6    0.38870E-02
 975.00     1525.1    0.61443E-02
 975.00     1526.2    0.51065E-02
 975.00     1527.0    0.44831E-02
 975.00     1528.6    0.30307E-02
 975.00     1529.5    0.48736E-02
 975.00     1530.3    0.26060E-02
 975.00     1531.0    0.11605E-02
 975.00     1533.1    0.11434E-02
 975.00     1534.7    0.92425E-03
 975.00     1535.9    0.13251E-02
 975.00     1536.8    0.19348E-02
 975.00     1538.8    0.89009E-03
 975.00     1540.8    0.66749E-03
 975.00     1542.0    0.40673E-04
 975.00     1543.3    0.64700E-03
 975.00     1544.9    0.83886E-03
 975.00     1546.6    0.61967E-03
 975.00     1547.8    -.21267E-03
 975.00     1548.6    0.60260E-03
 975.00     1549.4    0.12123E-02
 975.00     1551.1    0.78763E-03
 975.00     1551.9    0.16422E-03
 975.00     1553.1    0.15926E-02
 975.00     1554.8    0.75689E-03
 975.00     1555.2    0.19866E-02
 975.00     1556.8    0.23840E-02
 975.00     1557.6    0.15551E-02
 975.00     1558.8    0.72273E-03
 975.00     1561.3    0.28089E-02
 975.00     1562.5    0.44121E-02
 975.00     1563.0    0.85090E-02
 975.00     1564.3    0.24088E-01
 975.00     1564.8    0.31473E-01
 975.00     1565.3    0.38858E-01
 975.00     1565.8    0.48710E-01
 975.00     1565.8    0.53642E-01
 975.00     1566.0    0.73373E-01
 975.00     1566.9    0.13419
 975.00     1568.4    0.21638
 975.00     1568.7    0.25337
 975.00     1569.1    0.20566
 975.00     1569.7    0.12999
 975.00     1570.4    0.59247E-01
 975.00     1571.8    0.33707E-01
 975.00     1572.1    0.27939E-01
 975.00     1572.5    0.22992E-01
 975.00     1573.2    0.11456E-01
 975.00     1574.4    0.89485E-02
 975.00     1575.7    0.72633E-02
 975.00     1577.3    0.63866E-02
 975.00     1578.5    0.38793E-02
 975.00     1579.7    0.38383E-02
 975.00     1580.9    0.37973E-02
 975.00     1581.0    0.36211E-02
 975.00     1582.2    0.29943E-02
 975.00     1582.6    0.53869E-02
 975.00     1584.3    0.21552E-02
 975.00     1585.1    0.13262E-02
 975.00     1586.3    0.15215E-02
 975.00     1586.7    0.19291E-02
 975.00     1587.8    0.11376E-01
 975.00     1588.8    0.47894E-02
 975.00     1588.9    0.76667E-02
 975.00     1589.6    0.29328E-02
 975.00     1590.8    0.21005E-02
 975.00     1592.0    0.16792E-02
 975.00     1593.6    0.10490E-02
 975.00     1594.9    0.30940E-02
 975.00     1596.1    0.16451E-02
 975.00     1598.2    0.22445E-02
 975.00     1599.4    0.28509E-02
 975.00     1600.2    0.11998E-02
 975.00     1602.2    0.97725E-03
 975.00     1603.1    0.24091E-02
 975.00     1605.1    0.23920E-02
 975.00     1606.8    0.25839E-02
 975.00     1607.9    0.72391E-03
 975.00     1609.2    0.17413E-02
 975.00     1611.7    0.15153E-02
 975.00     1613.0    0.35603E-02
 975.00     1614.2    0.29334E-02
 975.00     1615.4    0.25121E-02
 975.00     1617.0    0.33206E-02
 975.00     1617.9    0.37248E-02
 975.00     1619.9    0.28856E-02
 975.00     1620.7    0.41119E-02
 975.00     1622.0    0.55403E-02
 975.00     1623.2    0.49135E-02
 975.00     1623.7    0.55267E-02
 975.00     1625.2    0.40744E-02
 975.00     1625.7    0.63317E-02
 975.00     1626.9    0.50883E-02
 975.00     1627.8    0.77533E-02
 975.00     1628.2    0.69278E-02
 975.00     1629.7    0.10392E-01
 975.00     1630.1    0.14489E-01
 975.00     1630.6    0.18586E-01
 975.00     1631.9    0.31699E-01
 975.00     1632.8    0.36604E-01
 975.00     1634.0    0.32452E-01
 975.00     1634.4    0.38193E-01
 975.00     1635.2    0.86683E-01
 975.00     1636.4    0.12529
 975.00     1636.9    0.19353
 975.00     1638.6    0.19347
 975.00     1638.6    0.14085
 975.00     1639.7    0.87355E-01
 975.00     1640.3    0.52800E-01
 975.00     1642.5    0.26411E-01
 975.00     1643.3    0.16518E-01
 975.00     1644.8    0.10709E-01
 975.00     1645.8    0.71920E-02
 975.00     1646.0    0.73797E-02
 975.00     1646.5    0.13121E-01
 975.00     1647.0    0.47154E-02
 975.00     1647.0    0.65651E-02
 975.00     1648.1    0.30610E-02
 975.00     1649.8    0.34584E-02
 975.00     1649.8    0.55136E-02
 975.00     1651.8    0.38523E-02
 975.00     1651.9    0.48800E-02
 975.00     1653.0    0.28145E-02
 975.00     1655.5    0.23829E-02
 975.00     1657.5    0.11327E-02
 975.00     1659.1    0.21467E-02
 975.00     1659.9    0.90670E-03
 975.00     1661.2    0.17185E-02
 975.00     1662.8    0.12938E-02
 975.00     1664.1    0.27223E-02
 975.00     1665.7    0.14754E-02
 975.00     1667.7    0.22805E-02
 975.00     1668.5    0.10405E-02
 975.00     1670.6    0.30787E-02
 975.00     1671.4    0.16332E-02
 975.00     1673.0    0.18250E-02
 975.00     1674.3    0.14037E-02
 975.00     1675.9    0.15956E-02
 975.00     1677.5    0.13764E-02
 975.00     1678.4    0.26027E-02
 975.00     1679.6    0.15648E-02
 975.00     1680.8    0.52698E-03
 975.00     1682.1    0.27775E-02
 975.00     1683.3    0.19451E-02
 975.00     1684.1    0.91070E-03
 975.00     1685.4    0.29557E-02
 975.00     1686.5    0.17123E-02
 975.00     1688.6    0.23118E-02
 975.00     1689.8    0.18905E-02
 975.00     1691.1    0.27023E-02
 975.00     1692.3    0.33087E-02
 975.00     1694.4    0.32916E-02
 975.00     1695.2    0.26682E-02
 975.00     1696.0    0.38945E-02
 975.00     1697.3    0.59395E-02
 975.00     1697.8    0.88134E-02
 975.00     1698.6    0.18470E-01
 975.00     1699.3    0.40872E-01
 975.00     1700.4    0.50525E-01
 975.00     1700.7    0.46411E-01
 975.00     1701.6    0.35302E-01
 975.00     1702.6    0.17202E-01
 975.00     1703.9    0.75290E-02
 975.00     1704.3    0.54704E-02
 975.00     1705.9    0.50457E-02
 975.00     1707.5    0.54431E-02
 975.00     1709.1    0.33742E-02
 975.00     1710.4    0.43915E-02
 975.00     1712.0    0.39668E-02
 975.00     1713.6    0.35421E-02
 975.00     1713.7    0.49808E-02
 975.00     1715.3    0.49671E-02
 975.00     1715.7    0.57858E-02
 975.00     1716.9    0.45424E-02
 975.00     1718.2    0.55598E-02
 975.00     1720.3    0.61593E-02
 975.00     1720.6    0.45117E-02
 975.00     1722.7    0.53167E-02
 975.00     1724.4    0.65362E-02
 975.00     1725.6    0.59093E-02
 975.00     1726.8    0.56936E-02
 975.00     1727.2    0.71288E-02
 975.00     1728.9    0.64986E-02
 975.00     1730.1    0.79270E-02
 975.00     1731.3    0.66836E-02
 975.00     1732.2    0.81155E-02
 975.00     1733.8    0.72797E-02
 975.00     1734.2    0.83039E-02
 975.00     1735.0    0.74750E-02
 975.00     1735.4    0.64439E-02
 975.00     1737.0    0.60192E-02
 975.00     1737.9    0.68345E-02
 975.00     1738.3    0.86808E-02
 975.00     1739.1    0.74408E-02
 975.00     1740.4    0.96913E-02
 975.00     1741.2    0.78348E-02
 975.00     1741.9    0.47451E-02
 975.00     1742.0    0.65948E-02
 975.00     1744.0    0.63722E-02
 975.00     1745.1    0.41012E-02
 975.00     1746.3    0.24468E-02
 975.00     1748.0    0.30497E-02
 975.00     1749.6    0.20084E-02
 975.00     1751.2    0.13782E-02
 975.00     1752.4    0.11624E-02
 975.00     1753.6    0.74109E-03
 975.00     1754.5    0.11453E-02
 975.00     1755.7    0.23682E-02
 975.00     1757.8    0.21456E-02
 975.00     1759.0    0.37796E-02
 975.00     1759.9    0.52114E-02
 975.00     1761.2    0.60232E-02
 975.00     1762.4    0.18553E-01
 975.00     1763.9    0.51845E-01
 975.00     1764.9    0.56565E-01
 975.00     1765.9    0.38465E-01
 975.00     1766.9    0.30029E-01
 975.00     1767.9    0.24862E-01
 975.00     1767.9    0.23442E-01
 975.00     1769.6    0.48978E-01
 975.00     1770.4    0.81589E-01
 975.00     1771.8    0.23738
 975.00     1772.8    0.50017
 975.00     1774.0    0.36823
 975.00     1775.0    0.13763
 975.00     1776.1    0.22129E-01
 975.00     1778.2    0.21446E-01
 975.00     1780.2    0.12542E-01
 975.00     1782.3    0.20080E-01
 975.00     1783.9    0.11313E-01
 975.00     1785.5    0.27208E-01
 975.00     1787.6    0.18304E-01
 975.00     1789.6    0.17621E-01
 975.00     1791.7    0.16938E-01
 975.00     1792.9    0.16528E-01
 975.00     1794.9    0.15845E-01
 975.00     1796.6    0.15298E-01
 975.00     1798.6    0.22836E-01
 975.00     1800.3    0.63394E-01
 975.00     1800.8    0.15369
 975.00     1802.4    0.10382
 975.00     1802.7    0.37912E-01
 975.00     1805.2    0.28871E-01
 975.00     1807.3    0.52851E-01
 975.00     1808.5    0.85325E-01
 975.00     1809.4    0.13438
 975.00     1810.7    0.24084
 975.00     1810.8    0.39704
 975.00     1812.0    0.37197
 975.00     1813.6    0.32209
 975.00     1814.3    0.20673
 975.00     1815.1    0.16535
 975.00     1817.1    0.14000
 975.00     1818.8    0.15590
 975.00     1820.5    0.18001
 975.00     1821.7    0.18783
 975.00     1823.0    0.22852
 975.00     1823.8    0.30224
 975.00     1825.1    0.37581
 975.00     1826.0    0.49063
 975.00     1827.4    0.64642
 975.00     1828.7    0.76111
 975.00     1830.0    0.85935
 975.00     1831.2     1.3523
 975.00     1831.6     1.2535
 975.00     1833.1     1.0721
 975.00     1834.0    0.68534
 975.00     1835.1    0.51229
 975.00     1835.4    0.45461
 975.00     1836.2    0.37213
 975.00     1836.9    0.32253
 975.00     1838.1    0.26457
 975.00     1839.3    0.21483
 975.00     1840.1    0.18168
 975.00     1841.7    0.16469
 975.00     1842.5    0.13153
 975.00     1843.7    0.11468
 975.00     1844.9    0.10605
ENDDATA            969
ENDSUBENT          983
SUBENT        F0545006   20030807   20050616                  Y000
BIB                  3          7
REACTION   (12-MG-25(P,INL)12-MG-25,PAR,SIG)
ERR-ANALYS (EN-ERR-DIG) Digitizing error
           (ERR-DIG) Digitizing error
           (DATA-ERR1) The errors of a factor 2 in
           the experimental points originate from the errors
           in the target thickness
STATUS     (CURVE) Fig.5
ENDBIB               7
COMMON               3          3
E-LVL      EN-ERR-DIG ERR-DIG
KEV        MEV        PER-CENT
  585.0      0.001      0.2
ENDCOMMON            3
DATA                 3         14
EN         DATA       DATA-ERR1
KEV        MB         MB
0.92525    0.10553E-030.94418E-04
0.94340    0.46354E-040.34248E-04
 1.0224    0.69958E-030.51687E-03
 1.0632    0.55101E-030.49262E-03
 1.0839    0.94613E-030.80813E-03
 1.2709    0.44019    0.20778
 1.2918    0.72435    0.97289
 1.3363    0.14326    0.11677
 1.3430    0.34380    0.30712
 1.6294     1.5420    0.77821
 1.6494    0.67786    0.69065
 1.6790    0.18730    0.18287
 1.7132    0.16021    0.14323
 1.7734    0.38470    0.32832
ENDDATA             16
ENDSUBENT           32
ENDENTRY             6
