ENTRY            F0551   20030421   20030930
SUBENT        F0551001   20030421   20030930
BIB                  9         16
TITLE      Resonances in low energy 40Ca(a,a)-scattering and
           quasimolecular band in 44Ti
AUTHOR     (D.FREKERS,H.EICKHOFF,H.LOHNER,K.POPPENSIEKER,R.SANTO,
           C.WIEZOREK)
INSTITUTE  (2GERMST)
REFERENCE  (J,ZP/A,276,317,1976)
FACILITY   (DYNAM) Dynamitron-Tandem-Accelerator in Bochum
DETECTOR   (SIBAR) The 22 cm Ortec scattering chamber with 6
           surface barrier detectors and one monitor counter
SAMPLE     The targets consisted of about 13 mu-g/cm**2 40Ca and
           10 mu-g/cm**2 gold evaporated on each side of a
           26 mu-g/cm**2 carbon backing
ERR-ANALYS (ERR-S) Statistical error
           (ERR-T) Absolute error is mainly due to uncertainty in
           target thickness
HISTORY    (20010510C)
ENDBIB              16
COMMON               2          3
ERR-S      ERR-T
PER-CENT   PER-CENT
  6.0        15.0
ENDCOMMON            3
ENDSUBENT           23
SUBENT        F0551002   20030421   20030930
BIB                  3          4
REACTION   (20-CA-40(A,EL)20-CA-40,,DA,,RTH)
ERR-ANALYS (ANG-ERR) Digitizing error
           (DATA-ERR) Digitizing error
STATUS     (CURVE) Fig.1
ENDBIB               4
COMMON               2          3
ANG-ERR    DATA-ERR
ADEG       PER-CENT
 1.          0.3
ENDCOMMON            3
DATA                 3       1222
EN         ANG-CM     DATA-CM
MEV        ADEG       NO-DIM
  7.035      42.33     0.8339
  7.035      54.13     0.9938
  7.035      59.67     0.9465
  7.035      64.85     0.8585
  7.035      73.39     0.7525
  7.035      76.72     0.7561
  7.035      80.83     0.7824
  7.035      85.95     0.7672
  7.035      90.92     0.7096
  7.035      96.11     0.8458
  7.035      99.82     0.8751
  7.035      103.7     0.8967
  7.035      110.7     0.8581
  7.035      114.7     0.7976
  7.035      119.4     0.8374
  7.035      123.6     0.7596
  7.035      126.0     0.7449
  7.035      130.2     0.6756
  7.035      133.6     0.7233
  7.035      137.3     0.8538
  7.035      140.4     0.6465
  7.035      144.1     0.7198
  7.035      147.7     0.6690
  7.035      151.7     0.7447
  7.035      154.3     0.7520
  7.035      158.1     0.8051
  7.035      161.7     0.8090
  7.035      165.1     0.9319
  7.035      167.8      1.008
  7.035      171.5      1.022
  7.135      43.11     0.8204
  7.135      64.32     0.9224
  7.135      73.96     0.8363
  7.135      78.68     0.8241
  7.135      81.44     0.8121
  7.135      95.79     0.7962
  7.135      104.8     0.8159
  7.135      108.8     0.7846
  7.135      110.7     0.8402
  7.135      111.7     0.7731
  7.135      119.2     0.6450
  7.135      123.3     0.6264
  7.135      124.9     0.6545
  7.135      125.9     0.6202
  7.135      133.4     0.5150
  7.135      137.7     0.5025
  7.135      139.1     0.5488
  7.135      140.3     0.4952
  7.135      147.9     0.5277
  7.135      151.5     0.5302
  7.135      153.2     0.5790
  7.135      154.2     0.5381
  7.135      161.7     0.5904
  7.135      165.0     0.7146
  7.135      167.7     0.7504
  7.150      43.63     0.8116
  7.150      65.06     0.9510
  7.150      74.89     0.9150
  7.150      79.01     0.8679
  7.150      82.15     0.8311
  7.150      96.30     0.7440
  7.150      105.3     0.6693
  7.150      108.9     0.6471
  7.150      111.8     0.6565
  7.150      120.1     0.6855
  7.150      123.4     0.6628
  7.150      125.0     0.6347
  7.150      126.8     0.6439
  7.150      133.8     0.5991
  7.150      137.8     0.5287
  7.150      139.5     0.5737
  7.150      140.7     0.4734
  7.150      148.2     0.5236
  7.150      151.7     0.4942
  7.150      153.5     0.5211
  7.150      154.9     0.5014
  7.150      162.3     0.5904
  7.150      165.9     0.7190
  7.150      168.6     0.7953
  7.165      42.85     0.8138
  7.165      59.34     0.9782
  7.165      64.25     0.9877
  7.165      69.75      1.002
  7.165      73.88     0.9687
  7.165      78.22     0.8791
  7.165      81.38     0.7940
  7.165      85.34     0.6415
  7.165      90.65     0.6201
  7.165      95.57     0.5993
  7.165      100.9     0.5710
  7.165      104.6     0.5878
  7.165      105.4     0.6383
  7.165      108.1     0.6507
  7.165      110.5     0.6798
  7.165      111.3     0.6635
  7.165      115.0     0.6830
  7.165      118.9     0.6930
  7.165      120.7     0.6897
  7.165      123.1     0.6930
  7.165      125.0     0.6930
  7.165      125.6     0.6570
  7.165      129.6     0.6320
  7.165      133.1     0.6289
  7.165      134.3     0.6381
  7.165      137.2     0.5708
  7.165      139.0     0.5438
  7.165      139.8     0.5282
  7.165      144.1     0.4935
  7.165      147.5     0.5105
  7.165      149.6     0.4959
  7.165      151.4     0.5007
  7.165      154.0     0.4863
  7.165      157.9     0.4910
  7.165      161.6     0.5104
  7.165      165.1     0.6019
  7.165      167.9     0.6860
  7.165      171.6     0.5790
  7.170      42.92     0.8181
  7.170      58.72      1.010
  7.170      63.76      1.021
  7.170      69.00      1.026
  7.170      73.53     0.9227
  7.170      77.46     0.8500
  7.170      80.80     0.7829
  7.170      84.82     0.6114
  7.170      89.92     0.5606
  7.170      94.94     0.5888
  7.170      99.64     0.5478
  7.170      103.6     0.6340
  7.170      104.6     0.6219
  7.170      107.3     0.6562
  7.170      109.0     0.7198
  7.170      110.2     0.6792
  7.170      113.9     0.6894
  7.170      117.6     0.7067
  7.170      118.5     0.7242
  7.170      121.2     0.7386
  7.170      123.0     0.7038
  7.170      124.6     0.6804
  7.170      128.5     0.6058
  7.170      132.0     0.5829
  7.170      132.9     0.6745
  7.170      135.6     0.5292
  7.170      137.7     0.5721
  7.170      138.7     0.5450
  7.170      142.7     0.4512
  7.170      145.9     0.4761
  7.170      147.1     0.4809
  7.170      149.5     0.4343
  7.170      151.4     0.4561
  7.170      152.3     0.4742
  7.170      156.3     0.4432
  7.170      159.8     0.4456
  7.170      163.3     0.5656
  7.170      166.0     0.6235
  7.170      169.8     0.5013
  7.175      43.22     0.8008
  7.175      59.52      1.014
  7.175      64.39      1.038
  7.175      69.67     0.9937
  7.175      74.21     0.8780
  7.175      78.35     0.7795
  7.175      81.52     0.6986
  7.175      85.49     0.5804
  7.175      90.40     0.5402
  7.175      95.68     0.5248
  7.175      100.5     0.5879
  7.175      104.8     0.6340
  7.175      108.1     0.6773
  7.175      110.4     0.6902
  7.175      111.2     0.7168
  7.175      115.3     0.7064
  7.175      119.2     0.7061
  7.175      119.8     0.6961
  7.175      122.9     0.6605
  7.175      124.5     0.6636
  7.175      125.4     0.6635
  7.175      129.4     0.5807
  7.175      133.3     0.5589
  7.175      134.3     0.5695
  7.175      137.1     0.4845
  7.175      138.8     0.5177
  7.175      139.8     0.4554
  7.175      143.6     0.4121
  7.175      147.3     0.3854
  7.175      147.9     0.4022
  7.175      151.0     0.4401
  7.175      152.6     0.3908
  7.175      153.9     0.3926
  7.175      157.6     0.4398
  7.175      160.9     0.4417
  7.175      164.8     0.5067
  7.175      166.9     0.5115
  7.175      171.0     0.5703
  7.180      42.70     0.8079
  7.180      58.15      1.061
  7.180      64.03      1.066
  7.180      69.52      1.011
  7.180      74.72     0.8406
  7.180      78.09     0.7338
  7.180      81.27     0.6627
  7.180      85.50     0.5174
  7.180      90.57     0.5225
  7.180      95.98     0.5815
  7.180      100.2     0.6194
  7.180      104.5     0.6567
  7.180      108.4     0.7237
  7.180      110.2     0.7064
  7.180      111.1     0.7380
  7.180      116.0     0.7417
  7.180      119.1     0.7032
  7.180      122.5     0.6897
  7.180      124.1     0.6289
  7.180      125.0     0.6259
  7.180      129.0     0.6021
  7.180      133.8     0.5385
  7.180      134.6     0.4723
  7.180      137.5     0.5056
  7.180      138.5     0.4478
  7.180      139.2     0.5056
  7.180      143.3     0.4123
  7.180      148.0     0.4064
  7.180      148.4     0.3635
  7.180      149.7     0.3834
  7.180      150.6     0.3798
  7.180      152.1     0.4502
  7.180      153.4     0.3968
  7.180      157.3     0.4007
  7.180      160.7     0.4843
  7.180      164.2     0.4374
  7.180      166.6     0.5686
  7.180      170.6     0.5443
  7.185      43.39     0.8161
  7.185      59.74      1.070
  7.185      64.83      1.028
  7.185      69.92     0.9416
  7.185      74.24     0.7892
  7.185      78.55     0.7154
  7.185      81.89     0.6175
  7.185      85.25     0.4927
  7.185      90.90     0.5151
  7.185      95.57     0.5739
  7.185      100.6     0.6716
  7.185      105.1     0.7483
  7.185      108.0     0.7520
  7.185      110.4     0.7632
  7.185      111.3     0.7411
  7.185      115.4     0.7522
  7.185      119.3     0.7376
  7.185      120.5     0.7233
  7.185      123.1     0.6687
  7.185      125.2     0.6062
  7.185      126.4     0.6033
  7.185      129.8     0.4957
  7.185      133.5     0.4606
  7.185      134.8     0.5032
  7.185      137.2     0.3841
  7.185      139.0     0.3879
  7.185      140.0     0.3569
  7.185      144.3     0.3172
  7.185      147.6     0.2947
  7.185      148.4     0.3517
  7.185      151.1     0.3316
  7.185      153.4     0.3317
  7.185      154.0     0.3570
  7.185      157.9     0.4261
  7.185      161.6     0.5135
  7.185      165.5     0.5289
  7.185      167.8     0.5722
  7.185      171.5     0.6251
  7.195      41.52     0.7845
  7.195      57.64     0.9831
  7.195      62.72     0.9880
  7.195      68.04     0.8476
  7.195      72.02     0.6932
  7.195      76.75     0.6209
  7.195      79.51     0.5669
  7.195      83.63     0.5456
  7.195      89.09     0.5563
  7.195      93.66     0.7633
  7.195      98.91     0.8009
  7.195      102.8     0.8816
  7.195      104.0     0.8283
  7.195      106.7     0.8732
  7.195      108.8     0.9206
  7.195      109.6     0.8364
  7.195      113.6     0.7898
  7.195      117.5     0.7457
  7.195      118.5     0.6874
  7.195      121.3     0.6216
  7.195      123.3     0.5410
  7.195      124.0     0.5594
  7.195      127.8     0.4117
  7.195      131.8     0.3705
  7.195      133.0     0.3832
  7.195      135.6     0.3045
  7.195      137.6     0.2675
  7.195      138.8     0.2575
  7.195      142.5     0.2562
  7.195      146.2     0.2514
  7.195      147.2     0.2514
  7.195      150.0     0.3226
  7.195      150.9     0.3517
  7.195      152.3     0.3602
  7.195      156.1     0.4301
  7.195      159.7     0.5846
  7.195      163.2     0.5903
  7.195      165.9     0.6982
  7.195      169.9     0.7648
  7.200      41.18     0.7833
  7.200      56.84      1.047
  7.200      62.18     0.9236
  7.200      67.72     0.7991
  7.200      83.49     0.5954
  7.200      88.34     0.6371
  7.200      93.54     0.7295
  7.200      98.51     0.8808
  7.200      103.4     0.9113
  7.200      108.3     0.8939
  7.200      113.0     0.7809
  7.200      117.8     0.7023
  7.200      122.8     0.5597
  7.200      127.9     0.3731
  7.200      132.4     0.3339
  7.200      137.4     0.2700
  7.200      142.3     0.2475
  7.200      146.8     0.2662
  7.200      151.5     0.3406
  7.200      156.0     0.4917
  7.200      169.0     0.8572
  7.205      43.41     0.8044
  7.205      59.76      1.043
  7.205      65.25     0.9118
  7.205      74.68     0.6805
  7.205      78.61     0.6007
  7.205      81.54     0.5979
  7.205      85.83     0.6184
  7.205      90.88     0.6775
  7.205      96.12     0.7939
  7.205      104.5     0.9127
  7.205      106.2     0.9128
  7.205      108.8     0.8742
  7.205      111.1     0.9129
  7.205      111.9     0.8254
  7.205      115.7     0.7427
  7.205      119.2     0.6683
  7.205      120.8     0.6130
  7.205      123.3     0.5308
  7.205      124.9     0.5011
  7.205      126.7     0.5109
  7.205      130.0     0.3942
  7.205      133.8     0.3223
  7.205      135.0     0.3042
  7.205      137.5     0.2886
  7.205      139.3     0.2711
  7.205      140.3     0.2560
  7.205      144.1     0.3193
  7.205      147.8     0.3286
  7.205      148.6     0.2901
  7.205      151.9     0.3653
  7.205      153.5     0.3635
  7.205      154.4     0.4578
  7.205      158.1     0.5765
  7.205      161.6     0.6658
  7.205      165.4     0.7953
  7.205      168.1     0.9455
  7.205      171.8     0.9365
  7.210      42.58     0.7723
  7.210      58.76      1.034
  7.210      63.75     0.8959
  7.210      69.15     0.7582
  7.210      85.05     0.6732
  7.210      89.86     0.7337
  7.210      95.01     0.8589
  7.210      99.88     0.8714
  7.210      104.6     0.8840
  7.210      109.9     0.8270
  7.210      114.9     0.7341
  7.210      119.7     0.5896
  7.210      124.7     0.4826
  7.210      129.5     0.4104
  7.210      134.0     0.3490
  7.210      138.7     0.3375
  7.210      143.3     0.3803
  7.210      148.3     0.3822
  7.210      152.8     0.5287
  7.210      156.9     0.6680
  7.210      170.5     0.9882
  7.215      42.23     0.7952
  7.215      58.32     0.9873
  7.215      63.85     0.8783
  7.215      73.34     0.7191
  7.215      77.68     0.6717
  7.215      80.62     0.6621
  7.215      84.51     0.6753
  7.215      89.92     0.7487
  7.215      94.74     0.8340
  7.215      103.9     0.8807
  7.215      104.5     0.8470
  7.215      107.2     0.8554
  7.215      109.8     0.8308
  7.215      111.0     0.7951
  7.215      115.0     0.6702
  7.215      118.7     0.6384
  7.215      119.9     0.5903
  7.215      122.7     0.5762
  7.215      124.5     0.5074
  7.215      125.7     0.4602
  7.215      129.7     0.4298
  7.215      133.7     0.3641
  7.215      137.3     0.3302
  7.215      138.6     0.3485
  7.215      140.2     0.3319
  7.215      143.4     0.3789
  7.215      147.6     0.4432
  7.215      151.1     0.4937
  7.215      152.2     0.5210
  7.215      157.2     0.6369
  7.215      160.5     0.8799
  7.215      164.4     0.9019
  7.215      166.5      1.035
  7.215      170.4     0.9806
  7.225      40.96     0.7965
  7.225      57.07      1.016
  7.225      62.22     0.8678
  7.225      67.52     0.7980
  7.225      72.04     0.7375
  7.225      76.36     0.7020
  7.225      78.90     0.6952
  7.225      83.21     0.6751
  7.225      88.27     0.7096
  7.225      93.12     0.7684
  7.225      98.18     0.8157
  7.225      102.7     0.7727
  7.225      106.2     0.7653
  7.225      108.2     0.7106
  7.225      109.3     0.7542
  7.225      112.9     0.6765
  7.225      117.7     0.5719
  7.225      121.0     0.5525
  7.225      122.8     0.4422
  7.225      124.2     0.4670
  7.225      128.0     0.3889
  7.225      131.7     0.3437
  7.225      132.8     0.3871
  7.225      135.4     0.3455
  7.225      137.6     0.3613
  7.225      138.5     0.3778
  7.225      141.8     0.3951
  7.225      145.5     0.4518
  7.225      146.7     0.4474
  7.225      149.3     0.5428
  7.225      151.2     0.6488
  7.225      155.4     0.7418
  7.225      158.9     0.9090
  7.225      162.9     0.9746
  7.225      165.3      1.076
  7.225      169.1      1.131
  7.230      41.07     0.8150
  7.230      57.40     0.9894
  7.230      62.51     0.9163
  7.230      67.64     0.8009
  7.230      71.96     0.7635
  7.230      76.28     0.7104
  7.230      79.01     0.7279
  7.230      83.35     0.6549
  7.230      88.38     0.7390
  7.230      93.22     0.8140
  7.230      98.72     0.7467
  7.230      102.6     0.7990
  7.230      103.6     0.7688
  7.230      106.7     0.7293
  7.230      109.5     0.7155
  7.230      113.9     0.5960
  7.230      117.6     0.5387
  7.230      118.8     0.5546
  7.230      121.2     0.4917
  7.230      123.0     0.4575
  7.230      124.3     0.4381
  7.230      128.1     0.3494
  7.230      131.9     0.3205
  7.230      132.8     0.3563
  7.230      135.2     0.3364
  7.230      136.9     0.3530
  7.230      138.5     0.3777
  7.230      142.2     0.3945
  7.230      145.8     0.4997
  7.230      146.8     0.4717
  7.230      149.4     0.5693
  7.230      151.1     0.6392
  7.230      152.3     0.6612
  7.230      155.7     0.8497
  7.230      159.5      1.021
  7.230      162.8      1.163
  7.230      165.5      1.197
  7.230      169.2      1.319
  7.240      41.02     0.8304
  7.240      57.15     0.9696
  7.240      62.46     0.9024
  7.240      67.58     0.8359
  7.240      72.33     0.7415
  7.240      76.27     0.6935
  7.240      79.01     0.6936
  7.240      83.55     0.6333
  7.240      88.35     0.7388
  7.240      93.60     0.7717
  7.240      98.69     0.7573
  7.240      102.6     0.7324
  7.240      103.9     0.7835
  7.240      106.5     0.6949
  7.240      108.3     0.6498
  7.240      109.9     0.6530
  7.240      113.3     0.5389
  7.240      117.3     0.4991
  7.240      118.4     0.4992
  7.240      121.5     0.4159
  7.240      123.5     0.3689
  7.240      128.0     0.3368
  7.240      132.3     0.3434
  7.240      136.0     0.3728
  7.240      137.7     0.4245
  7.240      138.6     0.3519
  7.240      142.1     0.4563
  7.240      145.7     0.5506
  7.240      146.7     0.5173
  7.240      149.2     0.6005
  7.240      150.8     0.8287
  7.240      152.0     0.7823
  7.240      155.8     0.9393
  7.240      159.2      1.248
  7.240      162.6      1.407
  7.240      165.3      1.520
  7.240      168.8      1.542
  7.247      42.36     0.8329
  7.247      58.56     0.9497
  7.247      63.44     0.9010
  7.247      68.53     0.8344
  7.247      80.27     0.6626
  7.247      84.18     0.6439
  7.247      89.24     0.7372
  7.247      94.32     0.7269
  7.247      99.40     0.7449
  7.247      104.5     0.7101
  7.247      109.6     0.6001
  7.247      110.7     0.5830
  7.247      114.7     0.4786
  7.247      119.2     0.4244
  7.247      124.1     0.3746
  7.247      125.0     0.3950
  7.247      128.8     0.3605
  7.247      133.2     0.3952
  7.247      137.7     0.4070
  7.247      139.1     0.4911
  7.247      142.8     0.6044
  7.247      147.1     0.6016
  7.247      151.7     0.7368
  7.247      152.9     0.9287
  7.247      156.8      1.137
  7.247      166.7      1.731
  7.247      170.2      1.740
  7.255      42.77     0.8226
  7.255      58.91     0.9698
  7.255      64.61     0.8812
  7.255      69.33     0.8123
  7.255      73.49     0.7136
  7.255      77.81     0.6771
  7.255      80.94     0.6643
  7.255      85.27     0.6123
  7.255      90.10     0.6875
  7.255      95.14     0.7571
  7.255      100.4     0.7323
  7.255      104.5     0.7015
  7.255      105.7     0.6783
  7.255      108.7     0.6163
  7.255      110.7     0.5818
  7.255      112.1     0.5388
  7.255      115.3     0.4489
  7.255      119.1     0.4920
  7.255      120.0     0.4280
  7.255      122.5     0.4239
  7.255      124.5     0.4240
  7.255      125.8     0.4281
  7.255      129.9     0.4472
  7.255      133.2     0.5318
  7.255      134.4     0.4949
  7.255      137.2     0.6325
  7.255      138.9     0.7854
  7.255      140.1     0.7032
  7.255      143.7     0.8650
  7.255      147.3      1.054
  7.255      148.2     0.9389
  7.255      151.0      1.200
  7.255      153.3      1.303
  7.255      157.5      1.505
  7.255      160.8      1.816
  7.255      164.5      1.990
  7.255      167.4      2.160
  7.255      170.5      2.224
  7.260      42.05     0.8320
  7.260      70.66     0.7919
  7.260      74.75     0.7078
  7.260      78.84     0.6482
  7.260      82.13     0.6974
  7.260      101.2     0.7005
  7.260      105.0     0.7038
  7.260      108.8     0.5933
  7.260      111.9     0.5487
  7.260      115.4     0.4717
  7.260      119.3     0.4558
  7.260      123.4     0.4215
  7.260      125.9     0.4647
  7.260      129.5     0.6257
  7.260      133.4     0.6601
  7.260      137.5     0.7313
  7.260      140.4     0.7944
  7.260      143.8      1.118
  7.260      147.3      1.179
  7.260      151.0      1.281
  7.260      153.7      1.542
  7.260      157.1      1.865
  7.260      160.6      2.036
  7.260      164.1      1.977
  7.260      166.4      2.356
  7.265      41.79     0.8404
  7.265      58.83     0.9882
  7.265      63.94     0.8694
  7.265      69.23     0.7839
  7.265      74.73     0.7210
  7.265      78.95     0.6729
  7.265      81.74     0.6930
  7.265      86.06     0.6280
  7.265      91.05     0.7101
  7.265      96.48     0.7644
  7.265      101.8     0.6859
  7.265      105.8     0.6960
  7.265      106.8     0.6691
  7.265      109.8     0.6005
  7.265      111.6     0.5716
  7.265      116.3     0.5205
  7.265      119.8     0.4834
  7.265      121.6     0.4403
  7.265      123.9     0.5128
  7.265      125.9     0.4424
  7.265      126.8     0.5204
  7.265      130.6     0.5741
  7.265      134.6     0.6921
  7.265      137.6     0.8764
  7.265      140.3     0.8678
  7.265      140.6     0.9766
  7.265      144.5      1.132
  7.265      148.1      1.312
  7.265      148.9      1.255
  7.265      151.9      1.440
  7.265      154.2      1.505
  7.265      157.6      1.788
  7.265      161.3      2.082
  7.265      164.5      2.220
  7.265      167.2      2.209
  7.265      170.8      2.144
  7.270      42.98     0.8589
  7.270      58.69     0.9188
  7.270      64.14     0.8838
  7.270      69.40     0.7906
  7.270      73.90     0.7004
  7.270      77.39     0.7141
  7.270      80.89     0.6869
  7.270      84.78     0.6608
  7.270      90.00     0.7278
  7.270      94.65     0.7787
  7.270      99.72     0.7102
  7.270      103.4     0.6999
  7.270      104.6     0.6733
  7.270      106.9     0.6083
  7.270      109.1     0.6112
  7.270      110.1     0.5739
  7.270      113.9     0.5628
  7.270      118.0     0.5601
  7.270      121.1     0.5466
  7.270      123.2     0.6475
  7.270      124.2     0.5849
  7.270      128.1     0.6730
  7.270      131.9     0.7413
  7.270      132.9     0.7932
  7.270      135.4     0.9766
  7.270      137.7      1.020
  7.270      138.5     0.9671
  7.270      142.3      1.173
  7.270      146.4      1.337
  7.270      149.3      1.494
  7.270      150.6      1.599
  7.270      152.1      1.686
  7.270      155.6      1.867
  7.270      159.3      1.978
  7.270      163.2      2.232
  7.270      165.3      2.354
  7.270      169.2      2.377
  7.280      42.30     0.8291
  7.280      58.22     0.9356
  7.280      65.47     0.8956
  7.280      70.52     0.7742
  7.280      75.19     0.6992
  7.280      79.07     0.6824
  7.280      82.18     0.7162
  7.280      86.26     0.6563
  7.280      90.91     0.7337
  7.280      96.15     0.7889
  7.280      101.2     0.7515
  7.280      105.3     0.6919
  7.280      106.4     0.7089
  7.280      108.8     0.6528
  7.280      110.5     0.6655
  7.280      112.5     0.6591
  7.280      115.8     0.5838
  7.280      119.7     0.5454
  7.280      121.2     0.5725
  7.280      123.5     0.5865
  7.280      125.3     0.6589
  7.280      126.3     0.6525
  7.280      129.7     0.7224
  7.280      133.2     0.8274
  7.280      134.8     0.8559
  7.280      137.5     0.9071
  7.280      139.0      1.054
  7.280      140.2      1.019
  7.280      143.7      1.123
  7.280      147.2      1.298
  7.280      148.4      1.376
  7.280      151.1      1.410
  7.280      152.6      1.630
  7.280      153.2      1.509
  7.280      156.9      1.695
  7.280      160.4      1.822
  7.280      164.3      2.047
  7.280      166.8      2.118
  7.280      170.3      2.191
  7.285      43.90     0.8519
  7.285      59.62     0.8810
  7.285      65.25     0.8766
  7.285      70.32     0.7800
  7.285      74.61     0.7251
  7.285      78.68     0.7393
  7.285      81.60     0.7145
  7.285      85.88     0.6806
  7.285      90.91     0.7573
  7.285      95.56     0.8105
  7.285      100.6     0.7571
  7.285      104.7     0.7038
  7.285      105.7     0.7460
  7.285      108.2     0.6835
  7.285      110.2     0.6639
  7.285      111.3     0.6354
  7.285      114.6     0.5710
  7.285      118.7     0.5737
  7.285      119.9     0.5849
  7.285      122.6     0.6261
  7.285      124.3     0.6636
  7.285      125.5     0.6832
  7.285      129.2     0.7172
  7.285      133.4     0.8216
  7.285      136.7     0.9413
  7.285      138.6     0.9597
  7.285      139.6      1.058
  7.285      142.9      1.073
  7.285      146.4      1.260
  7.285      148.1      1.284
  7.285      150.8      1.443
  7.285      152.5      1.415
  7.285      156.6      1.485
  7.285      160.3      1.621
  7.285      163.8      1.893
  7.285      166.1      1.940
  7.285      170.0      1.710
  7.295      43.49     0.8473
  7.295      58.98     0.9450
  7.295      64.45     0.8667
  7.295      69.53     0.7988
  7.295      78.50     0.7290
  7.295      80.82     0.7429
  7.295      85.31     0.7148
  7.295      90.31     0.8016
  7.295      95.36     0.8014
  7.295      100.4     0.7280
  7.295      105.5     0.6971
  7.295      108.2     0.6740
  7.295      110.0     0.6740
  7.295      111.0     0.6272
  7.295      115.1     0.6064
  7.295      119.9     0.6576
  7.295      122.4     0.6670
  7.295      124.4     0.6766
  7.295      125.3     0.6963
  7.295      129.0     0.7660
  7.295      133.8     0.8756
  7.295      136.3     0.9140
  7.295      138.4     0.9726
  7.295      139.1      1.020
  7.295      142.9     0.9585
  7.295      147.4      1.177
  7.295      149.9      1.223
  7.295      152.5      1.240
  7.295      156.5      1.228
  7.295      163.5      1.487
  7.295      166.0      1.523
  7.295      169.9      1.357
  7.300      42.70     0.8284
  7.300      58.65     0.9279
  7.300      63.97     0.8717
  7.300      69.70     0.7840
  7.300      73.99     0.7997
  7.300      77.73     0.7585
  7.300      80.85     0.7661
  7.300      85.22     0.6956
  7.300      90.25     0.7449
  7.300      95.15     0.7346
  7.300      100.5     0.6901
  7.300      104.2     0.7073
  7.300      104.8     0.6642
  7.300      107.7     0.6774
  7.300      110.0     0.7322
  7.300      110.8     0.6809
  7.300      114.9     0.6912
  7.300      118.4     0.7259
  7.300      119.8     0.6589
  7.300      122.5     0.7192
  7.300      124.4     0.7965
  7.300      125.4     0.7515
  7.300      129.1     0.7703
  7.300      132.8     0.8658
  7.300      136.1     0.8873
  7.300      139.4     0.9228
  7.300      143.3     0.9187
  7.300      146.5      1.013
  7.300      147.7      1.063
  7.300      150.8      1.095
  7.300      151.8      1.053
  7.300      153.1      1.079
  7.300      157.0      1.139
  7.300      160.4      1.280
  7.300      163.9      1.364
  7.300      166.4      1.398
  7.300      170.6      1.276
  7.307      42.71     0.8339
  7.307      58.67     0.9261
  7.307      64.00     0.8483
  7.307      77.73     0.7740
  7.307      80.86     0.7705
  7.307      85.04     0.6852
  7.307      90.89     0.7272
  7.307      95.33     0.7568
  7.307      100.3     0.7035
  7.307      104.7     0.7284
  7.307      107.5     0.7110
  7.307      110.0     0.6872
  7.307      114.9     0.7328
  7.307      119.4     0.7368
  7.307      122.7     0.7554
  7.307      125.4     0.7936
  7.307      129.3     0.8097
  7.307      134.0     0.8344
  7.307      136.7     0.8224
  7.307      138.6     0.9391
  7.307      139.8     0.9120
  7.307      143.7     0.8816
  7.307      148.1     0.9588
  7.307      150.6      1.012
  7.307      152.4      1.043
  7.307      153.4     0.9641
  7.307      157.3      1.074
  7.307      164.6      1.283
  7.307      167.1      1.315
  7.307      170.8      1.259
  7.315      42.86     0.8318
  7.315      58.85     0.9438
  7.315      64.33     0.8959
  7.315      69.63     0.8343
  7.315      73.94     0.7995
  7.315      77.87     0.7624
  7.315      81.00     0.7375
  7.315      85.12     0.6966
  7.315      90.00     0.7242
  7.315      95.45     0.7712
  7.315      100.2     0.7320
  7.315      104.6     0.7720
  7.315      108.0     0.7153
  7.315      111.3     0.7579
  7.315      115.0     0.7474
  7.315      118.5     0.7230
  7.315      119.7     0.7696
  7.315      122.6     0.7961
  7.315      125.3     0.7664
  7.315      129.3     0.7486
  7.315      132.6     0.8047
  7.315      134.3     0.7858
  7.315      136.7     0.8206
  7.315      139.8     0.8209
  7.315      143.3     0.8173
  7.315      146.6     0.8536
  7.315      150.7     0.9002
  7.315      153.0     0.9401
  7.315      157.5     0.9634
  7.315      160.8      1.066
  7.315      164.1      1.118
  7.315      167.0      1.174
  7.315      170.9      1.169
  7.325      42.78     0.8320
  7.325      58.72     0.9399
  7.325      64.04     0.8835
  7.325      69.15     0.8425
  7.325      73.86     0.8229
  7.325      77.80     0.7922
  7.325      80.97     0.7409
  7.325      85.50     0.7031
  7.325      90.14     0.7561
  7.325      94.99     0.7899
  7.325      100.2     0.7009
  7.325      104.1     0.7148
  7.325      105.2     0.7501
  7.325      107.5     0.7431
  7.325      109.6     0.7950
  7.325      110.9     0.7051
  7.325      114.6     0.6920
  7.325      118.9     0.7476
  7.325      119.5     0.7126
  7.325      122.4     0.6926
  7.325      124.1     0.7849
  7.325      125.3     0.7200
  7.325      128.8     0.7342
  7.325      133.4     0.7172
  7.325      134.9     0.7561
  7.325      136.2     0.7673
  7.325      138.8     0.7976
  7.325      139.8     0.7639
  7.325      143.2     0.8333
  7.325      147.1     0.8417
  7.325      148.1     0.8101
  7.325      150.6     0.8543
  7.325      152.7     0.8837
  7.325      153.5     0.8587
  7.325      157.4     0.9144
  7.325      160.6      1.114
  7.325      164.3      1.175
  7.325      167.2      1.164
  7.325      170.8      1.099
  7.330      41.89     0.8458
  7.330      58.31     0.9520
  7.330      63.38     0.9163
  7.330      68.85     0.8949
  7.330      73.15     0.8205
  7.330      77.25     0.7633
  7.330      80.18     0.7860
  7.330      84.09     0.7068
  7.330      89.17     0.7211
  7.330      94.64     0.7250
  7.330      99.52     0.6877
  7.330      103.2     0.7118
  7.330      104.4     0.7293
  7.330      106.9     0.6850
  7.330      110.3     0.7262
  7.330      112.7     0.7263
  7.330      116.2     0.7301
  7.330      120.1     0.7520
  7.330      120.7     0.6926
  7.330      123.4     0.7098
  7.330      126.3     0.7381
  7.330      130.6     0.7278
  7.330      134.2     0.7606
  7.330      135.3     0.7907
  7.330      137.9     0.7284
  7.330      140.2     0.7722
  7.330      140.8     0.7181
  7.330      144.7     0.7993
  7.330      148.2     0.7729
  7.330      149.2     0.8684
  7.330      151.7     0.8771
  7.330      153.9     0.8816
  7.330      154.7     0.9436
  7.330      159.0     0.9126
  7.330      162.5      1.036
  7.330      166.4      1.125
  7.330      168.8      1.170
  7.330      171.5      1.032
  7.337      42.56     0.8198
  7.337      58.97     0.9490
  7.337      63.86     0.9093
  7.337      69.52     0.8629
  7.337      73.82     0.8070
  7.337      77.73     0.7731
  7.337      80.86     0.7091
  7.337      84.96     0.6474
  7.337      90.24     0.6765
  7.337      95.52     0.6358
  7.337      100.0     0.7038
  7.337      104.9     0.7110
  7.337      108.6     0.7078
  7.337      111.8     0.7115
  7.337      115.7     0.6949
  7.337      119.6     0.6952
  7.337      120.7     0.7296
  7.337      123.1     0.7090
  7.337      124.8     0.7229
  7.337      126.2     0.6990
  7.337      130.5     0.6927
  7.337      134.0     0.7030
  7.337      134.8     0.7521
  7.337      137.4     0.6767
  7.337      139.7     0.7001
  7.337      140.7     0.7418
  7.337      144.4     0.7245
  7.337      147.9     0.7389
  7.337      148.7     0.7076
  7.337      151.4     0.8338
  7.337      153.6     0.8220
  7.337      154.5     0.8752
  7.337      158.3     0.8425
  7.337      162.0     0.8887
  7.337      165.3     0.9649
  7.337      168.0      1.038
  7.337      171.7      1.058
  7.345      41.96     0.8421
  7.345      58.25     0.8742
  7.345      63.09     0.9010
  7.345      69.57     0.8264
  7.345      76.69     0.7652
  7.345      80.79     0.7331
  7.345      84.11     0.7021
  7.345      89.25     0.6314
  7.345      92.10     0.6290
  7.345      98.25     0.7465
  7.345      101.1     0.7294
  7.345      105.0     0.7814
  7.345      106.2     0.7409
  7.345      109.0     0.8170
  7.345      111.2     0.8214
  7.345      111.8     0.7600
  7.345      115.6     0.7793
  7.345      119.5     0.7575
  7.345      120.6     0.6644
  7.345      123.4     0.7292
  7.345      126.0     0.7155
  7.345      129.9     0.6466
  7.345      134.0     0.6378
  7.345      137.3     0.6603
  7.345      139.8     0.6736
  7.345      140.4     0.6263
  7.345      144.5     0.6454
  7.345      148.0     0.6586
  7.345      149.1     0.6916
  7.345      151.8     0.7701
  7.345      153.3     0.7302
  7.345      154.5     0.7743
  7.345      158.3     0.7979
  7.345      161.9     0.9513
  7.345      165.4     0.9336
  7.345      168.0     0.9387
  7.345      171.5     0.9485
  7.353      42.61     0.8317
  7.353      58.66     0.9532
  7.353      63.73     0.9129
  7.353      77.63     0.7193
  7.353      80.37     0.6919
  7.353      84.49     0.6276
  7.353      89.89     0.6832
  7.353      94.51     0.7399
  7.353      103.8     0.8181
  7.353      104.6     0.7789
  7.353      107.5     0.8350
  7.353      109.2     0.8070
  7.353      110.4     0.8273
  7.353      114.3     0.7615
  7.353      118.6     0.7473
  7.353      119.0     0.7185
  7.353      121.7     0.6711
  7.353      124.4     0.7019
  7.353      129.0     0.6212
  7.353      132.8     0.6341
  7.353      136.6     0.5779
  7.353      138.5     0.6380
  7.353      142.7     0.6385
  7.353      147.2     0.6949
  7.353      148.9     0.7125
  7.353      150.6     0.7058
  7.353      152.8     0.7273
  7.353      157.2     0.8112
  7.353      160.8     0.8486
  7.353      164.3     0.9652
  7.353      166.8      1.076
  7.353      170.4      1.248
  7.360      41.58     0.8197
  7.360      58.22      1.015
  7.360      63.30     0.9018
  7.360      68.00     0.7970
  7.360      72.30     0.7180
  7.360      76.58     0.7083
  7.360      79.50     0.6953
  7.360      83.98     0.6634
  7.360      88.99     0.7450
  7.360      93.83     0.7748
  7.360      99.07     0.7869
  7.360      103.1     0.7913
  7.360      103.9     0.8794
  7.360      107.0     0.7882
  7.360      108.6     0.7698
  7.360      109.5     0.8077
  7.360      113.7     0.7002
  7.360      117.4     0.6648
  7.360      118.5     0.7179
  7.360      121.3     0.6434
  7.360      123.0     0.6136
  7.360      123.8     0.6316
  7.360      128.3     0.5528
  7.360      132.2     0.5804
  7.360      132.9     0.6178
  7.360      135.7     0.5978
  7.360      138.4     0.6155
  7.360      142.4     0.6043
  7.360      146.1     0.6688
  7.360      147.1     0.7187
  7.360      149.8     0.7225
  7.360      151.9     0.7160
  7.360      152.7     0.7548
  7.360      156.3     0.8194
  7.360      160.2     0.9377
  7.360      163.6      1.094
  7.360      166.2      1.079
  7.360      170.0      1.111
  7.375      42.50     0.8378
  7.375      58.62     0.9347
  7.375      63.86     0.8456
  7.375      69.29     0.7800
  7.375      73.36     0.7192
  7.375      77.63     0.7233
  7.375      80.54     0.7203
  7.375      84.42     0.6969
  7.375      89.86     0.7500
  7.375      94.91     0.7803
  7.375      99.77     0.7552
  7.375      104.4     0.7523
  7.375      107.3     0.7384
  7.375      109.7     0.7281
  7.375      110.4     0.6873
  7.375      114.3     0.6945
  7.375      118.4     0.6785
  7.375      119.0     0.6529
  7.375      121.9     0.6347
  7.375      124.2     0.6110
  7.375      125.0     0.6023
  7.375      128.5     0.6145
  7.375      132.6     0.5946
  7.375      133.7     0.6211
  7.375      136.2     0.5753
  7.375      138.2     0.6157
  7.375      139.3     0.5486
  7.375      143.0     0.6406
  7.375      146.7     0.5821
  7.375      147.7     0.6568
  7.375      150.0     0.6446
  7.375      152.6     0.6512
  7.375      153.3     0.6934
  7.375      157.0     0.7007
  7.375      160.7     0.7466
  7.375      164.6     0.8110
  7.375      166.8     0.8272
  7.375      170.6     0.7851
  7.390      42.49     0.8398
  7.390      58.56     0.9634
  7.390      63.65     0.8556
  7.390      68.91     0.8010
  7.390      73.21     0.7391
  7.390      77.08     0.7612
  7.390      80.40     0.7261
  7.390      84.48     0.7164
  7.390      89.50     0.7779
  7.390      94.35     0.8014
  7.390      99.39     0.8099
  7.390      103.3     0.7839
  7.390      104.4     0.8424
  7.390      107.0     0.7733
  7.390      109.9     0.7589
  7.390      111.1     0.7738
  7.390      114.4     0.7104
  7.390      118.7     0.6713
  7.390      119.7     0.6943
  7.390      122.2     0.6163
  7.390      124.4     0.5906
  7.390      129.3     0.5398
  7.390      133.0     0.5376
  7.390      134.1     0.6090
  7.390      136.7     0.5031
  7.390      138.4     0.5255
  7.390      139.7     0.5567
  7.390      143.2     0.5706
  7.390      147.0     0.4853
  7.390      147.9     0.5445
  7.390      150.4     0.5526
  7.390      152.5     0.5555
  7.390      153.5     0.5373
  7.390      157.4     0.6328
  7.390      161.0     0.7036
  7.390      164.5     0.8286
  7.390      167.3     0.9300
  7.390      170.8     0.9905
  7.405      43.28     0.8388
  7.405      59.35     0.9909
  7.405      64.45     0.8384
  7.405      69.52     0.7847
  7.405      85.09     0.6881
  7.405      90.27     0.8308
  7.405      95.13     0.8197
  7.405      100.4     0.7673
  7.405      105.2     0.8374
  7.405      110.1     0.6624
  7.405      114.6     0.5740
  7.405      119.5     0.5096
  7.405      124.6     0.4611
  7.405      129.3     0.4616
  7.405      134.3     0.5038
  7.405      138.9     0.5190
  7.405      143.8     0.5972
  7.405      148.4     0.5864
  7.405      152.9     0.5984
  7.405      157.7     0.7329
  7.405      171.2     0.9167
ENDDATA           1224
ENDSUBENT         1237
SUBENT        F0551003   20030421   20030930
BIB                  3          4
REACTION   (20-CA-40(A,EL)20-CA-40,,DA,,RTH)
ERR-ANALYS (EN-ERR) Digitizing error
           (DATA-ERR) Digitizing error
STATUS     (CURVE) Fig.2
ENDBIB               4
COMMON               2          3
EN-ERR     DATA-ERR
MEV        NO-DIM
 0.001      0.004
ENDCOMMON            3
DATA                 3        797
ANG-CM     EN         DATA
ADEG       MEV        NO-DIM
  115.4      7.154     0.6316
  115.4      7.160     0.6744
  115.4      7.165     0.6747
  115.4      7.169     0.6989
  115.4      7.174     0.7310
  115.4      7.180     0.7366
  115.4      7.184     0.8323
  115.4      7.189     0.7849
  115.4      7.194     0.7853
  115.4      7.196     0.7377
  115.4      7.201     0.7486
  115.4      7.205     0.7304
  115.4      7.211     0.6831
  115.4      7.211     0.6566
  115.4      7.220     0.6678
  115.4      7.228     0.5915
  115.4      7.236     0.5311
  115.4      7.243     0.4707
  115.4      7.250     0.4685
  115.4      7.256     0.4689
  115.4      7.259     0.5168
  115.4      7.266     0.5623
  115.4      7.271     0.5917
  115.4      7.276     0.5735
  115.4      7.281     0.5606
  115.4      7.286     0.6166
  115.4      7.291     0.5825
  115.4      7.296     0.6701
  115.4      7.302     0.6970
  115.4      7.305     0.7423
  115.4      7.310     0.7241
  115.4      7.320     0.6770
  115.4      7.327     0.6960
  115.4      7.333     0.6832
  115.4      7.341     0.7658
  115.4      7.347     0.7636
  115.4      7.352     0.7586
  115.4      7.355     0.6847
  115.4      7.364     0.6270
  115.4      7.371     0.6751
  115.4      7.387     0.6841
  115.4      7.401     0.5659
  115.4      7.416     0.5483
  115.4      7.431     0.5414
  119.2      7.144     0.6182
  119.2      7.149     0.6319
  119.2      7.155     0.6243
  119.2      7.160     0.6755
  119.2      7.164     0.6302
  119.2      7.169     0.6332
  119.2      7.175     0.6764
  119.2      7.182     0.6849
  119.2      7.186     0.6879
  119.2      7.190     0.6801
  119.2      7.195     0.7206
  119.2      7.206     0.7320
  119.2      7.215     0.6390
  119.2      7.225     0.6236
  119.2      7.230     0.5651
  119.2      7.236     0.5548
  119.2      7.241     0.5176
  119.2      7.251     0.4835
  119.2      7.266     0.4738
  119.2      7.270     0.4527
  119.2      7.274     0.4744
  119.2      7.279     0.4774
  119.2      7.281     0.5631
  119.2      7.286     0.6036
  119.2      7.290     0.5316
  119.2      7.296     0.5615
  119.2      7.310     0.7015
  119.2      7.325     0.6972
  119.2      7.331     0.7163
  119.2      7.337     0.7167
  119.2      7.342     0.7170
  119.2      7.348     0.6719
  119.2      7.356     0.7340
  119.2      7.370     0.6386
  119.2      7.386     0.6584
  119.2      7.400     0.6460
  123.1      7.139     0.5974
  123.1      7.144     0.5602
  123.1      7.149     0.6062
  123.1      7.155     0.6468
  123.1      7.160     0.6633
  123.1      7.168     0.6638
  123.1      7.175     0.6938
  123.1      7.179     0.6458
  123.1      7.185     0.6033
  123.1      7.190     0.6465
  123.1      7.199     0.5988
  123.1      7.210     0.5136
  123.1      7.220     0.5465
  123.1      7.225     0.4905
  123.1      7.230     0.5338
  123.1      7.234     0.4670
  123.1      7.245     0.3979
  123.1      7.260     0.4176
  123.1      7.265     0.4153
  123.1      7.270     0.5016
  123.1      7.275     0.5261
  123.1      7.280     0.5023
  123.1      7.286     0.5697
  123.1      7.292     0.6050
  123.1      7.298     0.6377
  123.1      7.306     0.6919
  123.1      7.313     0.7165
  123.1      7.320     0.7519
  123.1      7.320     0.6929
  123.1      7.326     0.7039
  123.1      7.331     0.6613
  123.1      7.336     0.6832
  123.1      7.342     0.6809
  123.1      7.351     0.6976
  123.1      7.359     0.6820
  123.1      7.366     0.6208
  123.1      7.382     0.6030
  123.1      7.396     0.5852
  125.0      7.132     0.6503
  125.0      7.147     0.6166
  125.0      7.162     0.6710
  125.0      7.167     0.6980
  125.0      7.173     0.6743
  125.0      7.177     0.6106
  125.0      7.183     0.6110
  125.0      7.187     0.6139
  125.0      7.193     0.5236
  125.0      7.198     0.5586
  125.0      7.203     0.5110
  125.0      7.208     0.4794
  125.0      7.213     0.5063
  125.0      7.223     0.4270
  125.0      7.230     0.4622
  125.0      7.238     0.3507
  125.0      7.246     0.3752
  125.0      7.253     0.4130
  125.0      7.261     0.4455
  125.0      7.269     0.6354
  125.0      7.277     0.6679
  125.0      7.284     0.6470
  125.0      7.290     0.6341
  125.0      7.294     0.6877
  125.0      7.299     0.7734
  125.0      7.304     0.7684
  125.0      7.309     0.8194
  125.0      7.313     0.7343
  125.0      7.321     0.7828
  125.0      7.328     0.7113
  125.0      7.336     0.7305
  125.0      7.343     0.7043
  125.0      7.349     0.6941
  125.0      7.355     0.6997
  125.0      7.358     0.5880
  125.0      7.367     0.5966
  125.0      7.376     0.5945
  125.0      7.389     0.5581
  125.0      7.403     0.4523
  125.0      7.419     0.5307
  125.0      7.433     0.4650
  125.9      7.129     0.6027
  125.9      7.135     0.5633
  125.9      7.139     0.6007
  125.9      7.142     0.6247
  125.9      7.150     0.6597
  125.9      7.155     0.7077
  125.9      7.159     0.6338
  125.9      7.165     0.6501
  125.9      7.170     0.6425
  125.9      7.175     0.5978
  125.9      7.181     0.6061
  125.9      7.190     0.5431
  125.9      7.201     0.4909
  125.9      7.212     0.4519
  125.9      7.216     0.4734
  125.9      7.221     0.4578
  125.9      7.227     0.4290
  125.9      7.236     0.3607
  125.9      7.252     0.4174
  125.9      7.256     0.4230
  125.9      7.262     0.5108
  125.9      7.266     0.5402
  125.9      7.271     0.6173
  125.9      7.276     0.5991
  125.9      7.282     0.6578
  125.9      7.288     0.6794
  125.9      7.296     0.7250
  125.9      7.303     0.7519
  125.9      7.310     0.7418
  125.9      7.315     0.7209
  125.9      7.321     0.6869
  125.9      7.325     0.7004
  125.9      7.333     0.6718
  125.9      7.343     0.6910
  125.9      7.349     0.6861
  125.9      7.353     0.6599
  125.9      7.356     0.6177
  125.9      7.372     0.5790
  125.9      7.387     0.5747
  129.7      7.158     0.4904
  129.7      7.164     0.6246
  129.7      7.169     0.5875
  129.7      7.174     0.5798
  129.7      7.179     0.5266
  129.7      7.184     0.4868
  129.7      7.189     0.4978
  129.7      7.195     0.4073
  129.7      7.199     0.3914
  129.7      7.202     0.3676
  129.7      7.209     0.4028
  129.7      7.215     0.4246
  129.7      7.216     0.3900
  129.7      7.226     0.3825
  129.7      7.232     0.3428
  129.7      7.240     0.3246
  129.7      7.247     0.3519
  129.7      7.255     0.4594
  129.7      7.260     0.6149
  129.7      7.262     0.5615
  129.7      7.266     0.5752
  129.7      7.271     0.6665
  129.7      7.277     0.6562
  129.7      7.280     0.6992
  129.7      7.285     0.7075
  129.7      7.293     0.7990
  129.7      7.293     0.7135
  129.7      7.299     0.7513
  129.7      7.306     0.7972
  129.7      7.311     0.7654
  129.7      7.315     0.7309
  129.7      7.323     0.7208
  129.7      7.330     0.6998
  129.7      7.338     0.6897
  129.7      7.345     0.6367
  129.7      7.352     0.6184
  129.7      7.355     0.6159
  129.7      7.361     0.5414
  129.7      7.367     0.5231
  129.7      7.376     0.5986
  129.7      7.391     0.5273
  129.7      7.406     0.4561
  129.7      7.421     0.5481
  129.7      7.435     0.4527
  133.5      7.135     0.4928
  133.5      7.141     0.5036
  133.5      7.146     0.5493
  133.5      7.150     0.5788
  133.5      7.155     0.5762
  133.5      7.160     0.5978
  133.5      7.166     0.6086
  133.5      7.171     0.5553
  133.5      7.176     0.5340
  133.5      7.180     0.4539
  133.5      7.186     0.4433
  133.5      7.195     0.3472
  133.5      7.205     0.3074
  133.5      7.215     0.3398
  133.5      7.224     0.3293
  133.5      7.230     0.3081
  133.5      7.240     0.3217
  133.5      7.255     0.5040
  133.5      7.260     0.6326
  133.5      7.265     0.6514
  133.5      7.268     0.7799
  133.5      7.270     0.7077
  133.5      7.275     0.7426
  133.5      7.280     0.7909
  133.5      7.285     0.7991
  133.5      7.300     0.8102
  133.5      7.315     0.7624
  133.5      7.319     0.6850
  133.5      7.325     0.6718
  133.5      7.330     0.7013
  133.5      7.337     0.6614
  133.5      7.344     0.5920
  133.5      7.353     0.5976
  133.5      7.360     0.5416
  133.5      7.375     0.5607
  133.5      7.390     0.4969
  134.4      7.160     0.6312
  134.4      7.166     0.6526
  134.4      7.171     0.5680
  134.4      7.176     0.5045
  134.4      7.180     0.4994
  134.4      7.185     0.4147
  134.4      7.190     0.3857
  134.4      7.195     0.3302
  134.4      7.200     0.2933
  134.4      7.206     0.3411
  134.4      7.211     0.3571
  134.4      7.220     0.3759
  134.4      7.227     0.3496
  134.4      7.236     0.3366
  134.4      7.242     0.3871
  134.4      7.250     0.4880
  134.4      7.258     0.6868
  134.4      7.266     0.7956
  134.4      7.273     0.8488
  134.4      7.281     0.8146
  134.4      7.287     0.8730
  134.4      7.293     0.8652
  134.4      7.297     0.8547
  134.4      7.301     0.8045
  134.4      7.306     0.8576
  134.4      7.310     0.7650
  134.4      7.317     0.7387
  134.4      7.325     0.7601
  134.4      7.332     0.7391
  134.4      7.340     0.6360
  134.4      7.346     0.6124
  134.4      7.351     0.6337
  134.4      7.355     0.6073
  134.4      7.362     0.5572
  134.4      7.371     0.5998
  134.4      7.385     0.5895
  134.4      7.400     0.4946
  137.2      7.139     0.4841
  137.2      7.144     0.5086
  137.2      7.150     0.4599
  137.2      7.154     0.5170
  137.2      7.161     0.5443
  137.2      7.165     0.5390
  137.2      7.170     0.5554
  137.2      7.175     0.5067
  137.2      7.180     0.4743
  137.2      7.185     0.4311
  137.2      7.190     0.3770
  137.2      7.200     0.2905
  137.2      7.210     0.2772
  137.2      7.220     0.3127
  137.2      7.227     0.3210
  137.2      7.230     0.3320
  137.2      7.234     0.3158
  137.2      7.244     0.3459
  137.2      7.260     0.6012
  137.2      7.265     0.7071
  137.2      7.269     0.8455
  137.2      7.271     0.8157
  137.2      7.273     0.9486
  137.2      7.279     0.9054
  137.2      7.284     0.8757
  137.2      7.289     0.9084
  137.2      7.296     0.8814
  137.2      7.305     0.8464
  137.2      7.312     0.7816
  137.2      7.318     0.7871
  137.2      7.323     0.7276
  137.2      7.330     0.7305
  137.2      7.334     0.6873
  137.2      7.341     0.6441
  137.2      7.349     0.6253
  137.2      7.357     0.5388
  137.2      7.364     0.5634
  137.2      7.380     0.5367
  137.2      7.394     0.4693
  140.0      7.136     0.4819
  140.0      7.141     0.4529
  140.0      7.147     0.4663
  140.0      7.152     0.4611
  140.0      7.157     0.5277
  140.0      7.161     0.5411
  140.0      7.167     0.5173
  140.0      7.173     0.5308
  140.0      7.177     0.4458
  140.0      7.182     0.4061
  140.0      7.187     0.3478
  140.0      7.196     0.2523
  140.0      7.206     0.2446
  140.0      7.216     0.3246
  140.0      7.221     0.3354
  140.0      7.227     0.3648
  140.0      7.231     0.3649
  140.0      7.242     0.3359
  140.0      7.248     0.4663
  140.0      7.255     0.6685
  140.0      7.261     0.7617
  140.0      7.267     0.9452
  140.0      7.271     0.9293
  140.0      7.275      1.020
  140.0      7.281     0.9934
  140.0      7.286      1.020
  140.0      7.293     0.9964
  140.0      7.301     0.8637
  140.0      7.307     0.8719
  140.0      7.315     0.7844
  140.0      7.320     0.7579
  140.0      7.326     0.7262
  140.0      7.330     0.6758
  140.0      7.338     0.7132
  140.0      7.346     0.5965
  140.0      7.354     0.6100
  140.0      7.358     0.5649
  140.0      7.361     0.5809
  140.0      7.375     0.5255
  140.0      7.390     0.5259
  143.7      7.154     0.5060
  143.7      7.159     0.4875
  143.7      7.164     0.4346
  143.7      7.169     0.4135
  143.7      7.175     0.4030
  143.7      7.179     0.3128
  143.7      7.185     0.2413
  143.7      7.188     0.2600
  143.7      7.194     0.2416
  143.7      7.197     0.2549
  143.7      7.199     0.3213
  143.7      7.204     0.3772
  143.7      7.212     0.3615
  143.7      7.219     0.3909
  143.7      7.227     0.3858
  143.7      7.234     0.4471
  143.7      7.241     0.5906
  143.7      7.250     0.8669
  143.7      7.254      1.082
  143.7      7.257      1.040
  143.7      7.260      1.180
  143.7      7.265      1.146
  143.7      7.270      1.149
  143.7      7.272      1.077
  143.7      7.274      1.115
  143.7      7.280      1.056
  143.7      7.284      1.088
  143.7      7.286     0.9581
  143.7      7.290     0.9450
  143.7      7.294     0.8946
  143.7      7.299     0.8656
  143.7      7.300     0.8470
  143.7      7.304     0.8338
  143.7      7.309     0.7968
  143.7      7.316     0.7572
  143.7      7.319     0.7997
  143.7      7.324     0.7654
  143.7      7.331     0.7045
  143.7      7.339     0.6224
  143.7      7.345     0.6332
  143.7      7.348     0.5881
  143.7      7.354     0.5803
  143.7      7.361     0.5619
  143.7      7.370     0.6206
  143.7      7.384     0.5413
  143.7      7.399     0.5789
  143.7      7.414     0.6536
  143.7      7.429     0.6009
  147.4      7.148     0.5172
  147.4      7.154     0.4826
  147.4      7.158     0.4934
  147.4      7.164     0.5203
  147.4      7.168     0.4937
  147.4      7.173     0.5259
  147.4      7.179     0.5020
  147.4      7.184     0.4620
  147.4      7.188     0.3766
  147.4      7.193     0.3474
  147.4      7.197     0.2860
  147.4      7.208     0.2436
  147.4      7.218     0.3186
  147.4      7.228     0.4311
  147.4      7.234     0.4313
  147.4      7.239     0.4448
  147.4      7.243     0.4877
  147.4      7.253     0.5307
  147.4      7.267      1.009
  147.4      7.272      1.148
  147.4      7.276      1.280
  147.4      7.282      1.301
  147.4      7.287      1.285
  147.4      7.292      1.261
  147.4      7.298      1.219
  147.4      7.313     0.9625
  147.4      7.327     0.8106
  147.4      7.332     0.7760
  147.4      7.337     0.7975
  147.4      7.343     0.7228
  147.4      7.348     0.7069
  147.4      7.358     0.6217
  147.4      7.365     0.6620
  147.4      7.372     0.6327
  147.4      7.387     0.5583
  147.4      7.403     0.4572
  148.3      7.169     0.5048
  148.3      7.173     0.4805
  148.3      7.178     0.4079
  148.3      7.183     0.3917
  148.3      7.188     0.3540
  148.3      7.194     0.2894
  148.3      7.198     0.2571
  148.3      7.203     0.2625
  148.3      7.208     0.2840
  148.3      7.214     0.3836
  148.3      7.218     0.4616
  148.3      7.228     0.4535
  148.3      7.235     0.4831
  148.3      7.242     0.5180
  148.3      7.250     0.6095
  148.3      7.257     0.9404
  148.3      7.263      1.255
  148.3      7.271      1.341
  148.3      7.278      1.379
  148.3      7.286      1.298
  148.3      7.291      1.255
  148.3      7.296      1.196
  148.3      7.301      1.064
  148.3      7.306     0.9618
  148.3      7.312     0.9106
  148.3      7.317     0.8676
  148.3      7.325     0.7976
  148.3      7.332     0.8541
  148.3      7.339     0.7088
  148.3      7.348     0.6926
  148.3      7.354     0.7114
  148.3      7.357     0.6791
  148.3      7.361     0.7275
  148.3      7.370     0.6549
  148.3      7.377     0.6495
  148.3      7.393     0.5445
  148.3      7.408     0.5929
  151.0      7.138     0.5170
  151.0      7.143     0.5062
  151.0      7.148     0.4954
  151.0      7.152     0.4792
  151.0      7.157     0.5197
  151.0      7.163     0.5440
  151.0      7.168     0.4899
  151.0      7.172     0.4196
  151.0      7.178     0.4304
  151.0      7.183     0.3629
  151.0      7.189     0.3196
  151.0      7.198     0.3088
  151.0      7.208     0.3520
  151.0      7.218     0.4763
  151.0      7.223     0.4979
  151.0      7.228     0.5249
  151.0      7.233     0.5600
  151.0      7.243     0.5789
  151.0      7.258      1.146
  151.0      7.262      1.241
  151.0      7.267      1.376
  151.0      7.269      1.438
  151.0      7.273      1.476
  151.0      7.277      1.414
  151.0      7.282      1.357
  151.0      7.287      1.406
  151.0      7.295      1.203
  151.0      7.303      1.044
  151.0      7.309     0.9679
  151.0      7.317     0.8598
  151.0      7.323     0.8219
  151.0      7.327     0.8165
  151.0      7.332     0.8327
  151.0      7.339     0.8030
  151.0      7.347     0.7354
  151.0      7.356     0.6786
  151.0      7.362     0.6921
  151.0      7.378     0.6191
  151.0      7.393     0.5271
  153.8      7.129     0.5242
  153.8      7.134     0.5215
  153.8      7.138     0.4974
  153.8      7.144     0.4894
  153.8      7.149     0.5134
  153.8      7.154     0.4867
  153.8      7.159     0.4680
  153.8      7.164     0.4573
  153.8      7.169     0.3851
  153.8      7.174     0.3905
  153.8      7.178     0.3477
  153.8      7.189     0.3503
  153.8      7.199     0.4492
  153.8      7.209     0.5160
  153.8      7.214     0.5614
  153.8      7.217     0.6335
  153.8      7.223     0.6495
  153.8      7.233     0.7484
  153.8      7.240     0.8900
  153.8      7.249      1.261
  153.8      7.254      1.483
  153.8      7.259      1.462
  153.8      7.261      1.526
  153.8      7.264      1.654
  153.8      7.266      1.579
  153.8      7.269      1.595
  153.8      7.274      1.451
  153.8      7.280      1.390
  153.8      7.286      1.211
  153.8      7.294      1.034
  153.8      7.301     0.9219
  153.8      7.308     0.9085
  153.8      7.313     0.8818
  153.8      7.319     0.8203
  153.8      7.323     0.8924
  153.8      7.331     0.8417
  153.8      7.338     0.7374
  153.8      7.346     0.6893
  153.8      7.350     0.7294
  153.8      7.353     0.7320
  153.8      7.369     0.6625
  153.8      7.383     0.5075
  157.4      7.172     0.5275
  157.4      7.178     0.4766
  157.4      7.183     0.4230
  157.4      7.188     0.4337
  157.4      7.193     0.3989
  157.4      7.202     0.4096
  157.4      7.207     0.4230
  157.4      7.213     0.5033
  157.4      7.215     0.4605
  157.4      7.218     0.5676
  157.4      7.223     0.6560
  157.4      7.228     0.6345
  157.4      7.231     0.7229
  157.4      7.237     0.7229
  157.4      7.245     0.8353
  157.4      7.252     0.9184
  157.4      7.258      1.111
  157.4      7.267      1.505
  157.4      7.271      1.786
  157.4      7.274      1.663
  157.4      7.275      1.872
  157.4      7.281      1.848
  157.4      7.286      1.690
  157.4      7.291      1.649
  157.4      7.297      1.481
  157.4      7.302      1.441
  157.4      7.303      1.264
  157.4      7.307      1.183
  157.4      7.313      1.098
  157.4      7.318      1.044
  157.4      7.322      1.017
  157.4      7.327     0.9289
  157.4      7.334     0.9824
  157.4      7.338     0.8324
  157.4      7.344     0.8833
  157.4      7.350     0.8244
  157.4      7.358     0.7815
  157.4      7.364     0.8002
  157.4      7.372     0.8002
  157.4      7.379     0.7841
  157.4      7.379     0.7573
  157.4      7.388     0.6769
  157.4      7.403     0.6073
  157.4      7.418     0.7117
  157.4      7.433     0.8241
  157.4      7.449     0.8777
  161.1      7.135     0.6033
  161.1      7.140     0.6515
  161.1      7.145     0.5872
  161.1      7.149     0.6087
  161.1      7.155     0.6087
  161.1      7.160     0.5953
  161.1      7.166     0.5257
  161.1      7.172     0.4588
  161.1      7.176     0.4668
  161.1      7.181     0.4963
  161.1      7.186     0.5258
  161.1      7.195     0.6008
  161.1      7.206     0.6731
  161.1      7.216     0.8712
  161.1      7.221     0.8471
  161.1      7.226     0.9087
  161.1      7.231      1.016
  161.1      7.242      1.219
  161.1      7.256      1.755
  161.1      7.261      1.985
  161.1      7.266      2.033
  161.1      7.268      2.127
  161.1      7.271      1.961
  161.1      7.275      1.974
  161.1      7.281      1.771
  161.1      7.286      1.607
  161.1      7.302      1.252
  161.1      7.316      1.048
  161.1      7.322      1.048
  161.1      7.326      1.072
  161.1      7.332      1.013
  161.1      7.339     0.8822
  161.1      7.347     0.9278
  161.1      7.355     0.8421
  161.1      7.361     0.9144
  161.1      7.377     0.7431
  161.1      7.393     0.7030
  164.7      7.135     0.7004
  164.7      7.141     0.6251
  164.7      7.145     0.6574
  164.7      7.150     0.6978
  164.7      7.156     0.6332
  164.7      7.161     0.6332
  164.7      7.166     0.5928
  164.7      7.172     0.5471
  164.7      7.176     0.5013
  164.7      7.181     0.4314
  164.7      7.186     0.5175
  164.7      7.196     0.5741
  164.7      7.206     0.7679
  164.7      7.216     0.8756
  164.7      7.221     0.9079
  164.7      7.226     0.9402
  164.7      7.230      1.115
  164.7      7.241      1.355
  164.7      7.257      1.893
  164.7      7.262      1.888
  164.7      7.266      2.141
  164.7      7.269      2.278
  164.7      7.272      2.203
  164.7      7.277      2.006
  164.7      7.281      1.985
  164.7      7.287      1.834
  164.7      7.294      1.471
  164.7      7.302      1.301
  164.7      7.309      1.234
  164.7      7.317      1.075
  164.7      7.322      1.016
  164.7      7.326      1.123
  164.7      7.332      1.064
  164.7      7.338     0.9271
  164.7      7.355     0.9083
  164.7      7.362      1.040
  164.7      7.377     0.7764
  164.7      7.392     0.7899
  167.3      7.137     0.7407
  167.3      7.142     0.6739
  167.3      7.147     0.7194
  167.3      7.152     0.7755
  167.3      7.157     0.7649
  167.3      7.162     0.6953
  167.3      7.168     0.6633
  167.3      7.172     0.5991
  167.3      7.178     0.5056
  167.3      7.182     0.5564
  167.3      7.187     0.5564
  167.3      7.197     0.6847
  167.3      7.207     0.9147
  167.3      7.218     0.9869
  167.3      7.223      1.014
  167.3      7.228      1.043
  167.3      7.234      1.169
  167.3      7.244      1.474
  167.3      7.250      1.690
  167.3      7.259      2.065
  167.3      7.264      2.268
  167.3      7.268      2.158
  167.3      7.271      2.081
  167.3      7.273      2.311
  167.3      7.277      2.201
  167.3      7.279      2.220
  167.3      7.283      2.051
  167.3      7.290      1.891
  167.3      7.295      1.498
  167.3      7.304      1.324
  167.3      7.310      1.255
  167.3      7.319      1.134
  167.3      7.324      1.118
  167.3      7.330      1.108
  167.3      7.335      1.108
  167.3      7.341      1.003
  167.3      7.349     0.8937
  167.3      7.356      1.035
  167.3      7.361      1.001
  167.3      7.364      1.036
  167.3      7.379     0.7922
  167.3      7.395     0.8831
  171.0      7.159     0.5844
  171.0      7.164     0.4957
  171.0      7.169     0.5737
  171.0      7.174     0.5522
  171.0      7.180     0.6248
  171.0      7.186     0.7108
  171.0      7.191     0.7780
  171.0      7.196     0.8560
  171.0      7.201     0.9420
  171.0      7.207     0.9824
  171.0      7.213     0.9690
  171.0      7.222      1.146
  171.0      7.229      1.324
  171.0      7.238      1.550
  171.0      7.245      1.773
  171.0      7.253      2.216
  171.0      7.261      2.171
  171.0      7.268      2.431
  171.0      7.275      2.181
  171.0      7.284      1.730
  171.0      7.293      1.391
  171.0      7.298      1.268
  171.0      7.302      1.252
  171.0      7.308      1.276
  171.0      7.312      1.173
  171.0      7.320      1.093
  171.0      7.327      1.018
  171.0      7.334      1.053
  171.0      7.342     0.9424
  171.0      7.350      1.241
  171.0      7.352      1.053
  171.0      7.358      1.098
  171.0      7.364      1.020
  171.0      7.371     0.7758
  171.0      7.388     0.9829
  171.0      7.402     0.9184
  171.0      7.417     0.9399
  171.0      7.431      1.109
ENDDATA            799
ENDSUBENT          812
SUBENT        F0551004   20030421   20030930
BIB                  3          4
REACTION   (20-CA-44(A,EL)20-CA-44,,DA,,RTH)
ERR-ANALYS (EN-ERR) Digitizing error
           (DATA-ERR) Digitizing error
STATUS     (CURVE) Fig.3
ENDBIB               4
COMMON               2          3
EN-ERR     DATA-ERR
MEV        NO-DIM
 0.001      0.002
ENDCOMMON            3
DATA                 3        186
ANG-CM     EN         DATA
ADEG       MEV        NO-DIM
  78.00      7.036     0.4889
  78.00      7.051     0.4840
  78.00      7.082     0.4755
  78.00      7.097     0.4694
  78.00      7.101     0.4757
  78.00      7.107     0.4746
  78.00      7.111     0.4583
  78.00      7.117     0.4759
  78.00      7.121     0.4848
  78.00      7.126     0.4697
  78.00      7.131     0.4585
  78.00      7.136     0.4699
  78.00      7.147     0.4775
  78.00      7.161     0.4865
  78.00      7.167     0.4840
  78.00      7.176     0.4779
  78.00      7.183     0.4943
  78.00      7.191     0.4881
  78.00      7.199     0.4492
  78.00      7.206     0.4681
  78.00      7.214     0.4519
  78.00      7.221     0.4557
  78.00      7.236     0.4848
  78.00      7.251     0.4699
  78.00      7.266     0.4663
  78.00      7.281     0.4702
  78.00      7.295     0.4603
  78.00      7.311     0.4391
  78.00      7.326     0.4343
  78.00      7.341     0.4420
  108.1      7.036     0.3958
  108.1      7.050     0.3960
  108.1      7.081     0.3738
  108.1      7.096     0.3677
  108.1      7.101     0.3815
  108.1      7.106     0.3691
  108.1      7.111     0.3854
  108.1      7.115     0.3892
  108.1      7.121     0.3793
  108.1      7.126     0.3743
  108.1      7.131     0.3731
  108.1      7.136     0.3882
  108.1      7.145     0.3920
  108.1      7.154     0.3771
  108.1      7.161     0.3885
  108.1      7.167     0.3835
  108.1      7.176     0.3649
  108.1      7.182     0.3787
  108.1      7.191     0.3601
  108.1      7.197     0.3626
  108.1      7.206     0.3652
  108.1      7.212     0.3641
  108.1      7.220     0.3766
  108.1      7.235     0.3543
  108.1      7.250     0.3557
  108.1      7.265     0.3809
  108.1      7.280     0.3611
  108.1      7.295     0.3600
  108.1      7.311     0.3589
  108.1      7.326     0.3703
  108.1      7.340     0.3755
  122.6      7.036     0.3756
  122.6      7.051     0.3681
  122.6      7.081     0.3432
  122.6      7.096     0.3484
  122.6      7.102     0.3788
  122.6      7.106     0.3688
  122.6      7.111     0.3600
  122.6      7.117     0.3651
  122.6      7.121     0.3866
  122.6      7.126     0.3652
  122.6      7.131     0.3653
  122.6      7.137     0.3767
  122.6      7.146     0.3970
  122.6      7.154     0.3782
  122.6      7.161     0.3732
  122.6      7.168     0.3644
  122.6      7.176     0.3468
  122.6      7.183     0.3279
  122.6      7.191     0.3634
  122.6      7.198     0.3546
  122.6      7.206     0.3674
  122.6      7.213     0.3258
  122.6      7.220     0.3309
  122.6      7.236     0.3184
  122.6      7.251     0.3489
  122.6      7.266     0.3655
  122.6      7.280     0.3455
  122.6      7.295     0.3204
  122.6      7.310     0.3446
  122.6      7.326     0.3548
  122.6      7.341     0.3462
  136.8      7.031     0.3267
  136.8      7.045     0.3393
  136.8      7.076     0.3142
  136.8      7.091     0.3330
  136.8      7.095     0.3594
  136.8      7.101     0.3519
  136.8      7.106     0.3431
  136.8      7.110     0.3355
  136.8      7.115     0.3820
  136.8      7.121     0.3544
  136.8      7.126     0.3682
  136.8      7.131     0.3544
  136.8      7.141     0.3380
  136.8      7.149     0.3192
  136.8      7.156     0.3355
  136.8      7.164     0.3004
  136.8      7.171     0.3054
  136.8      7.178     0.3393
  136.8      7.186     0.3456
  136.8      7.193     0.3167
  136.8      7.201     0.3230
  136.8      7.208     0.2815
  136.8      7.217     0.3067
  136.8      7.231     0.3117
  136.8      7.246     0.3355
  136.8      7.261     0.3267
  136.8      7.277     0.3079
  136.8      7.291     0.3067
  136.8      7.306     0.3154
  136.8      7.322     0.2991
  136.8      7.337     0.3054
  150.8      7.036     0.3364
  150.8      7.051     0.3037
  150.8      7.081     0.2874
  150.8      7.097     0.3615
  150.8      7.101     0.3514
  150.8      7.105     0.3590
  150.8      7.111     0.3665
  150.8      7.116     0.3414
  150.8      7.121     0.3464
  150.8      7.127     0.3565
  150.8      7.131     0.3339
  150.8      7.136     0.3200
  150.8      7.146     0.2987
  150.8      7.155     0.2887
  150.8      7.161     0.2673
  150.8      7.169     0.2974
  150.8      7.176     0.3138
  150.8      7.184     0.3313
  150.8      7.192     0.3502
  150.8      7.199     0.3238
  150.8      7.207     0.3251
  150.8      7.214     0.2799
  150.8      7.222     0.2786
  150.8      7.237     0.2912
  150.8      7.251     0.2974
  150.8      7.267     0.3288
  150.8      7.282     0.3100
  150.8      7.297     0.3037
  150.8      7.312     0.2899
  150.8      7.326     0.2485
  150.8      7.342     0.2811
  164.5      7.034     0.3334
  164.5      7.049     0.3272
  164.5      7.064     0.2958
  164.5      7.079     0.2958
  164.5      7.095     0.3510
  164.5      7.100     0.3548
  164.5      7.104     0.3598
  164.5      7.110     0.3171
  164.5      7.115     0.3623
  164.5      7.120     0.3246
  164.5      7.125     0.3221
  164.5      7.130     0.3096
  164.5      7.134     0.2920
  164.5      7.144     0.2619
  164.5      7.152     0.2606
  164.5      7.159     0.2769
  164.5      7.167     0.2920
  164.5      7.174     0.3284
  164.5      7.182     0.3598
  164.5      7.190     0.3673
  164.5      7.197     0.3372
  164.5      7.205     0.3083
  164.5      7.212     0.2744
  164.5      7.220     0.2882
  164.5      7.235     0.2606
  164.5      7.250     0.3234
  164.5      7.265     0.2970
  164.5      7.280     0.3108
  164.5      7.295     0.2694
  164.5      7.310     0.2606
  164.5      7.325     0.2317
  164.5      7.341     0.2443
ENDDATA            188
ENDSUBENT          201
ENDENTRY             4
