ENTRY            F0567   20040211   20040519
SUBENT        F0567001   20040211   20040519
BIB                  7         11
TITLE      Shell-structure effect on elastic alpha scattering.
AUTHOR     (H.OESCHLER,H.SCHROTER,H.FUCHS,L.BAUM,G.GAUL,H.LUDECKE,
           R.SANTO,R.STOCK)
INSTITUTE  (2GERMPH,2GERMUN,2GERMBG)
REFERENCE  (J,PRL,28,694,1972)
FACILITY   (ACCEL,2GERMPH)The data have been taken at the
           (ACCEL,2GERMUN) MP-tandem accelerators using scattering
           chambers and standard multidetector arrangements.
ERR-ANALYS (ANG-ERR-D)Digitizing error
           (ERR-DIG)Digitizing error
HISTORY    (20030925C)
ENDBIB              11
COMMON               2          3
ANG-ERR-D  ERR-DIG
ADEG       PER-CENT
  0.3        0.2
ENDCOMMON            3
ENDSUBENT           18
SUBENT        F0567002   20040211   20040519
BIB                  3          4
REACTION   (20-CA-40(A,EL)20-CA-40,,DA,,RTH)
SAMPLE     Target was made by evaporation of the element or
           compound onto carbon backing
STATUS     (CURVE)Fig.1
ENDBIB               4
COMMON               1          3
EN
MEV
  29.0
ENDCOMMON            3
DATA                 2        412
ANG-CM     DATA-CM
ADEG       NO-DIM
 13.569    0.54960
 14.417    0.48195
 14.425    0.40447
 15.274    0.34700
 16.122    0.31103
 18.229    0.30437
 19.904    0.38739
 19.910    0.33967
 21.161    0.44188
 23.267    0.45178
 24.535    0.41394
 24.961    0.37101
 25.389    0.31828
 26.240    0.26714
 26.667    0.23424
 27.094    0.20540
 27.524    0.16865
 28.374    0.14469
 28.377    0.13549
 29.641    0.13551
 30.475    0.16148
 30.889    0.19242
 31.303    0.22433
 32.141    0.25032
 33.402    0.26158
 35.509    0.26164
 36.778    0.23453
 37.207    0.19684
 37.215    0.16519
 37.642    0.14485
 38.072    0.11894
 38.500    0.10203
 38.928    0.89470E-01
 39.357    0.75090E-01
 39.392    0.34879E-01
 39.398    0.29920E-01
 39.410    0.23003E-01
 39.414    0.21073E-01
 39.784    0.65844E-01
 39.790    0.57734E-01
 39.798    0.48452E-01
 39.805    0.41563E-01
 39.825    0.26817E-01
 39.841    0.18888E-01
 39.845    0.17303E-01
 40.272    0.15173E-01
 41.117    0.14209E-01
 42.372    0.17309E-01
 42.377    0.15513E-01
 42.775    0.26246E-01
 42.783    0.22026E-01
 42.788    0.19741E-01
 43.181    0.36459E-01
 43.189    0.30597E-01
 43.581    0.59040E-01
 43.587    0.50646E-01
 43.595    0.42504E-01
 43.986    0.83830E-01
 43.993    0.71911E-01
 44.386    0.13281
 44.393    0.11393
 44.400    0.97729E-01
 45.209    0.20586
 45.215    0.18050
 45.222    0.15484
 46.468    0.22972
 48.151    0.24006
 49.838    0.22982
 50.684    0.21522
 51.532    0.18873
 51.536    0.17290
 52.386    0.14833
 52.393    0.12724
 52.820    0.11157
 52.828    0.93636E-01
 53.256    0.80327E-01
 53.683    0.70437E-01
 53.689    0.61761E-01
 53.697    0.51832E-01
 53.703    0.45447E-01
 54.132    0.38143E-01
 54.559    0.34187E-01
 54.566    0.29326E-01
 54.574    0.24612E-01
 54.580    0.21113E-01
 55.009    0.18112E-01
 55.438    0.15201E-01
 55.444    0.13328E-01
 55.449    0.11946E-01
 55.875    0.10707E-01
 55.881    0.93879E-02
 55.888    0.80531E-02
 56.315    0.70616E-02
 56.743    0.60579E-02
 56.750    0.51966E-02
 56.757    0.44578E-02
 58.023    0.42673E-02
 58.834    0.86033E-02
 58.840    0.75436E-02
 58.847    0.64711E-02
 58.854    0.55510E-02
 58.861    0.47618E-02
 59.208    0.24626E-01
 59.217    0.19781E-01
 59.225    0.16601E-01
 59.233    0.13932E-01
 59.239    0.12216E-01
 59.248    0.10030E-01
 59.605    0.41664E-01
 59.613    0.34966E-01
 59.620    0.29995E-01
 60.018    0.49648E-01
 60.434    0.56625E-01
 61.269    0.66017E-01
 62.107    0.73667E-01
 63.366    0.82208E-01
 65.050    0.84047E-01
 66.318    0.77007E-01
 66.745    0.67525E-01
 66.752    0.57924E-01
 67.179    0.50792E-01
 67.184    0.45522E-01
 67.189    0.40799E-01
 67.618    0.34242E-01
 67.624    0.30024E-01
 67.630    0.26326E-01
 68.058    0.22584E-01
 68.065    0.19373E-01
 68.072    0.16619E-01
 68.504    0.13350E-01
 68.509    0.11705E-01
 68.939    0.98241E-02
 69.367    0.84277E-02
 69.376    0.69196E-02
 69.384    0.58071E-02
 69.391    0.49815E-02
 69.397    0.43679E-02
 69.404    0.37469E-02
 69.411    0.32142E-02
 69.839    0.27573E-02
 69.850    0.21668E-02
 70.266    0.24178E-02
 70.277    0.19000E-02
 72.365    0.28193E-02
 72.371    0.24720E-02
 72.383    0.19005E-02
 72.761    0.49836E-02
 72.774    0.37484E-02
 72.781    0.32155E-02
 72.800    0.21207E-02
 73.138    0.13357E-01
 73.145    0.11458E-01
 73.152    0.96161E-02
 73.160    0.80702E-02
 73.168    0.67728E-02
 73.173    0.60701E-02
 73.188    0.43699E-02
 73.530    0.25215E-01
 73.538    0.21162E-01
 73.544    0.18555E-01
 73.549    0.16630E-01
 73.931    0.39948E-01
 73.937    0.35027E-01
 73.942    0.30713E-01
 74.765    0.47605E-01
 75.601    0.55501E-01
 76.016    0.63301E-01
 76.852    0.73800E-01
 78.955    0.78834E-01
 80.220    0.77138E-01
 81.908    0.72246E-01
 82.755    0.66191E-01
 83.181    0.59327E-01
 83.607    0.53174E-01
 84.033    0.47659E-01
 84.461    0.41791E-01
 84.887    0.37457E-01
 85.735    0.32847E-01
 86.998    0.33579E-01
 87.837    0.36658E-01
 88.251    0.42736E-01
 88.664    0.50926E-01
 89.078    0.60684E-01
 89.493    0.69213E-01
 90.329    0.80693E-01
 90.744    0.92033E-01
 91.159    0.10497
 91.996    0.11973
 92.835    0.13070
 94.935    0.14910
 96.622    0.14274
 97.889    0.13368
 98.737    0.11982
 99.584    0.10740
 100.43    0.94183E-01
 100.44    0.82582E-01
 100.87    0.70845E-01
 101.29    0.62121E-01
 101.30    0.53289E-01
 102.57    0.47768E-01
 103.42    0.43764E-01
 105.09    0.54495E-01
 105.10    0.46747E-01
 105.93    0.63533E-01
 106.34    0.72462E-01
 106.76    0.82646E-01
 108.02    0.94271E-01
 108.43    0.10519
 109.69    0.11484
 111.80    0.11238
 113.07    0.10525
 113.91    0.96428E-01
 114.34    0.84555E-01
 114.77    0.74144E-01
 115.62    0.63609E-01
 116.04    0.57012E-01
 116.47    0.49992E-01
 117.32    0.44810E-01
 117.74    0.39292E-01
 118.17    0.37610E-01
 119.85    0.38451E-01
 120.27    0.44826E-01
 121.52    0.51131E-01
 122.36    0.57056E-01
 122.78    0.66516E-01
 124.04    0.74228E-01
 125.72    0.75888E-01
 126.99    0.71071E-01
 126.99    0.63697E-01
 127.42    0.57091E-01
 127.84    0.51171E-01
 128.27    0.44870E-01
 128.70    0.38492E-01
 128.71    0.33020E-01
 129.56    0.27714E-01
 129.98    0.24302E-01
 130.00    0.17883E-01
 130.41    0.20848E-01
 130.85    0.16029E-01
 130.85    0.14366E-01
 131.28    0.12876E-01
 131.70    0.11291E-01
 131.71    0.96853E-02
 131.72    0.84923E-02
 131.73    0.63876E-02
 132.14    0.74466E-02
 132.16    0.54797E-02
 132.58    0.50202E-02
 132.59    0.38596E-02
 133.01    0.43067E-02
 133.02    0.32393E-02
 133.03    0.28403E-02
 133.04    0.24365E-02
 133.04    0.22815E-02
 134.30    0.22324E-02
 134.68    0.58537E-02
 134.71    0.33117E-02
 134.72    0.27793E-02
 134.72    0.25461E-02
 135.11    0.46004E-02
 135.12    0.39463E-02
 135.51    0.81320E-02
 135.52    0.68247E-02
 135.90    0.15019E-01
 135.90    0.17508E-01
 135.91    0.12604E-01
 135.92    0.10578E-01
 135.93    0.92749E-02
 136.30    0.23278E-01
 136.31    0.20411E-01
 136.70    0.41148E-01
 136.71    0.30279E-01
 136.71    0.34532E-01
 136.72    0.27137E-01
 137.12    0.45913E-01
 137.53    0.52366E-01
 137.53    0.57162E-01
 138.36    0.65199E-01
 138.78    0.74362E-01
 139.62    0.82979E-01
 140.88    0.90593E-01
 142.56    0.94670E-01
 144.67    0.92642E-01
 145.94    0.84883E-01
 146.78    0.77769E-01
 147.21    0.69704E-01
 147.21    0.61118E-01
 147.64    0.53592E-01
 148.07    0.45975E-01
 148.50    0.40314E-01
 148.51    0.33833E-01
 148.93    0.28395E-01
 148.94    0.24358E-01
 149.37    0.22316E-01
 149.38    0.17157E-01
 149.38    0.15377E-01
 149.79    0.19568E-01
 149.81    0.13483E-01
 149.89    0.21882E-02
 149.90    0.17577E-02
 149.91    0.13813E-02
 150.24    0.11823E-01
 150.24    0.10596E-01
 150.26    0.73014E-02
 150.28    0.48154E-02
 150.29    0.38680E-02
 150.29    0.34667E-02
 150.30    0.30397E-02
 150.31    0.24416E-02
 150.32    0.19612E-02
 150.33    0.15754E-02
 150.34    0.12935E-02
 150.67    0.92916E-02
 150.68    0.81471E-02
 150.69    0.61279E-02
 150.69    0.53731E-02
 150.70    0.43160E-02
 150.73    0.27244E-02
 151.18    0.13815E-02
 151.58    0.20948E-02
 151.59    0.15081E-02
 151.96    0.51436E-02
 151.97    0.38688E-02
 151.97    0.43167E-02
 151.98    0.32468E-02
 151.99    0.24421E-02
 151.99    0.27852E-02
 152.01    0.17971E-02
 152.34    0.11826E-01
 152.35    0.99249E-02
 152.36    0.81488E-02
 152.37    0.68387E-02
 152.38    0.57393E-02
 152.73    0.24369E-01
 152.74    0.21841E-01
 152.75    0.18330E-01
 152.75    0.15724E-01
 152.76    0.13787E-01
 153.14    0.31699E-01
 153.15    0.27192E-01
 153.56    0.36954E-01
 153.96    0.49134E-01
 153.97    0.41235E-01
 154.37    0.63911E-01
 154.38    0.56039E-01
 154.78    0.84975E-01
 154.79    0.76158E-01
 155.19    0.11298
 155.20    0.10126
 155.59    0.16760
 155.61    0.12886
 156.01    0.19116
 156.02    0.14697
 156.85    0.21331
 157.26    0.23802
 158.10    0.25984
 159.79    0.27154
 161.05    0.25994
 161.48    0.23814
 161.91    0.19553
 162.32    0.21345
 162.75    0.17527
 162.76    0.15708
 163.19    0.13774
 163.61    0.12078
 163.62    0.10590
 164.05    0.94919E-01
 164.05    0.86955E-01
 164.05    0.77933E-01
 164.06    0.68334E-01
 164.49    0.61247E-01
 164.50    0.48131E-01
 164.50    0.45069E-01
 164.51    0.38661E-01
 164.52    0.31743E-01
 164.52    0.28449E-01
 164.53    0.25498E-01
 164.54    0.18356E-01
 164.91    0.54895E-01
 164.93    0.35420E-01
 164.95    0.22358E-01
 164.96    0.20038E-01
 164.97    0.17189E-01
 165.39    0.15748E-01
 165.40    0.14114E-01
 166.64    0.21878E-01
 166.65    0.17574E-01
 166.66    0.14749E-01
 167.02    0.52555E-01
 167.03    0.45083E-01
 167.05    0.28458E-01
 167.06    0.24953E-01
 167.46    0.33177E-01
 167.46    0.38675E-01
 167.84    0.83266E-01
 167.85    0.73010E-01
 167.86    0.62629E-01
 168.24    0.13484
 168.25    0.11567
 168.26    0.10142
 168.64    0.23835
 168.65    0.20446
 168.66    0.15379
 169.04    0.33843
 169.05    0.29031
 169.07    0.17929
 169.45    0.45994
 169.46    0.39454
 169.87    0.52457
 170.70    0.58536
 170.70    0.66759
 171.12    0.72877
ENDDATA            414
ENDSUBENT          427
SUBENT        F0567003   20040211   20040519
BIB                  3          4
REACTION   (20-CA-44(A,EL)20-CA-44,,DA,,RTH)
SAMPLE     Target was made by evaporation of the element or
           compound onto carbon backing
STATUS     (CURVE)Fig.1
ENDBIB               4
COMMON               1          3
EN
MEV
  29.0
ENDCOMMON            3
DATA                 2        289
ANG-CM     DATA-CM
ADEG       NO-DIM
 13.630    0.60240
 14.480    0.49320
 15.750    0.43170
 17.010    0.42230
 18.260    0.48270
 19.940    0.53950
 21.620    0.53970
 22.900    0.43220
 23.330    0.36990
 24.180    0.30290
 25.030    0.22690
 25.460    0.18580
 26.740    0.15210
 26.750    0.12740
 27.590    0.10900
 28.860    0.10660
 29.690    0.11920
 30.940    0.16640
 31.770    0.20330
 33.440    0.24830
 35.950    0.29680
 36.390    0.24300
 37.240    0.19460
 38.090    0.16660
 38.100    0.13640
 38.110    0.11670
 38.120    0.97710E-01
 38.150    0.45890E-01
 38.550    0.80000E-01
 38.560    0.66970E-01
 38.570    0.53620E-01
 39.020    0.29430E-01
 39.430    0.36750E-01
 39.870    0.23050E-01
 40.300    0.18460E-01
 41.570    0.17660E-01
 42.370    0.39300E-01
 42.400    0.22050E-01
 42.810    0.27540E-01
 43.180    0.65540E-01
 43.200    0.50200E-01
 43.590    0.81860E-01
 44.420    0.10220
 45.670    0.12770
 46.500    0.14920
 47.770    0.14280
 50.300    0.12780
 51.570    0.10010
 51.580    0.85680E-01
 52.010    0.74980E-01
 52.440    0.62770E-01
 52.460    0.38500E-01
 53.290    0.48080E-01
 53.320    0.30150E-01
 53.350    0.16920E-01
 53.750    0.24140E-01
 53.760    0.20210E-01
 53.780    0.14480E-01
 53.780    0.12390E-01
 53.790    0.10850E-01
 53.820    0.56940E-02
 53.880    0.21410E-02
 53.880    0.18740E-02
 54.220    0.86860E-02
 54.230    0.71110E-02
 54.250    0.49830E-02
 54.280    0.31250E-02
 54.280    0.27350E-02
 54.680    0.41720E-02
 54.690    0.35710E-02
 55.150    0.17540E-02
 56.350    0.58240E-02
 56.390    0.25030E-02
 56.390    0.27350E-02
 56.700    0.22100E-01
 56.710    0.18500E-01
 56.720    0.15490E-01
 56.730    0.12130E-01
 56.740    0.10150E-01
 56.780    0.46640E-02
 56.790    0.39040E-02
 56.800    0.34170E-02
 56.830    0.19170E-02
 57.100    0.30170E-01
 57.110    0.25250E-01
 57.170    0.83120E-02
 57.180    0.69580E-02
 57.520    0.35250E-01
 57.920    0.45010E-01
 57.920    0.51430E-01
 58.750    0.64240E-01
 59.580    0.73420E-01
 60.840    0.83910E-01
 62.510    0.93790E-01
 64.200    0.85830E-01
 65.050    0.73480E-01
 65.480    0.61510E-01
 65.910    0.51490E-01
 65.910    0.45070E-01
 65.920    0.38570E-01
 65.930    0.33010E-01
 66.360    0.27640E-01
 66.790    0.23140E-01
 66.800    0.18530E-01
 66.810    0.16210E-01
 67.240    0.12150E-01
 67.250    0.10630E-01
 67.680    0.87030E-02
 67.690    0.74490E-02
 68.120    0.60990E-02
 68.130    0.53380E-02
 68.550    0.47770E-02
 68.570    0.39110E-02
 69.000    0.32020E-02
 69.000    0.27410E-02
 69.860    0.22440E-02
 70.290    0.16810E-02
 71.060    0.71290E-02
 71.070    0.58360E-02
 71.120    0.21000E-02
 71.130    0.18370E-02
 71.410    0.25870E-01
 71.420    0.19820E-01
 71.450    0.12990E-01
 71.460    0.10640E-01
 71.470    0.91040E-02
 71.500    0.47790E-02
 71.510    0.41820E-02
 71.530    0.26810E-02
 71.540    0.23470E-02
 71.860    0.14850E-01
 71.940    0.32750E-02
 72.240    0.30910E-01
 73.070    0.38610E-01
 74.740    0.48230E-01
 76.420    0.58930E-01
 78.520    0.53930E-01
 79.370    0.44160E-01
 80.240    0.28950E-01
 80.250    0.24240E-01
 80.640    0.38650E-01
 80.650    0.32360E-01
 81.100    0.20290E-01
 81.530    0.17370E-01
 81.540    0.14220E-01
 81.970    0.12170E-01
 81.970    0.10420E-01
 81.990    0.78040E-02
 82.000    0.66800E-02
 82.400    0.91180E-02
 84.930    0.76360E-02
 84.950    0.61140E-02
 85.340    0.10190E-01
 85.740    0.15900E-01
 85.750    0.13020E-01
 86.570    0.19420E-01
 87.400    0.23730E-01
 88.230    0.28990E-01
 88.640    0.34630E-01
 89.890    0.43260E-01
 91.560    0.51690E-01
 93.240    0.52860E-01
 94.510    0.47310E-01
 94.940    0.42340E-01
 95.790    0.36240E-01
 97.060    0.31720E-01
 97.060    0.27150E-01
 97.910    0.23770E-01
 98.340    0.19900E-01
 99.190    0.17410E-01
 100.50    0.15240E-01
 101.70    0.13640E-01
 103.80    0.14910E-01
 104.70    0.17430E-01
 105.90    0.19920E-01
 106.70    0.23800E-01
 107.60    0.26600E-01
 108.40    0.30390E-01
 110.10    0.34740E-01
 113.00    0.34750E-01
 113.90    0.29750E-01
 114.30    0.26040E-01
 115.20    0.19940E-01
 115.60    0.17460E-01
 116.40    0.14610E-01
 116.50    0.12230E-01
 117.70    0.10020E-01
 118.20    0.82020E-02
 119.40    0.68670E-02
 119.40    0.58780E-02
 119.90    0.50310E-02
 122.00    0.45030E-02
 122.80    0.51460E-02
 122.80    0.61480E-02
 123.20    0.71830E-02
 123.20    0.91720E-02
 124.00    0.10720E-01
 124.00    0.12520E-01
 124.40    0.14630E-01
 127.00    0.16360E-01
 129.10    0.16000E-01
 130.70    0.14320E-01
 131.60    0.11990E-01
 132.50    0.71930E-02
 132.90    0.84040E-02
 132.90    0.10040E-01
 133.70    0.57600E-02
 135.00    0.51550E-02
 138.40    0.47190E-02
 139.20    0.40400E-02
 139.60    0.36150E-02
 140.50    0.31640E-02
 140.50    0.25340E-02
 141.80    0.17760E-02
 141.80    0.10190E-02
 142.20    0.14220E-02
 142.20    0.12720E-02
 142.20    0.21690E-02
 142.70    0.89170E-03
 142.70    0.63890E-03
 143.10    0.71400E-03
 143.10    0.57170E-03
 143.50    0.50040E-03
 144.00    0.44780E-03
 144.80    0.51170E-03
 145.60    0.61140E-03
 145.60    0.11140E-02
 146.00    0.97500E-03
 146.00    0.69860E-03
 146.40    0.13310E-02
 146.40    0.16260E-02
 146.40    0.18170E-02
 146.40    0.22690E-02
 146.40    0.27710E-02
 146.50    0.85340E-03
 146.80    0.31670E-02
 147.60    0.36190E-02
 148.10    0.43240E-02
 148.50    0.50520E-02
 149.30    0.61710E-02
 149.70    0.68970E-02
 151.00    0.78830E-02
 152.60    0.78840E-02
 153.90    0.67500E-02
 154.80    0.31710E-02
 155.20    0.54060E-02
 155.20    0.46270E-02
 155.20    0.37050E-02
 155.20    0.60410E-02
 155.20    0.26540E-02
 155.20    0.22220E-02
 155.70    0.19450E-02
 156.90    0.17410E-02
 158.20    0.19450E-02
 158.60    0.23760E-02
 159.00    0.25970E-02
 159.40    0.32440E-02
 159.80    0.36260E-02
 160.20    0.44290E-02
 160.70    0.51750E-02
 161.90    0.64640E-02
 164.00    0.72260E-02
 164.90    0.66120E-02
 165.30    0.59170E-02
 165.30    0.52940E-02
 166.10    0.46340E-02
 166.60    0.38790E-02
 166.60    0.27190E-02
 167.00    0.33950E-02
 167.00    0.24330E-02
 167.00    0.19050E-02
 168.30    0.17050E-02
 169.10    0.19490E-02
 169.10    0.23280E-02
 169.10    0.31770E-02
 169.50    0.26600E-02
 169.90    0.37130E-02
 170.30    0.45350E-02
 170.70    0.64720E-02
 170.70    0.75610E-02
 170.80    0.55400E-02
 171.60    0.90340E-02
 171.60    0.10790E-01
 172.00    0.12890E-01
 172.00    0.14730E-01
 172.40    0.18400E-01
 172.40    0.20560E-01
 172.80    0.25680E-01
 173.20    0.28700E-01
ENDDATA            291
ENDSUBENT          304
SUBENT        F0567004   20040211   20040519
BIB                  3          4
REACTION   (20-CA-48(A,EL)20-CA-48,,DA,,RTH)
SAMPLE     Target was made by evaporation of the element or
           compound onto carbon backing
STATUS     (CURVE)Fig.1
ENDBIB               4
COMMON               1          3
EN
MEV
  29.0
ENDCOMMON            3
DATA                 2        306
ANG-CM     DATA-CM
ADEG       NO-DIM
 14.718    0.57851
 15.562    0.50721
 15.985    0.46463
 16.408    0.41639
 18.088    0.46469
 18.928    0.49631
 20.189    0.53010
 21.451    0.51864
 22.716    0.45473
 23.140    0.39868
 23.142    0.36520
 23.565    0.32018
 24.830    0.28073
 24.832    0.25715
 25.255    0.23045
 25.257    0.21110
 25.264    0.15529
 25.681    0.18106
 26.528    0.13918
 26.952    0.11938
 27.796    0.10936
 29.476    0.11939
 29.894    0.13619
 30.733    0.15535
 31.149    0.18514
 31.567    0.21118
 31.986    0.23566
 32.825    0.25728
 35.769    0.26303
 36.192    0.23572
 36.201    0.15884
 36.616    0.20666
 36.617    0.19350
 36.619    0.17725
 37.054    0.93846E-01
 37.466    0.13927
 37.469    0.11945
 37.471    0.10942
 37.478    0.82278E-01
 37.481    0.70570E-01
 38.326    0.60530E-01
 38.329    0.53068E-01
 38.752    0.46526E-01
 38.755    0.41695E-01
 39.179    0.34986E-01
 39.183    0.29357E-01
 39.607    0.25180E-01
 40.030    0.23066E-01
 40.859    0.39045E-01
 41.277    0.44537E-01
 41.285    0.32052E-01
 41.287    0.28101E-01
 41.290    0.24636E-01
 42.107    0.75389E-01
 42.110    0.64661E-01
 42.114    0.54257E-01
 42.941    0.10476
 42.945    0.85995E-01
 43.358    0.12214
 43.775    0.14557
 45.035    0.16245
 46.295    0.17351
 47.980    0.15551
 47.983    0.13633
 49.248    0.12219
 49.250    0.10950
 49.673    0.10030
 49.676    0.87937E-01
 50.521    0.75427E-01
 50.523    0.66128E-01
 50.951    0.48648E-01
 51.368    0.57978E-01
 51.373    0.44564E-01
 51.377    0.38222E-01
 51.397    0.15554E-01
 51.800    0.33511E-01
 51.807    0.24652E-01
 51.815    0.17742E-01
 51.821    0.13051E-01
 51.825    0.10951E-01
 51.828    0.96012E-02
 52.225    0.28119E-01
 52.231    0.21144E-01
 53.092    0.87955E-02
 54.352    0.96026E-02
 54.770    0.10953E-01
 55.179    0.18541E-01
 55.187    0.13054E-01
 55.603    0.15903E-01
 56.014    0.24123E-01
 56.017    0.21149E-01
 56.426    0.36593E-01
 56.429    0.32081E-01
 56.432    0.27516E-01
 56.835    0.61941E-01
 56.839    0.50847E-01
 57.252    0.73821E-01
 57.263    0.43612E-01
 57.669    0.86071E-01
 58.087    0.98178E-01
 59.346    0.10956
 60.607    0.11962
 62.292    0.10721
 63.136    0.93993E-01
 63.566    0.60622E-01
 63.572    0.47629E-01
 63.982    0.77162E-01
 63.985    0.67649E-01
 63.989    0.55532E-01
 63.996    0.39966E-01
 64.000    0.33535E-01
 64.003    0.28763E-01
 64.848    0.25218E-01
 64.851    0.21629E-01
 64.857    0.16625E-01
 64.860    0.14575E-01
 65.275    0.18552E-01
 65.706    0.11965E-01
 65.715    0.77170E-02
 65.722    0.56769E-02
 66.128    0.10961E-01
 66.132    0.94010E-02
 66.139    0.67657E-02
 66.566    0.50876E-02
 66.569    0.44604E-02
 67.834    0.39108E-02
 68.664    0.63359E-02
 69.088    0.54344E-02
 69.092    0.45600E-02
 69.501    0.78899E-02
 69.910    0.13355E-01
 69.914    0.11206E-01
 69.919    0.89996E-02
 70.326    0.16270E-01
 70.734    0.28775E-01
 70.738    0.24144E-01
 70.743    0.19390E-01
 71.147    0.41776E-01
 71.152    0.33549E-01
 71.564    0.49788E-01
 71.980    0.59337E-01
 72.819    0.67685E-01
 74.500    0.72295E-01
 76.603    0.72304E-01
 77.026    0.67702E-01
 77.449    0.59357E-01
 77.451    0.54372E-01
 77.454    0.47668E-01
 77.456    0.42718E-01
 77.883    0.32123E-01
 78.302    0.35846E-01
 78.728    0.27553E-01
 78.731    0.24156E-01
 79.155    0.20719E-01
 79.579    0.17771E-01
 79.583    0.14912E-01
 80.007    0.13074E-01
 80.430    0.11462E-01
 80.434    0.96177E-02
 80.857    0.88102E-02
 80.860    0.77240E-02
 80.863    0.67717E-02
 80.865    0.59369E-02
 81.300    0.32129E-02
 81.303    0.28168E-02
 81.709    0.53206E-02
 81.717    0.36648E-02
 82.132    0.47682E-02
 82.136    0.40896E-02
 83.407    0.26963E-02
 84.246    0.30089E-02
 84.650    0.63420E-02
 84.663    0.35082E-02
 85.056    0.12516E-01
 85.064    0.86213E-02
 85.067    0.75584E-02
 85.077    0.48747E-02
 85.079    0.42738E-02
 85.469    0.17777E-01
 85.480    0.10503E-01
 85.894    0.14594E-01
 86.303    0.24167E-01
 86.306    0.21188E-01
 87.983    0.28180E-01
 88.401    0.31446E-01
 89.241    0.33586E-01
 90.503    0.33588E-01
 92.185    0.33592E-01
 92.609    0.30104E-01
 92.611    0.26978E-01
 92.617    0.20736E-01
 93.034    0.24713E-01
 93.040    0.18180E-01
 93.884    0.16293E-01
 94.307    0.14601E-01
 94.309    0.13375E-01
 94.314    0.10741E-01
 94.732    0.12252E-01
 94.738    0.92129E-02
 95.161    0.82563E-02
 95.164    0.72384E-02
 95.166    0.66305E-02
 95.591    0.55638E-02
 95.593    0.49860E-02
 96.015    0.46686E-02
 96.018    0.40930E-02
 96.020    0.36680E-02
 96.864    0.32872E-02
 98.547    0.32876E-02
 98.965    0.36686E-02
 99.795    0.60754E-02
 99.798    0.53264E-02
 99.801    0.46697E-02
 99.804    0.40940E-02
 100.21    0.67796E-02
 100.21    0.79044E-02
 100.63    0.94205E-02
 101.04    0.11227E-01
 101.46    0.12529E-01
 101.46    0.14607E-01
 102.30    0.16662E-01
 103.13    0.20299E-01
 103.97    0.23155E-01
 105.65    0.25280E-01
 107.76    0.25844E-01
 109.02    0.24200E-01
 109.44    0.20757E-01
 109.87    0.18602E-01
 109.87    0.16308E-01
 110.71    0.15271E-01
 111.14    0.13388E-01
 112.40    0.11739E-01
 114.51    0.11236E-01
 116.60    0.13690E-01
 117.03    0.12002E-01
 118.28    0.15278E-01
 118.70    0.17427E-01
 119.54    0.19447E-01
 119.96    0.21701E-01
 120.80    0.24217E-01
 121.64    0.27025E-01
 123.74    0.30160E-01
 125.42    0.32215E-01
 127.52    0.31520E-01
 128.79    0.29515E-01
 129.63    0.27038E-01
 130.05    0.24768E-01
 131.32    0.22690E-01
 132.16    0.21246E-01
 133.42    0.19895E-01
 133.85    0.17442E-01
 135.53    0.15633E-01
 137.64    0.14964E-01
 138.90    0.16337E-01
 139.31    0.18230E-01
 140.15    0.19903E-01
 140.57    0.22210E-01
 142.25    0.25336E-01
 143.09    0.28900E-01
 143.93    0.32250E-01
 146.03    0.33701E-01
 147.72    0.30204E-01
 149.40    0.25908E-01
 149.83    0.23733E-01
 150.25    0.20808E-01
 151.09    0.19061E-01
 151.52    0.17082E-01
 152.78    0.15996E-01
 153.62    0.15650E-01
 155.30    0.15998E-01
 156.56    0.17853E-01
 156.98    0.20365E-01
 157.40    0.22232E-01
 159.50    0.24273E-01
 161.18    0.25927E-01
 161.61    0.22731E-01
 162.03    0.19929E-01
 162.45    0.17093E-01
 163.30    0.14987E-01
 163.30    0.13139E-01
 163.31    0.10099E-01
 163.72    0.11775E-01
 164.99    0.90511E-02
 165.41    0.86630E-02
 166.67    0.98819E-02
 167.08    0.14990E-01
 167.08    0.16727E-01
 167.50    0.19503E-01
 167.51    0.12578E-01
 167.51    0.11028E-01
 167.92    0.22739E-01
 168.75    0.25939E-01
 169.17    0.28945E-01
 169.17    0.32299E-01
 169.58    0.44881E-01
 169.59    0.38494E-01
 170.00    0.53489E-01
 170.84    0.62367E-01
 171.26    0.72716E-01
 172.09    0.82946E-01
 172.09    0.96708E-01
 172.51    0.11276
 173.35    0.12310
 173.76    0.14353
 173.76    0.16016
 174.18    0.17105
ENDDATA            308
ENDSUBENT          321
SUBENT        F0567005   20040211   20040519
BIB                  3          4
REACTION   (19-K-39(A,EL)19-K-39,,DA,,RTH)
SAMPLE     Target was made by evaporation of the element or
           compound onto carbon backing
STATUS     (CURVE)Fig.1
ENDBIB               4
COMMON               1          3
EN
MEV
  24.0
ENDCOMMON            3
DATA                 2        303
ANG-CM     DATA-CM
ADEG       NO-DIM
 20.571    0.30002
 21.408    0.34982
 22.244    0.40790
 23.079    0.48616
 23.916    0.56686
 24.332    0.63258
 24.749    0.70592
 26.015    0.66105
 26.447    0.48632
 26.862    0.56703
 26.873    0.41713
 27.299    0.36572
 27.725    0.32064
 27.730    0.27502
 28.156    0.24112
 28.582    0.20682
 28.590    0.16609
 29.007    0.18535
 29.437    0.14563
 29.442    0.12767
 29.867    0.11442
 30.712    0.10482
 32.395    0.10484
 33.233    0.11699
 34.492    0.13057
 35.330    0.14571
 36.590    0.15564
 38.275    0.15229
 39.541    0.13952
 39.968    0.11707
 39.973    0.10041
 40.820    0.88040E-01
 41.246    0.77189E-01
 41.671    0.67676E-01
 42.096    0.61995E-01
 42.100    0.54352E-01
 42.525    0.48709E-01
 42.951    0.42706E-01
 42.954    0.39119E-01
 43.382    0.32114E-01
 43.799    0.35837E-01
 43.806    0.29418E-01
 45.070    0.28784E-01
 45.908    0.32122E-01
 46.324    0.36641E-01
 46.741    0.40889E-01
 47.150    0.56817E-01
 47.154    0.50916E-01
 47.158    0.45629E-01
 47.562    0.72320E-01
 47.566    0.64809E-01
 47.978    0.82493E-01
 48.394    0.94097E-01
 48.807    0.11717
 48.811    0.10501
 49.645    0.13076
 50.062    0.14592
 51.322    0.15932
 53.004    0.16649
 54.688    0.16291
 56.376    0.14601
 56.799    0.13672
 57.225    0.11987
 57.648    0.11224
 58.073    0.10059
 58.497    0.92148E-01
 59.344    0.80794E-01
 59.354    0.60754E-01
 59.769    0.72407E-01
 59.772    0.66326E-01
 60.200    0.54449E-01
 60.203    0.49876E-01
 60.628    0.44698E-01
 61.055    0.37508E-01
 61.060    0.32884E-01
 61.065    0.28829E-01
 61.491    0.25276E-01
 61.494    0.23153E-01
 61.499    0.20299E-01
 61.926    0.17033E-01
 62.352    0.14610E-01
 62.359    0.12259E-01
 62.361    0.11479E-01
 62.366    0.10064E-01
 62.791    0.90188E-02
 63.636    0.82621E-02
 64.052    0.94243E-02
 64.451    0.17415E-01
 64.455    0.15607E-01
 64.460    0.13386E-01
 64.464    0.11996E-01
 64.469    0.10517E-01
 64.856    0.26418E-01
 64.861    0.23161E-01
 64.867    0.19865E-01
 65.261    0.41872E-01
 65.267    0.35134E-01
 65.271    0.31486E-01
 65.677    0.46726E-01
 66.094    0.52143E-01
 66.510    0.60796E-01
 67.341    0.80858E-01
 67.347    0.69352E-01
 67.758    0.90232E-01
 68.175    0.10069
 69.012    0.11486
 69.852    0.12268
 71.531    0.13692
 73.215    0.13694
 74.481    0.12546
 74.485    0.11243
 75.331    0.10076
 75.755    0.92305E-01
 76.180    0.82723E-01
 76.605    0.74135E-01
 77.451    0.65001E-01
 77.877    0.56989E-01
 78.303    0.49965E-01
 78.728    0.43807E-01
 78.738    0.33671E-01
 79.154    0.38408E-01
 79.585    0.29523E-01
 79.589    0.26457E-01
 80.014    0.23196E-01
 80.018    0.20787E-01
 80.023    0.18224E-01
 80.448    0.16332E-01
 80.452    0.14636E-01
 80.876    0.13408E-01
 81.302    0.11755E-01
 81.307    0.10306E-01
 81.732    0.90357E-02
 81.736    0.80973E-02
 81.749    0.57011E-02
 82.160    0.74176E-02
 82.165    0.65031E-02
 82.171    0.54567E-02
 83.436    0.52232E-02
 84.274    0.57026E-02
 84.681    0.84628E-02
 84.691    0.65047E-02
 85.107    0.74198E-02
 85.517    0.98677E-02
 86.351    0.12288E-01
 86.354    0.11256E-01
 87.188    0.14017E-01
 88.026    0.15643E-01
 88.862    0.18240E-01
 89.700    0.20356E-01
 90.116    0.23219E-01
 91.376    0.25351E-01
 92.219    0.24803E-01
 92.641    0.23740E-01
 93.486    0.21748E-01
 93.489    0.19921E-01
 93.912    0.19067E-01
 93.916    0.17087E-01
 94.761    0.15654E-01
 95.607    0.13725E-01
 96.032    0.12573E-01
 98.123    0.17861E-01
 98.128    0.15659E-01
 98.139    0.11775E-01
 98.539    0.20825E-01
 98.553    0.14033E-01
 98.956    0.23239E-01
 99.371    0.27096E-01
 99.781    0.36835E-01
 99.786    0.31593E-01
 100.20    0.42948E-01
 100.61    0.50076E-01
 101.45    0.55883E-01
 101.87    0.63744E-01
 102.70    0.72714E-01
 103.54    0.84786E-01
 104.38    0.96717E-01
 105.21    0.11033
 106.47    0.11784
 108.58    0.12048
 109.84    0.11038
 109.85    0.96769E-01
 110.69    0.86727E-01
 111.12    0.77723E-01
 111.12    0.71196E-01
 111.55    0.63805E-01
 111.97    0.55941E-01
 112.40    0.50134E-01
 112.82    0.43001E-01
 113.25    0.38537E-01
 113.25    0.33053E-01
 113.68    0.29622E-01
 114.10    0.27135E-01
 114.11    0.24857E-01
 114.53    0.21793E-01
 114.96    0.19531E-01
 114.96    0.17890E-01
 115.80    0.16753E-01
 117.07    0.17506E-01
 117.47    0.26556E-01
 117.48    0.22777E-01
 117.48    0.19112E-01
 117.87    0.44952E-01
 117.87    0.50161E-01
 117.88    0.35317E-01
 117.89    0.29634E-01
 118.28    0.63848E-01
 118.29    0.57217E-01
 118.30    0.40285E-01
 118.69    0.81269E-01
 118.70    0.72829E-01
 119.53    0.90694E-01
 119.53    0.10345
 120.36    0.11545
 120.78    0.12883
 121.62    0.14377
 122.04    0.16399
 123.29    0.17905
 124.56    0.18304
 125.40    0.17909
 126.66    0.17143
 127.51    0.16052
 127.51    0.15030
 128.78    0.14075
 129.20    0.12894
 130.47    0.11812
 131.31    0.11061
 132.57    0.10588
 133.83    0.11309
 134.67    0.12347
 135.09    0.13778
 135.93    0.15376
 136.76    0.17540
 136.76    0.20904
 137.60    0.22822
 138.44    0.24916
 140.12    0.26615
 141.38    0.25476
 142.65    0.23340
 142.65    0.21380
 142.65    0.19584
 143.50    0.17552
 143.50    0.15729
 144.35    0.14409
 144.77    0.12633
 144.78    0.11572
 145.20    0.10371
 146.05    0.95009E-01
 146.05    0.87030E-01
 146.05    0.79721E-01
 146.48    0.71445E-01
 146.90    0.65448E-01
 148.17    0.61288E-01
 149.01    0.66913E-01
 149.42    0.74670E-01
 149.84    0.83327E-01
 149.84    0.90966E-01
 150.25    0.10376
 151.09    0.11328
 151.51    0.13209
 151.92    0.15401
 152.34    0.17567
 152.75    0.20937
 152.75    0.25505
 153.16    0.28462
 153.58    0.33185
 154.42    0.37855
 154.83    0.42243
 155.25    0.46118
 156.09    0.50350
 156.93    0.56190
 158.61    0.60021
 159.03    0.56201
 160.30    0.52630
 160.72    0.47166
 160.72    0.43205
 161.15    0.41353
 161.57    0.37882
 162.00    0.33213
 162.00    0.31098
 162.00    0.28486
 162.43    0.26095
 162.85    0.24435
 162.85    0.22879
 163.28    0.21423
 163.70    0.19199
 163.71    0.16832
 164.13    0.15419
 164.98    0.13819
 165.40    0.13227
 166.66    0.12941
 167.92    0.13823
 168.33    0.17595
 168.34    0.15091
 169.17    0.20071
 169.58    0.25547
 169.59    0.22398
 170.00    0.29141
 170.42    0.31814
 170.83    0.36289
 170.83    0.39616
 170.83    0.42310
 170.83    0.44207
 171.24    0.48262
ENDDATA            305
ENDSUBENT          318
SUBENT        F0567006   20040211   20040519
BIB                  3          4
REACTION   (19-K-40(A,EL)19-K-40,,DA,,RTH)
SAMPLE     Target was made by evaporation of the element or
           compound onto carbon backing
STATUS     (CURVE)Fig.1
ENDBIB               4
COMMON               1          3
EN
MEV
  24.0
ENDCOMMON            3
DATA                 2        202
ANG-CM     DATA-CM
ADEG       NO-DIM
 20.830    0.43560
 22.510    0.44530
 23.350    0.43570
 24.600    0.41710
 25.870    0.35780
 26.290    0.31370
 27.140    0.25750
 28.400    0.22090
 28.830    0.17740
 30.100    0.13940
 30.940    0.12770
 33.030    0.14570
 33.860    0.17750
 35.530    0.21160
 37.200    0.25780
 38.880    0.25220
 39.720    0.20260
 40.570    0.17380
 40.990    0.14910
 41.840    0.12240
 41.840    0.10270
 42.270    0.84290E-01
 42.700    0.69200E-01
 43.120    0.60670E-01
 43.550    0.50910E-01
 46.060    0.52050E-01
 46.890    0.62040E-01
 47.720    0.75580E-01
 48.970    0.10050
 49.800    0.11980
 50.630    0.14280
 51.050    0.16290
 51.880    0.18180
 53.970    0.21670
 54.810    0.18590
 55.240    0.15940
 56.080    0.13980
 56.930    0.12260
 57.360    0.96300E-01
 57.780    0.82600E-01
 57.780    0.74020E-01
 58.210    0.62110E-01
 58.630    0.54460E-01
 59.060    0.44710E-01
 59.070    0.38340E-01
 59.080    0.27000E-01
 59.490    0.31480E-01
 59.510    0.22160E-01
 59.930    0.19430E-01
 60.360    0.16670E-01
 60.360    0.13680E-01
 60.790    0.11480E-01
 61.220    0.96340E-02
 61.220    0.77370E-02
 61.650    0.59470E-02
 62.900    0.86350E-02
 62.910    0.69340E-02
 63.310    0.10290E-01
 63.710    0.18600E-01
 63.720    0.13390E-01
 64.520    0.35920E-01
 64.530    0.27610E-01
 64.930    0.45730E-01
 65.340    0.58200E-01
 66.170    0.66390E-01
 67.000    0.88300E-01
 67.830    0.11240
 70.340    0.13110
 72.010    0.14310
 74.530    0.13700
 74.960    0.10770
 74.960    0.94380E-01
 75.390    0.77480E-01
 75.390    0.70980E-01
 75.820    0.58270E-01
 76.240    0.52220E-01
 77.090    0.43820E-01
 77.090    0.36770E-01
 77.110    0.25890E-01
 77.520    0.30850E-01
 77.950    0.21720E-01
 78.380    0.18230E-01
 78.800    0.14960E-01
 79.230    0.12560E-01
 79.250    0.75830E-02
 79.660    0.10310E-01
 79.680    0.62250E-02
 80.080    0.88420E-02
 80.520    0.51110E-02
 81.370    0.42890E-02
 83.010    0.10770E-01
 83.420    0.14330E-01
 83.440    0.84660E-02
 83.460    0.43850E-02
 83.830    0.17840E-01
 83.860    0.71040E-02
 83.870    0.60930E-02
 83.880    0.50020E-02
 84.660    0.20360E-01
 85.070    0.24800E-01
 85.490    0.28290E-01
 86.320    0.33710E-01
 88.410    0.36010E-01
 89.250    0.32990E-01
 90.520    0.27090E-01
 90.520    0.23230E-01
 90.960    0.14660E-01
 91.370    0.16720E-01
 91.370    0.19930E-01
 92.640    0.12040E-01
 92.650    0.10790E-01
 92.650    0.92510E-02
 93.500    0.74300E-02
 94.760    0.63730E-02
 97.700    0.69600E-02
 98.520    0.10330E-01
 98.530    0.84790E-02
 99.350    0.13150E-01
 99.750    0.18270E-01
 99.760    0.15670E-01
 100.60    0.21780E-01
 101.40    0.24840E-01
 101.80    0.35280E-01
 102.20    0.30260E-01
 102.70    0.42980E-01
 103.50    0.50120E-01
 103.50    0.58440E-01
 104.70    0.63800E-01
 106.00    0.71200E-01
 108.10    0.69680E-01
 109.30    0.62450E-01
 109.80    0.53560E-01
 110.60    0.48010E-01
 110.60    0.42090E-01
 110.60    0.32350E-01
 111.00    0.36100E-01
 111.90    0.22290E-01
 112.30    0.25980E-01
 113.20    0.18700E-01
 115.70    0.17520E-01
 117.40    0.18300E-01
 117.80    0.21820E-01
 117.80    0.27770E-01
 118.20    0.33090E-01
 118.20    0.41210E-01
 118.60    0.48050E-01
 118.60    0.58530E-01
 119.00    0.69760E-01
 120.20    0.83140E-01
 121.10    0.96950E-01
 121.50    0.11300
 122.70    0.13470
 124.40    0.15370
 125.70    0.15710
 127.80    0.15380
 128.60    0.13480
 129.00    0.11560
 129.50    0.97030E-01
 130.30    0.88890E-01
 130.70    0.68330E-01
 132.00    0.62600E-01
 133.20    0.62600E-01
 134.90    0.65420E-01
 136.20    0.76290E-01
 137.00    0.85140E-01
 137.80    0.10150
 138.20    0.11320
 140.30    0.13800
 141.20    0.16440
 142.40    0.19180
 143.30    0.20480
 144.50    0.19600
 145.40    0.16820
 145.40    0.14110
 145.40    0.12100
 146.20    0.10610
 146.60    0.91020E-01
 147.50    0.81570E-01
 149.60    0.85250E-01
 150.00    0.10160
 150.40    0.11850
 150.80    0.13220
 151.60    0.14750
 152.10    0.17580
 152.90    0.20500
 153.30    0.24980
 155.00    0.27880
 156.20    0.33230
 158.70    0.35490
 160.40    0.32520
 161.70    0.29150
 162.50    0.24460
 163.00    0.21440
 163.40    0.19220
 163.80    0.16850
 164.20    0.14770
 164.60    0.12950
 165.90    0.11610
 167.20    0.11610
 168.80    0.12130
 169.70    0.14460
 169.70    0.16860
ENDDATA            204
ENDSUBENT          217
SUBENT        F0567007   20040211   20040519
BIB                  3          4
REACTION   (19-K-41(A,EL)19-K-41,,DA,,RTH)
SAMPLE     Target was made by evaporation of the element or
           compound onto carbon backing
STATUS     (CURVE)Fig.1
ENDBIB               4
COMMON               1          3
EN
MEV
  24.0
ENDCOMMON            3
DATA                 2        299
ANG-CM     DATA-CM
ADEG       NO-DIM
 26.330    0.17450
 27.180    0.15990
 28.020    0.14650
 28.460    0.13130
 29.720    0.12570
 32.230    0.13730
 32.640    0.14990
 33.880    0.18270
 33.890    0.16740
 35.120    0.20400
 36.370    0.23270
 37.200    0.25410
 39.300    0.23810
 39.740    0.20880
 40.170    0.18710
 40.610    0.16050
 40.620    0.14380
 41.050    0.12610
 41.480    0.11810
 41.910    0.10590
 41.920    0.96970E-01
 42.350    0.86910E-01
 42.360    0.77880E-01
 42.800    0.68290E-01
 43.230    0.62560E-01
 43.240    0.57310E-01
 43.670    0.52500E-01
 44.930    0.49180E-01
 45.770    0.52540E-01
 46.590    0.58640E-01
 47.010    0.62630E-01
 47.840    0.68390E-01
 48.230    0.87060E-01
 48.240    0.76330E-01
 49.040    0.11580
 49.050    0.10380
 49.060    0.97180E-01
 49.450    0.12640
 50.280    0.13510
 50.680    0.15410
 51.090    0.16820
 51.930    0.17580
 52.750    0.20960
 54.000    0.21910
 54.430    0.19630
 54.870    0.17600
 54.880    0.15770
 55.310    0.13830
 55.740    0.12670
 55.760    0.11110
 56.190    0.97380E-01
 57.040    0.85400E-01
 57.050    0.78230E-01
 57.070    0.68580E-01
 57.500    0.60140E-01
 57.520    0.52720E-01
 57.530    0.47250E-01
 57.540    0.41420E-01
 57.560    0.36310E-01
 57.590    0.27310E-01
 57.600    0.23940E-01
 57.610    0.22420E-01
 58.000    0.31150E-01
 58.050    0.19230E-01
 58.100    0.12400E-01
 58.480    0.17620E-01
 58.490    0.15790E-01
 58.500    0.14150E-01
 58.530    0.10870E-01
 58.960    0.97460E-02
 58.970    0.89280E-02
 58.980    0.81780E-02
 59.000    0.70140E-02
 59.430    0.61500E-02
 59.860    0.56340E-02
 60.710    0.50510E-02
 61.980    0.49430E-02
 62.810    0.53970E-02
 63.200    0.70230E-02
 63.610    0.76680E-02
 63.630    0.61580E-02
 63.880    0.29220E-01
 63.900    0.25060E-01
 63.910    0.21970E-01
 63.920    0.19260E-01
 63.940    0.16520E-01
 63.980    0.11890E-01
 63.990    0.10660E-01
 64.280    0.33330E-01
 64.370    0.14810E-01
 64.380    0.13560E-01
 64.430    0.89420E-02
 64.680    0.40610E-01
 65.080    0.47350E-01
 65.490    0.54020E-01
 65.890    0.62990E-01
 66.300    0.68770E-01
 66.700    0.81970E-01
 67.110    0.91480E-01
 67.520    0.10210
 68.350    0.11150
 68.760    0.12170
 69.590    0.13290
 70.420    0.14200
 71.260    0.14200
 72.520    0.14210
 72.530    0.12730
 72.550    0.11160
 72.560    0.10230
 72.570    0.91630E-01
 73.420    0.82140E-01
 73.430    0.75240E-01
 73.860    0.70460E-01
 74.290    0.61780E-01
 74.300    0.54160E-01
 74.740    0.46460E-01
 75.180    0.38990E-01
 76.460    0.32730E-01
 76.470    0.28070E-01
 76.490    0.24080E-01
 76.500    0.22050E-01
 76.520    0.19340E-01
 76.530    0.16950E-01
 77.390    0.14540E-01
 77.400    0.12470E-01
 77.420    0.10700E-01
 77.870    0.84070E-02
 77.880    0.72100E-02
 78.270    0.93820E-02
 78.330    0.57910E-02
 78.350    0.46510E-02
 78.740    0.63230E-02
 78.760    0.51910E-02
 78.780    0.41690E-02
 79.220    0.37360E-02
 79.250    0.26300E-02
 79.650    0.32050E-02
 79.660    0.28720E-02
 79.680    0.24100E-02
 80.960    0.21140E-02
 82.160    0.36580E-02
 82.170    0.32780E-02
 82.180    0.28740E-02
 82.190    0.25760E-02
 82.200    0.23590E-02
 82.220    0.21140E-02
 82.470    0.93940E-02
 82.840    0.14570E-01
 82.860    0.11960E-01
 82.860    0.13050E-01
 82.880    0.10720E-01
 82.910    0.82370E-02
 82.920    0.72210E-02
 82.940    0.61940E-02
 82.950    0.55510E-02
 82.960    0.50840E-02
 82.980    0.42660E-02
 83.250    0.15900E-01
 83.650    0.20250E-01
 83.660    0.18140E-01
 84.040    0.26340E-01
 84.050    0.22600E-01
 84.440    0.30050E-01
 85.270    0.33540E-01
 86.100    0.35830E-01
 87.360    0.35850E-01
 88.620    0.34320E-01
 89.480    0.30760E-01
 89.910    0.27570E-01
 90.340    0.24180E-01
 90.350    0.21670E-01
 90.370    0.19420E-01
 90.810    0.15600E-01
 91.220    0.17400E-01
 91.240    0.13670E-01
 91.710    0.92160E-02
 92.090    0.12530E-01
 92.100    0.11480E-01
 92.120    0.10280E-01
 92.560    0.79060E-02
 92.580    0.70850E-02
 92.590    0.62120E-02
 93.020    0.55670E-02
 93.040    0.48810E-02
 93.050    0.42790E-02
 93.490    0.37520E-02
 93.500    0.34370E-02
 93.500    0.32180E-02
 93.940    0.27010E-02
 94.380    0.22660E-02
 94.390    0.20760E-02
 95.240    0.18210E-02
 96.510    0.17820E-02
 96.880    0.27630E-02
 96.890    0.24220E-02
 96.900    0.22190E-02
 96.910    0.20330E-02
 97.280    0.31520E-02
 97.690    0.34410E-02
 97.690    0.36750E-02
 98.060    0.53370E-02
 98.080    0.46790E-02
 98.090    0.42860E-02
 98.420    0.98620E-02
 98.440    0.75800E-02
 98.440    0.82750E-02
 98.460    0.66460E-02
 98.470    0.60880E-02
 98.780    0.16700E-01
 98.790    0.14320E-01
 98.820    0.11250E-01
 99.230    0.12830E-01
 99.600    0.19050E-01
 100.00    0.22210E-01
 100.80    0.24790E-01
 101.20    0.27070E-01
 102.50    0.30890E-01
 103.30    0.35240E-01
 104.60    0.37650E-01
 106.20    0.38500E-01
 108.80    0.36080E-01
 109.20    0.33790E-01
 110.50    0.31650E-01
 110.90    0.28360E-01
 112.20    0.24880E-01
 112.60    0.22790E-01
 113.00    0.20430E-01
 113.50    0.17520E-01
 113.90    0.16050E-01
 114.70    0.14710E-01
 116.80    0.15380E-01
 117.20    0.18330E-01
 117.60    0.20450E-01
 118.00    0.23330E-01
 118.50    0.26040E-01
 118.90    0.29060E-01
 119.20    0.43130E-01
 119.30    0.37810E-01
 119.30    0.33150E-01
 120.10    0.48140E-01
 120.50    0.54920E-01
 121.70    0.62670E-01
 123.40    0.68450E-01
 125.10    0.66990E-01
 127.20    0.62770E-01
 127.60    0.57500E-01
 128.90    0.53860E-01
 129.70    0.47230E-01
 130.60    0.42340E-01
 131.40    0.33270E-01
 131.80    0.37130E-01
 131.90    0.29820E-01
 133.60    0.27330E-01
 134.40    0.26170E-01
 135.70    0.26760E-01
 136.90    0.29870E-01
 137.70    0.31910E-01
 138.10    0.35610E-01
 139.40    0.39750E-01
 140.60    0.42470E-01
 141.90    0.46380E-01
 143.20    0.44410E-01
 145.30    0.41610E-01
 147.40    0.39840E-01
 148.60    0.42570E-01
 150.30    0.49660E-01
 151.10    0.56660E-01
 151.90    0.61870E-01
 153.60    0.72170E-01
 154.90    0.78810E-01
 156.10    0.87980E-01
 157.40    0.88010E-01
 159.00    0.82450E-01
 160.30    0.77230E-01
 160.70    0.70750E-01
 161.60    0.59380E-01
 162.90    0.49850E-01
 163.30    0.45670E-01
 163.70    0.40040E-01
 164.20    0.36680E-01
 164.20    0.32160E-01
 164.60    0.28820E-01
 166.30    0.28840E-01
 167.10    0.31490E-01
 167.10    0.35920E-01
 168.30    0.43770E-01
 168.30    0.48850E-01
 168.40    0.39230E-01
 168.70    0.54510E-01
 169.10    0.66410E-01
 169.20    0.60840E-01
 169.50    0.75760E-01
 169.50    0.88330E-01
 170.40    0.10080
 170.80    0.10530
 171.20    0.12550
 171.60    0.13700
 172.40    0.14640
 172.80    0.16700
ENDDATA            301
ENDSUBENT          314
SUBENT        F0567008   20040211   20040519
BIB                  3          3
REACTION   (18-AR-36(A,EL)18-AR-36,,DA,,RTH)
SAMPLE     A gas target.
STATUS     (CURVE)Fig.1
ENDBIB               3
COMMON               1          3
EN
MEV
  24.0
ENDCOMMON            3
DATA                 2        305
ANG-CM     DATA-CM
ADEG       NO-DIM
 16.370    0.50290
 17.220    0.42180
 18.060    0.38640
 18.060    0.35380
 19.330    0.31700
 21.020    0.28400
 21.850    0.31710
 23.110    0.33870
 24.790    0.36990
 26.480    0.37000
 27.740    0.33150
 28.590    0.29060
 29.010    0.25460
 29.440    0.23320
 29.440    0.20890
 30.280    0.17910
 31.550    0.15360
 31.560    0.13170
 32.400    0.11800
 32.820    0.11050
 34.090    0.10120
 35.770    0.10120
 37.450    0.11300
 37.870    0.12610
 38.280    0.14390
 38.700    0.15710
 39.120    0.17160
 39.540    0.18330
 40.800    0.19150
 42.480    0.18330
 42.910    0.16070
 43.750    0.14390
 44.180    0.12340
 44.600    0.11060
 44.610    0.10130
 45.030    0.92740E-01
 45.030    0.83080E-01
 45.460    0.74430E-01
 45.880    0.65230E-01
 46.730    0.58450E-01
 47.150    0.50110E-01
 48.000    0.44900E-01
 48.000    0.41120E-01
 48.430    0.33000E-01
 49.270    0.36040E-01
 50.100    0.44900E-01
 50.520    0.49030E-01
 50.930    0.55950E-01
 51.350    0.65270E-01
 51.350    0.72850E-01
 51.760    0.81320E-01
 52.180    0.92790E-01
 52.600    0.10360
 53.010    0.12910
 53.430    0.15050
 53.840    0.16800
 53.840    0.18350
 54.260    0.20940
 55.520    0.21880
 56.780    0.22370
 58.460    0.21890
 59.310    0.19180
 59.310    0.16810
 59.320    0.14410
 59.740    0.15400
 60.160    0.13200
 60.590    0.12090
 60.590    0.11320
 60.590    0.10370
 61.020    0.92860E-01
 61.020    0.85040E-01
 61.020    0.79620E-01
 61.020    0.71330E-01
 61.450    0.65320E-01
 61.870    0.57250E-01
 62.300    0.52430E-01
 62.300    0.48020E-01
 62.300    0.43020E-01
 62.300    0.39400E-01
 62.730    0.33040E-01
 63.160    0.28960E-01
 63.580    0.25940E-01
 63.580    0.22240E-01
 63.590    0.20370E-01
 64.010    0.18250E-01
 64.440    0.16350E-01
 64.440    0.14020E-01
 64.860    0.12840E-01
 65.290    0.11500E-01
 65.290    0.98610E-02
 65.720    0.90310E-02
 65.720    0.79150E-02
 66.560    0.82710E-02
 66.970    0.11250E-01
 66.980    0.98620E-02
 66.980    0.88350E-02
 67.350    0.37720E-01
 67.370    0.19930E-01
 67.380    0.16000E-01
 67.380    0.17470E-01
 67.390    0.13720E-01
 67.390    0.12560E-01
 67.780    0.29610E-01
 67.780    0.33790E-01
 67.790    0.25390E-01
 67.790    0.22750E-01
 68.180    0.54820E-01
 68.180    0.59860E-01
 68.190    0.42100E-01
 68.190    0.48040E-01
 68.600    0.66820E-01
 69.430    0.77940E-01
 69.850    0.87000E-01
 70.270    0.97120E-01
 70.690    0.10840
 71.520    0.11840
 71.940    0.13210
 73.200    0.14430
 75.300    0.14750
 76.990    0.13810
 77.830    0.12650
 78.260    0.11340
 78.680    0.10610
 78.680    0.99350E-01
 79.110    0.89010E-01
 79.950    0.79750E-01
 79.950    0.69890E-01
 80.380    0.64010E-01
 80.380    0.57340E-01
 80.380    0.52510E-01
 80.390    0.47050E-01
 80.810    0.42150E-01
 81.240    0.36940E-01
 81.240    0.33090E-01
 81.660    0.29650E-01
 81.670    0.25980E-01
 82.090    0.23280E-01
 82.100    0.21320E-01
 82.100    0.19100E-01
 82.100    0.16380E-01
 82.530    0.14670E-01
 82.540    0.11270E-01
 82.540    0.10320E-01
 82.950    0.12580E-01
 82.970    0.86550E-02
 82.970    0.79260E-02
 82.970    0.69470E-02
 83.400    0.60880E-02
 83.400    0.55760E-02
 83.400    0.51060E-02
 83.830    0.45750E-02
 83.830    0.41890E-02
 84.250    0.40090E-02
 84.680    0.36720E-02
 85.100    0.32900E-02
 85.940    0.30800E-02
 85.940    0.32900E-02
 86.350    0.43790E-02
 86.360    0.39230E-02
 86.360    0.35930E-02
 86.760    0.75880E-02
 86.770    0.54560E-02
 86.770    0.47810E-02
 87.170    0.82860E-02
 87.170    0.92490E-02
 87.180    0.66500E-02
 87.590    0.10320E-01
 87.600    0.62260E-02
 88.000    0.11780E-01
 88.000    0.13440E-01
 88.410    0.16750E-01
 88.420    0.15000E-01
 88.830    0.18700E-01
 89.250    0.21330E-01
 89.660    0.24340E-01
 90.080    0.27170E-01
 90.920    0.29670E-01
 92.600    0.31010E-01
 93.860    0.30340E-01
 94.290    0.28400E-01
 94.710    0.25450E-01
 94.710    0.23310E-01
 95.140    0.21340E-01
 95.560    0.19550E-01
 95.560    0.17900E-01
 95.570    0.16390E-01
 95.990    0.14370E-01
 96.410    0.12870E-01
 96.840    0.11530E-01
 96.840    0.10110E-01
 96.850    0.90550E-02
 97.270    0.81130E-02
 97.700    0.71100E-02
 97.700    0.59630E-02
 97.700    0.55820E-02
 98.120    0.65120E-02
 98.130    0.50010E-02
 98.130    0.44810E-02
 98.140    0.38410E-02
 98.140    0.35180E-02
 98.140    0.32930E-02
 98.140    0.30160E-02
 98.570    0.28240E-02
 98.570    0.25860E-02
 98.990    0.22660E-02
 99.000    0.19860E-02
 99.810    0.43840E-02
 99.820    0.32940E-02
 99.820    0.39270E-02
 99.830    0.25860E-02
 99.830    0.30170E-02
 99.840    0.18190E-02
 100.20    0.50020E-02
 100.20    0.58350E-02
 100.20    0.66580E-02
 100.30    0.20760E-02
 100.30    0.23680E-02
 100.60    0.74320E-02
 101.10    0.88610E-02
 101.50    0.96760E-02
 101.50    0.12320E-01
 101.90    0.10800E-01
 102.30    0.14380E-01
 102.70    0.16770E-01
 103.10    0.19130E-01
 103.10    0.20890E-01
 103.50    0.24370E-01
 104.00    0.27210E-01
 104.40    0.31730E-01
 104.80    0.36210E-01
 104.80    0.40420E-01
 105.20    0.45120E-01
 105.60    0.50360E-01
 106.50    0.58750E-01
 107.30    0.67040E-01
 107.70    0.73210E-01
 109.00    0.81720E-01
 109.00    0.91220E-01
 110.70    0.97460E-01
 111.90    0.95350E-01
 113.20    0.89270E-01
 114.40    0.85440E-01
 115.70    0.79990E-01
 116.10    0.74890E-01
 116.60    0.70110E-01
 117.80    0.65640E-01
 119.10    0.62820E-01
 120.80    0.65660E-01
 122.00    0.70140E-01
 122.90    0.81820E-01
 123.70    0.95440E-01
 125.00    0.10890
 125.80    0.12430
 127.00    0.13870
 128.70    0.16190
 130.40    0.18470
 131.20    0.19730
 132.50    0.22030
 133.80    0.23020
 135.90    0.23030
 137.50    0.23540
 139.20    0.23540
 140.50    0.22530
 141.30    0.21570
 142.20    0.19750
 143.00    0.18490
 144.30    0.16940
 145.10    0.15510
 145.60    0.14520
 146.40    0.13600
 147.20    0.12180
 148.10    0.11160
 148.50    0.99950E-01
 149.40    0.95660E-01
 151.00    0.95670E-01
 151.00    0.10680
 151.90    0.11920
 152.30    0.13310
 152.30    0.14850
 153.10    0.16950
 153.50    0.19340
 154.00    0.22070
 154.40    0.25180
 155.20    0.28110
 156.50    0.31380
 157.70    0.34270
 159.00    0.37430
 160.30    0.37430
 161.50    0.35040
 161.90    0.32090
 161.90    0.29390
 162.80    0.26330
 163.20    0.25200
 163.60    0.22580
 164.10    0.20230
 164.50    0.18940
 164.90    0.17340
 165.30    0.15540
 165.80    0.14230
 165.80    0.13030
 166.60    0.12470
 167.90    0.13320
 168.70    0.14550
 169.10    0.15540
 170.00    0.16970
ENDDATA            307
ENDSUBENT          319
SUBENT        F0567009   20040211   20040519
BIB                  3          3
REACTION   (18-AR-38(A,EL)18-AR-38,,DA,,RTH)
SAMPLE     A gas target.
STATUS     (CURVE)Fig.1
ENDBIB               3
COMMON               1          3
EN
MEV
  24.0
ENDCOMMON            3
DATA                 2        286
ANG-CM     DATA-CM
ADEG       NO-DIM
 15.320    0.49750
 15.740    0.43580
 15.750    0.32710
 16.170    0.37340
 17.860    0.28660
 20.390    0.28660
 21.230    0.32010
 23.330    0.36560
 23.740    0.40820
 26.270    0.43630
 27.110    0.40840
 27.960    0.35780
 28.380    0.31340
 29.230    0.28690
 29.240    0.24050
 30.080    0.20610
 30.090    0.17660
 30.940    0.15130
 31.790    0.12130
 32.640    0.10870
 33.900    0.11610
 35.160    0.12140
 36.840    0.11110
 38.950    0.11120
 39.790    0.10410
 40.220    0.89160E-01
 41.070    0.76400E-01
 41.500    0.66920E-01
 41.930    0.52500E-01
 42.340    0.58630E-01
 43.620    0.45990E-01
 44.040    0.38550E-01
 45.310    0.33770E-01
 46.160    0.30250E-01
 47.000    0.33040E-01
 47.820    0.46020E-01
 47.830    0.39430E-01
 48.240    0.52530E-01
 48.660    0.59980E-01
 49.070    0.73160E-01
 49.910    0.81710E-01
 50.320    0.99670E-01
 51.150    0.11890
 51.570    0.13880
 51.980    0.16200
 52.400    0.18090
 54.080    0.19340
 54.930    0.17700
 55.780    0.14840
 56.620    0.13290
 57.050    0.12170
 57.050    0.10660
 57.060    0.79990E-01
 57.900    0.91320E-01
 58.750    0.67050E-01
 58.760    0.57450E-01
 58.770    0.46070E-01
 59.200    0.38610E-01
 59.200    0.35350E-01
 59.630    0.28980E-01
 59.640    0.22240E-01
 59.650    0.19480E-01
 59.650    0.16690E-01
 59.660    0.13990E-01
 60.090    0.12250E-01
 60.530    0.70560E-02
 60.530    0.60460E-02
 60.550    0.44390E-02
 60.550    0.38880E-02
 60.560    0.33310E-02
 60.930    0.10730E-01
 60.940    0.86080E-02
 60.960    0.49570E-02
 62.250    0.28550E-02
 63.090    0.31880E-02
 63.480    0.63210E-02
 63.500    0.38040E-02
 63.890    0.82390E-02
 63.890    0.92000E-02
 63.900    0.70590E-02
 63.910    0.55370E-02
 64.300    0.10740E-01
 64.330    0.45400E-02
 64.710    0.13100E-01
 65.120    0.17840E-01
 65.130    0.15630E-01
 65.520    0.29650E-01
 65.530    0.24850E-01
 65.540    0.21290E-01
 66.350    0.40390E-01
 66.770    0.47140E-01
 66.780    0.34610E-01
 67.180    0.55020E-01
 68.020    0.65650E-01
 68.430    0.80090E-01
 69.260    0.95570E-01
 69.680    0.11150
 71.360    0.11660
 73.050    0.11160
 74.320    0.95620E-01
 75.590    0.81940E-01
 76.010    0.71780E-01
 76.020    0.61500E-01
 76.020    0.51540E-01
 76.870    0.45150E-01
 77.300    0.35420E-01
 77.310    0.31030E-01
 77.740    0.24880E-01
 77.750    0.17480E-01
 78.160    0.21800E-01
 78.180    0.16000E-01
 78.610    0.12550E-01
 78.610    0.10750E-01
 78.620    0.88170E-02
 79.050    0.73900E-02
 79.070    0.38110E-02
 79.480    0.61940E-02
 79.910    0.43510E-02
 79.930    0.30560E-02
 80.330    0.51920E-02
 80.770    0.26190E-02
 80.780    0.21470E-02
 80.790    0.17990E-02
 80.790    0.15420E-02
 80.800    0.13500E-02
 81.230    0.12090E-02
 82.910    0.13210E-02
 83.310    0.19230E-02
 83.320    0.17220E-02
 83.320    0.15090E-02
 83.720    0.23980E-02
 83.720    0.28620E-02
 83.730    0.21010E-02
 84.130    0.33400E-02
 84.530    0.59300E-02
 84.540    0.48610E-02
 84.550    0.37300E-02
 84.930    0.96370E-02
 84.940    0.70750E-02
 84.940    0.82570E-02
 84.960    0.42580E-02
 85.340    0.11760E-01
 86.170    0.15670E-01
 86.180    0.13720E-01
 86.590    0.18690E-01
 87.840    0.24360E-01
 87.850    0.21820E-01
 89.950    0.24910E-01
 91.210    0.22310E-01
 92.480    0.18300E-01
 93.330    0.15680E-01
 93.340    0.13430E-01
 93.340    0.11510E-01
 93.770    0.10080E-01
 94.200    0.75670E-02
 94.620    0.88320E-02
 94.630    0.59360E-02
 95.060    0.48670E-02
 95.490    0.37340E-02
 95.500    0.31300E-02
 95.510    0.26820E-02
 95.930    0.23490E-02
 96.360    0.21510E-02
 96.360    0.18840E-02
 97.210    0.16870E-02
 98.420    0.58090E-02
 98.830    0.84550E-02
 98.840    0.70860E-02
 98.850    0.45570E-02
 98.860    0.39040E-02
 98.870    0.29960E-02
 98.870    0.26240E-02
 98.890    0.16870E-02
 99.280    0.34960E-02
 99.300    0.22480E-02
 99.660    0.10540E-01
 99.730    0.18850E-02
 100.10    0.12040E-01
 100.10    0.13740E-01
 100.50    0.16400E-01
 100.90    0.19570E-01
 101.30    0.21850E-01
 101.30    0.26070E-01
 101.30    0.31110E-01
 102.10    0.35520E-01
 102.50    0.46290E-01
 102.60    0.40550E-01
 103.00    0.51700E-01
 104.20    0.61690E-01
 104.60    0.70430E-01
 105.50    0.80410E-01
 106.30    0.91810E-01
 107.60    0.98110E-01
 108.40    0.95970E-01
 109.70    0.87880E-01
 110.10    0.78700E-01
 110.50    0.70480E-01
 111.80    0.60390E-01
 111.80    0.52900E-01
 111.80    0.45330E-01
 112.70    0.40590E-01
 113.50    0.34020E-01
 113.50    0.29800E-01
 113.90    0.26110E-01
 114.40    0.22870E-01
 114.80    0.19600E-01
 115.60    0.19170E-01
 116.90    0.20490E-01
 117.30    0.22880E-01
 117.30    0.25550E-01
 118.10    0.30480E-01
 119.00    0.35580E-01
 119.80    0.40620E-01
 119.80    0.46380E-01
 121.10    0.55340E-01
 121.50    0.64600E-01
 121.50    0.75390E-01
 122.30    0.89960E-01
 123.60    0.10050
 124.40    0.10980
 126.50    0.11990
 127.40    0.10980
 128.20    0.10050
 128.60    0.90020E-01
 129.00    0.80620E-01
 129.90    0.66100E-01
 129.90    0.60510E-01
 131.60    0.60520E-01
 132.80    0.67600E-01
 133.30    0.73840E-01
 134.10    0.82460E-01
 135.40    0.94160E-01
 136.20    0.10520
 138.30    0.11490
 140.00    0.12280
 141.70    0.11750
 142.90    0.10290
 143.80    0.86280E-01
 143.80    0.77260E-01
 143.80    0.61960E-01
 145.10    0.54280E-01
 145.50    0.46510E-01
 145.90    0.39850E-01
 147.20    0.33400E-01
 147.60    0.29260E-01
 148.90    0.24530E-01
 149.70    0.22960E-01
 151.00    0.25640E-01
 151.40    0.29930E-01
 151.40    0.35710E-01
 151.40    0.44530E-01
 151.80    0.51970E-01
 151.80    0.59330E-01
 152.60    0.66260E-01
 153.00    0.84480E-01
 153.00    0.96440E-01
 154.30    0.12030
 154.30    0.12850
 154.70    0.14670
 156.00    0.16390
 156.40    0.17900
 158.50    0.17510
 160.20    0.16760
 161.40    0.15350
 161.90    0.13440
 162.70    0.12040
 163.10    0.11270
 163.10    0.94440E-01
 163.10    0.86460E-01
 163.60    0.75740E-01
 164.00    0.62090E-01
 164.00    0.56850E-01
 164.40    0.45590E-01
 164.90    0.40830E-01
 164.90    0.37370E-01
 164.90    0.31320E-01
 164.90    0.28050E-01
 165.30    0.24040E-01
 166.10    0.22010E-01
 167.40    0.22010E-01
 167.80    0.28060E-01
 168.20    0.24580E-01
 168.20    0.32040E-01
 168.20    0.35770E-01
 168.60    0.42690E-01
 169.10    0.48730E-01
ENDDATA            288
ENDSUBENT          300
SUBENT        F0567010   20040211   20040519
BIB                  3          3
REACTION   (18-AR-40(A,EL)18-AR-40,,DA,,RTH)
SAMPLE     A gas target.
STATUS     (CURVE)Fig.1
ENDBIB               3
COMMON               1          3
EN
MEV
  24.0
ENDCOMMON            3
DATA                 2        302
ANG-CM     DATA-CM
ADEG       NO-DIM
 15.240    0.42270
 15.660    0.47200
 15.670    0.37860
 16.520    0.33170
 18.620    0.33180
 21.150    0.35460
 23.680    0.38730
 25.790    0.37900
 27.050    0.34700
 27.480    0.31080
 27.910    0.27230
 28.330    0.24390
 29.180    0.21840
 29.600    0.19140
 29.610    0.17140
 30.040    0.15010
 30.460    0.12310
 32.150    0.11270
 33.840    0.11030
 35.100    0.12320
 35.940    0.13750
 37.200    0.15030
 38.880    0.16410
 40.150    0.16060
 41.000    0.14380
 41.840    0.12880
 42.270    0.11540
 42.270    0.10330
 42.700    0.90520E-01
 42.700    0.79300E-01
 42.710    0.71020E-01
 42.710    0.60860E-01
 43.560    0.54510E-01
 43.990    0.47760E-01
 44.410    0.42770E-01
 44.840    0.37470E-01
 44.850    0.26920E-01
 45.270    0.30730E-01
 46.540    0.23590E-01
 48.230    0.25200E-01
 48.640    0.29410E-01
 49.060    0.35870E-01
 49.470    0.40950E-01
 49.470    0.46740E-01
 49.880    0.54550E-01
 50.300    0.63650E-01
 51.560    0.75950E-01
 51.980    0.88630E-01
 52.390    0.10340
 53.650    0.11550
 54.910    0.12900
 56.600    0.11810
 57.030    0.10120
 57.030    0.92670E-01
 57.460    0.77680E-01
 57.890    0.68060E-01
 57.890    0.59620E-01
 58.320    0.52240E-01
 58.320    0.45760E-01
 58.750    0.40090E-01
 59.170    0.35120E-01
 59.200    0.18940E-01
 59.610    0.21150E-01
 59.620    0.16230E-01
 60.020    0.30770E-01
 60.030    0.26370E-01
 60.030    0.23620E-01
 60.050    0.13910E-01
 60.050    0.12740E-01
 60.060    0.10220E-01
 60.070    0.91490E-02
 60.070    0.81940E-02
 60.070    0.73390E-02
 60.480    0.11410E-01
 60.520    0.37040E-02
 60.920    0.64300E-02
 60.930    0.51570E-02
 60.930    0.46190E-02
 60.930    0.56330E-02
 60.940    0.40460E-02
 61.370    0.33180E-02
 63.050    0.33180E-02
 63.470    0.37050E-02
 63.870    0.62910E-02
 63.870    0.68710E-02
 63.880    0.55110E-02
 63.880    0.49360E-02
 63.890    0.42300E-02
 64.280    0.89530E-02
 64.290    0.78440E-02
 65.090    0.22610E-01
 65.100    0.17350E-01
 65.100    0.19810E-01
 65.110    0.12190E-01
 65.110    0.14550E-01
 65.120    0.10220E-01
 65.920    0.30790E-01
 65.930    0.26390E-01
 66.340    0.35930E-01
 67.170    0.53450E-01
 67.180    0.41930E-01
 68.430    0.59680E-01
 69.690    0.68140E-01
 71.380    0.68150E-01
 73.070    0.62400E-01
 73.920    0.43850E-01
 74.340    0.51180E-01
 74.350    0.36760E-01
 74.780    0.30140E-01
 75.200    0.27000E-01
 75.630    0.23650E-01
 75.630    0.21180E-01
 76.060    0.18560E-01
 76.070    0.15900E-01
 76.490    0.13630E-01
 77.340    0.11940E-01
 77.340    0.10930E-01
 77.350    0.91650E-02
 77.780    0.76830E-02
 77.780    0.67300E-02
 78.210    0.58960E-02
 78.630    0.52810E-02
 78.640    0.48350E-02
 78.650    0.31800E-02
 78.660    0.27250E-02
 78.660    0.23870E-02
 79.060    0.41440E-02
 79.070    0.37940E-02
 79.090    0.20920E-02
 79.090    0.18320E-02
 79.530    0.11030E-02
 79.960    0.98820E-03
 80.360    0.15030E-02
 80.370    0.12880E-02
 81.590    0.41450E-02
 81.600    0.33990E-02
 81.640    0.10330E-02
 82.000    0.57700E-02
 82.000    0.64430E-02
 82.010    0.46280E-02
 82.010    0.51680E-02
 82.030    0.29120E-02
 82.030    0.25510E-02
 82.050    0.16060E-02
 82.060    0.12050E-02
 82.410    0.80330E-02
 82.410    0.87730E-02
 82.410    0.97960E-02
 82.420    0.70370E-02
 82.460    0.22350E-02
 82.460    0.18740E-02
 82.480    0.13760E-02
 82.820    0.11180E-01
 82.820    0.12490E-01
 83.220    0.20280E-01
 83.230    0.15910E-01
 83.230    0.18170E-01
 83.240    0.14250E-01
 84.070    0.21200E-01
 84.480    0.24200E-01
 86.590    0.27030E-01
 87.010    0.28880E-01
 88.690    0.27030E-01
 89.960    0.25310E-01
 90.390    0.23170E-01
 90.810    0.21690E-01
 91.660    0.18590E-01
 91.660    0.16280E-01
 91.670    0.14580E-01
 92.510    0.13650E-01
 92.520    0.11700E-01
 92.940    0.12230E-01
 92.940    0.10710E-01
 92.950    0.91780E-02
 93.370    0.84040E-02
 93.380    0.75260E-02
 93.800    0.67410E-02
 93.810    0.60370E-02
 93.810    0.55270E-02
 94.240    0.46330E-02
 94.660    0.50610E-02
 94.660    0.41500E-02
 94.680    0.28520E-02
 95.090    0.32560E-02
 95.090    0.36360E-02
 95.520    0.24450E-02
 95.530    0.21420E-02
 95.530    0.19610E-02
 95.960    0.16440E-02
 95.960    0.14400E-02
 97.230    0.12620E-02
 98.490    0.14090E-02
 98.490    0.15730E-02
 99.300    0.36370E-02
 99.300    0.46360E-02
 99.310    0.29170E-02
 99.310    0.32570E-02
 99.320    0.26710E-02
 99.330    0.17180E-02
 99.330    0.20050E-02
 99.700    0.67450E-02
 99.710    0.51760E-02
 99.710    0.59090E-02
 99.720    0.40610E-02
 99.740    0.22890E-02
 100.10    0.73670E-02
 100.50    0.84100E-02
 100.90    0.11710E-01
 101.00    0.98140E-02
 101.40    0.13660E-01
 101.40    0.15250E-01
 101.80    0.17800E-01
 102.20    0.20320E-01
 102.60    0.22690E-01
 102.60    0.25340E-01
 103.90    0.27680E-01
 104.70    0.30910E-01
 106.80    0.32310E-01
 108.10    0.30240E-01
 109.40    0.27690E-01
 110.20    0.24800E-01
 111.00    0.22710E-01
 111.50    0.19900E-01
 111.90    0.17430E-01
 111.90    0.15610E-01
 112.70    0.13680E-01
 112.80    0.12520E-01
 112.80    0.86070E-02
 113.20    0.11220E-01
 113.20    0.75410E-02
 113.20    0.69040E-02
 113.60    0.94020E-02
 113.60    0.64620E-02
 113.60    0.59170E-02
 113.60    0.52990E-02
 114.10    0.47460E-02
 114.90    0.44420E-02
 117.00    0.46440E-02
 117.00    0.50720E-02
 117.40    0.67560E-02
 117.40    0.78840E-02
 117.80    0.56640E-02
 117.80    0.88030E-02
 118.20    0.12530E-01
 118.70    0.11470E-01
 118.70    0.10050E-01
 119.10    0.13990E-01
 119.50    0.15620E-01
 119.90    0.17440E-01
 120.30    0.19050E-01
 120.70    0.22240E-01
 121.20    0.24830E-01
 122.00    0.27730E-01
 122.80    0.30280E-01
 123.70    0.32360E-01
 124.90    0.35350E-01
 126.60    0.34580E-01
 127.50    0.31660E-01
 128.30    0.28990E-01
 128.70    0.26550E-01
 130.40    0.23260E-01
 130.90    0.20380E-01
 131.70    0.18250E-01
 132.10    0.16710E-01
 132.60    0.15300E-01
 133.40    0.13700E-01
 134.70    0.12280E-01
 136.80    0.11490E-01
 138.10    0.10520E-01
 139.70    0.94250E-02
 141.00    0.86310E-02
 141.90    0.80790E-02
 143.50    0.75630E-02
 144.40    0.84450E-02
 144.80    0.94300E-02
 145.20    0.10760E-01
 145.60    0.12020E-01
 146.50    0.13720E-01
 147.30    0.14990E-01
 147.70    0.16370E-01
 148.60    0.17490E-01
 149.80    0.19110E-01
 151.90    0.18290E-01
 153.60    0.16380E-01
 153.60    0.15000E-01
 154.90    0.14040E-01
 156.60    0.12580E-01
 157.90    0.11020E-01
 158.70    0.96530E-02
 158.70    0.84570E-02
 159.10    0.74090E-02
 159.60    0.67840E-02
 160.80    0.62120E-02
 162.10    0.54420E-02
 162.10    0.49830E-02
 162.50    0.43650E-02
 162.50    0.34250E-02
 163.00    0.39100E-02
 165.10    0.34260E-02
 166.80    0.35030E-02
 167.60    0.32070E-02
 169.30    0.30030E-02
ENDDATA            304
ENDSUBENT          316
SUBENT        F0567011   20040211   20040519
BIB                  3          4
REACTION   (16-S-32(A,EL)16-S-32,,DA,,RTH)
SAMPLE     The S measurements were made with a gas target,
           using H2S in the case of 32,34S.
STATUS     (CURVE)Fig.1
ENDBIB               4
COMMON               1          3
EN
MEV
  24.0
ENDCOMMON            3
DATA                 2        348
ANG-CM     DATA-CM
ADEG       NO-DIM
 13.210    0.76180
 13.640    0.68240
 14.480    0.61130
 14.910    0.54760
 15.340    0.49050
 16.180    0.42980
 17.030    0.37670
 17.880    0.33010
 18.310    0.29570
 19.560    0.30240
 21.220    0.33040
 22.470    0.36890
 23.300    0.40300
 24.960    0.43070
 26.630    0.44050
 27.890    0.42160
 28.740    0.36950
 28.750    0.32370
 29.180    0.28370
 29.600    0.25410
 30.030    0.22760
 30.460    0.20390
 30.470    0.17470
 30.900    0.14980
 31.330    0.13420
 32.170    0.11760
 32.600    0.10530
 33.030    0.96450E-01
 33.450    0.86390E-01
 34.710    0.84540E-01
 35.530    0.10090
 35.540    0.90330E-01
 36.360    0.11260
 37.190    0.12300
 37.590    0.14040
 38.420    0.15340
 38.830    0.17130
 39.660    0.18710
 40.900    0.21360
 42.160    0.20000
 43.420    0.18720
 43.850    0.16770
 44.270    0.15020
 44.700    0.13170
 44.710    0.11790
 45.140    0.10560
 45.570    0.92560E-01
 46.000    0.79340E-01
 46.010    0.69510E-01
 46.440    0.62270E-01
 46.450    0.53370E-01
 46.460    0.46760E-01
 46.890    0.42820E-01
 46.900    0.37510E-01
 47.330    0.32870E-01
 47.340    0.28800E-01
 47.340    0.26370E-01
 47.770    0.23620E-01
 47.780    0.21160E-01
 48.210    0.18540E-01
 48.220    0.16240E-01
 48.230    0.14230E-01
 48.680    0.97870E-02
 48.690    0.89610E-02
 49.080    0.12470E-01
 49.090    0.10930E-01
 49.110    0.80270E-02
 49.540    0.73510E-02
 50.730    0.15900E-01
 50.760    0.10460E-01
 50.760    0.11680E-01
 50.770    0.95780E-02
 50.780    0.85790E-02
 51.100    0.26980E-01
 51.110    0.24170E-01
 51.120    0.21650E-01
 51.130    0.19390E-01
 51.140    0.17370E-01
 51.160    0.14240E-01
 51.170    0.12760E-01
 51.210    0.73540E-02
 51.480    0.41930E-01
 51.490    0.37550E-01
 51.510    0.32900E-01
 51.510    0.30130E-01
 51.880    0.53430E-01
 51.890    0.46820E-01
 52.280    0.68090E-01
 52.290    0.59660E-01
 52.690    0.76030E-01
 53.100    0.84900E-01
 53.500    0.96900E-01
 53.500    0.10820
 54.320    0.12080
 54.730    0.13490
 55.140    0.15060
 55.550    0.17190
 55.960    0.18780
 56.790    0.20070
 57.200    0.20970
 58.030    0.22910
 59.700    0.22920
 60.550    0.20990
 60.970    0.19220
 61.810    0.17600
 62.240    0.16120
 62.250    0.14440
 63.100    0.12650
 63.940    0.11330
 63.950    0.97140E-01
 64.380    0.87010E-01
 64.390    0.77940E-01
 64.400    0.68290E-01
 64.830    0.58530E-01
 64.840    0.52430E-01
 64.850    0.46960E-01
 64.860    0.41140E-01
 65.290    0.35260E-01
 65.310    0.27670E-01
 65.720    0.30230E-01
 65.740    0.24250E-01
 65.760    0.18620E-01
 65.770    0.16670E-01
 65.790    0.13080E-01
 66.170    0.21250E-01
 66.200    0.14940E-01
 66.220    0.11980E-01
 66.230    0.98270E-02
 66.650    0.10500E-01
 66.660    0.89990E-02
 67.920    0.84260E-02
 69.110    0.17830E-01
 69.130    0.13390E-01
 69.140    0.11730E-01
 69.150    0.10510E-01
 69.160    0.92050E-02
 69.480    0.30250E-01
 69.510    0.22720E-01
 69.520    0.19900E-01
 69.540    0.15620E-01
 69.890    0.35300E-01
 69.910    0.25930E-01
 70.280    0.47020E-01
 70.300    0.40300E-01
 70.680    0.59920E-01
 70.690    0.53670E-01
 71.090    0.69910E-01
 71.480    0.91080E-01
 71.490    0.79800E-01
 71.890    0.99490E-01
 72.720    0.10870
 73.130    0.11870
 74.800    0.12690
 76.050    0.13560
 77.300    0.13260
 78.560    0.12700
 79.820    0.11630
 80.250    0.10420
 81.090    0.91290E-01
 81.520    0.78250E-01
 82.790    0.68580E-01
 82.800    0.58770E-01
 83.230    0.51500E-01
 83.660    0.44140E-01
 84.090    0.37010E-01
 84.110    0.31720E-01
 84.120    0.27800E-01
 84.550    0.23820E-01
 84.590    0.15330E-01
 84.980    0.20420E-01
 84.990    0.17890E-01
 85.010    0.13440E-01
 85.030    0.10540E-01
 85.440    0.11770E-01
 85.460    0.94450E-02
 85.890    0.82760E-02
 85.900    0.70930E-02
 85.910    0.62150E-02
 86.340    0.55670E-02
 86.350    0.50970E-02
 86.770    0.46680E-02
 87.620    0.41820E-02
 88.430    0.55700E-02
 88.440    0.49890E-02
 88.450    0.44680E-02
 88.840    0.62190E-02
 89.230    0.82830E-02
 89.230    0.90460E-02
 89.250    0.70990E-02
 89.600    0.16040E-01
 89.610    0.14060E-01
 89.620    0.12320E-01
 89.640    0.10100E-01
 90.000    0.20000E-01
 90.010    0.17910E-01
 90.040    0.11280E-01
 90.400    0.22830E-01
 90.780    0.35470E-01
 90.780    0.39600E-01
 90.800    0.30400E-01
 90.810    0.26640E-01
 91.180    0.45210E-01
 91.590    0.51600E-01
 92.420    0.57620E-01
 93.240    0.64350E-01
 94.490    0.67260E-01
 96.160    0.67290E-01
 97.420    0.63000E-01
 98.270    0.56440E-01
 98.280    0.50550E-01
 99.120    0.45290E-01
 99.130    0.40570E-01
 99.140    0.37140E-01
 99.570    0.33270E-01
 100.00    0.24990E-01
 100.00    0.21890E-01
 100.00    0.20050E-01
 100.40    0.27900E-01
 100.50    0.17960E-01
 100.50    0.15730E-01
 100.90    0.14410E-01
 100.90    0.12900E-01
 100.90    0.92720E-02
 101.30    0.10350E-01
 101.30    0.11310E-01
 101.80    0.81260E-02
 101.80    0.74400E-02
 102.20    0.66650E-02
 102.20    0.59690E-02
 102.60    0.53470E-02
 102.70    0.46850E-02
 102.70    0.42900E-02
 103.50    0.41060E-02
 104.70    0.51190E-02
 104.70    0.57150E-02
 104.70    0.63810E-02
 104.70    0.71240E-02
 104.80    0.43880E-02
 105.50    0.84990E-02
 105.50    0.99170E-02
 105.50    0.11320E-01
 105.90    0.12640E-01
 106.30    0.14110E-01
 106.30    0.16110E-01
 106.70    0.18380E-01
 107.10    0.20080E-01
 107.10    0.22920E-01
 107.10    0.26160E-01
 107.50    0.29200E-01
 107.50    0.34080E-01
 107.90    0.38900E-01
 108.30    0.44400E-01
 108.70    0.47440E-01
 109.60    0.51820E-01
 110.00    0.57860E-01
 111.20    0.63210E-01
 113.30    0.67560E-01
 114.50    0.75450E-01
 115.80    0.84260E-01
 117.50    0.90050E-01
 118.70    0.86190E-01
 119.10    0.77210E-01
 120.40    0.72290E-01
 120.80    0.69180E-01
 121.20    0.63350E-01
 122.10    0.60630E-01
 123.30    0.58040E-01
 124.60    0.55550E-01
 125.40    0.50870E-01
 125.90    0.46590E-01
 126.70    0.42660E-01
 127.10    0.37380E-01
 128.00    0.33490E-01
 128.40    0.30670E-01
 128.40    0.28080E-01
 128.80    0.26290E-01
 129.70    0.25160E-01
 131.40    0.24620E-01
 131.80    0.26890E-01
 132.20    0.30030E-01
 132.60    0.33530E-01
 133.00    0.38270E-01
 133.00    0.42730E-01
 133.80    0.48770E-01
 134.20    0.56910E-01
 134.20    0.62160E-01
 134.60    0.66410E-01
 134.60    0.77490E-01
 135.00    0.88450E-01
 135.40    0.10100
 135.40    0.11270
 135.40    0.12310
 135.80    0.13750
 136.20    0.15690
 136.60    0.17140
 137.50    0.19140
 138.30    0.20450
 139.50    0.21850
 141.60    0.21390
 142.90    0.20470
 143.70    0.18750
 145.00    0.17550
 145.40    0.16070
 145.40    0.14400
 146.70    0.12620
 147.10    0.11300
 147.50    0.10350
 148.40    0.92720E-01
 148.80    0.83050E-01
 149.20    0.74400E-01
 149.70    0.66640E-01
 149.70    0.59690E-01
 150.10    0.53470E-01
 150.90    0.48970E-01
 151.40    0.43860E-01
 152.60    0.41980E-01
 153.00    0.46880E-01
 153.00    0.53500E-01
 153.00    0.58430E-01
 153.40    0.65250E-01
 153.80    0.74480E-01
 153.80    0.81340E-01
 154.20    0.90820E-01
 154.20    0.10370
 154.20    0.11320
 154.60    0.13210
 155.00    0.15080
 155.40    0.16470
 155.80    0.18390
 156.30    0.20090
 157.90    0.20090
 158.80    0.18810
 159.20    0.17610
 159.60    0.16490
 160.00    0.14770
 160.50    0.13520
 161.30    0.12380
 162.20    0.11090
 162.60    0.10160
 163.00    0.93030E-01
 163.90    0.85200E-01
 165.50    0.87130E-01
 165.50    0.97280E-01
 165.90    0.10860
 165.90    0.11860
 166.30    0.12960
 166.70    0.14470
 167.10    0.16150
ENDDATA            350
ENDSUBENT          363
SUBENT        F0567012   20040211   20040519
BIB                  3          4
REACTION   (16-S-34(A,EL)16-S-34,,DA,,RTH)
SAMPLE     The S measurements were made with a gas target,
           using H2S in the case of 32,34S.
STATUS     (CURVE)Fig.1
ENDBIB               4
COMMON               1          3
EN
MEV
  24.0
ENDCOMMON            3
DATA                 2        233
ANG-CM     DATA-CM
ADEG       NO-DIM
 15.650    0.64760
 16.070    0.55530
 16.920    0.48660
 17.340    0.42650
 18.600    0.36570
 18.600    0.32760
 19.450    0.29350
 21.550    0.28710
 22.800    0.30010
 23.640    0.35000
 25.320    0.38230
 27.000    0.35010
 27.420    0.30020
 28.260    0.25730
 28.690    0.21580
 28.690    0.18500
 29.530    0.16220
 29.960    0.14210
 30.380    0.11920
 30.800    0.10450
 31.220    0.91560E-01
 32.910    0.83860E-01
 33.740    0.89580E-01
 34.580    0.10000
 34.580    0.11160
 34.990    0.13310
 34.990    0.15190
 35.830    0.18510
 36.240    0.20210
 37.500    0.25190
 38.760    0.26910
 40.850    0.28120
 42.530    0.26920
 42.540    0.21130
 42.960    0.18930
 43.810    0.14860
 43.810    0.13320
 43.810    0.10010
 44.240    0.85780E-01
 44.660    0.65880E-01
 44.670    0.52880E-01
 44.670    0.39730E-01
 45.090    0.45330E-01
 45.090    0.59030E-01
 45.520    0.28570E-01
 45.940    0.31890E-01
 45.940    0.24490E-01
 45.950    0.22430E-01
 45.950    0.20090E-01
 48.050    0.19660E-01
 48.880    0.23440E-01
 48.880    0.27340E-01
 48.880    0.30520E-01
 49.290    0.34070E-01
 49.710    0.38030E-01
 49.710    0.42450E-01
 50.120    0.56500E-01
 50.130    0.51740E-01
 50.540    0.63070E-01
 51.370    0.83950E-01
 51.380    0.73570E-01
 51.790    0.10460
 52.210    0.11940
 52.620    0.14550
 53.460    0.16600
 53.870    0.19800
 55.130    0.23090
 55.970    0.26350
 57.640    0.27540
 58.900    0.26940
 60.160    0.24680
 60.590    0.21150
 61.010    0.17740
 61.440    0.13930
 61.860    0.11940
 61.870    0.82180E-01
 62.700    0.95860E-01
 62.710    0.61750E-01
 62.720    0.38060E-01
 63.140    0.44400E-01
 63.140    0.54110E-01
 63.150    0.29880E-01
 63.150    0.26190E-01
 64.000    0.20560E-01
 64.420    0.18020E-01
 64.430    0.13840E-01
 64.430    0.11870E-01
 64.850    0.97360E-02
 65.700    0.83470E-02
 66.940    0.13840E-01
 66.950    0.11110E-01
 66.950    0.95250E-02
 67.770    0.20570E-01
 67.780    0.16510E-01
 68.190    0.23990E-01
 68.190    0.28610E-01
 68.600    0.33370E-01
 68.600    0.38070E-01
 69.020    0.46410E-01
 69.430    0.54130E-01
 69.850    0.60430E-01
 70.260    0.73660E-01
 71.520    0.85920E-01
 72.360    0.10020
 73.190    0.10940
 74.450    0.11440
 76.130    0.10480
 76.550    0.98070E-01
 77.400    0.87860E-01
 78.240    0.77010E-01
 78.240    0.66020E-01
 79.090    0.55370E-01
 79.090    0.47470E-01
 79.930    0.38100E-01
 80.360    0.33390E-01
 81.200    0.26800E-01
 81.200    0.24010E-01
 81.200    0.22480E-01
 82.050    0.19270E-01
 82.050    0.17260E-01
 82.050    0.15470E-01
 82.060    0.12690E-01
 82.480    0.11620E-01
 82.480    0.10410E-01
 82.900    0.83560E-02
 82.910    0.70080E-02
 82.910    0.56240E-02
 82.920    0.50390E-02
 82.920    0.45140E-02
 82.920    0.38700E-02
 82.920    0.34670E-02
 83.350    0.24930E-02
 83.770    0.30380E-02
 83.770    0.22330E-02
 85.430    0.52660E-02
 85.440    0.33180E-02
 85.440    0.40440E-02
 85.450    0.27830E-02
 85.450    0.23340E-02
 85.860    0.45150E-02
 86.270    0.61430E-02
 86.670    0.12970E-01
 86.670    0.15130E-01
 86.680    0.11370E-01
 86.680    0.76540E-02
 86.680    0.89280E-02
 87.090    0.17270E-01
 87.490    0.36480E-01
 87.500    0.22490E-01
 87.500    0.20140E-01
 87.910    0.31970E-01
 88.340    0.25660E-01
 88.740    0.42550E-01
 89.160    0.48560E-01
 90.840    0.57900E-01
 91.670    0.66070E-01
 94.190    0.69050E-01
 95.450    0.61870E-01
 96.710    0.54220E-01
 97.140    0.46490E-01
 97.980    0.38990E-01
 97.980    0.34170E-01
 98.410    0.29950E-01
 98.830    0.24570E-01
 98.830    0.21060E-01
 100.50    0.17280E-01
 102.20    0.17290E-01
 102.60    0.20160E-01
 102.60    0.23520E-01
 103.90    0.28040E-01
 103.90    0.34180E-01
 104.30    0.41670E-01
 104.30    0.46510E-01
 104.30    0.55460E-01
 104.70    0.63280E-01
 105.10    0.77130E-01
 105.50    0.88010E-01
 105.50    0.10730
 105.90    0.12240
 105.90    0.13970
 106.80    0.15250
 107.60    0.18590
 109.30    0.21690
 112.20    0.22670
 113.90    0.21220
 114.70    0.18600
 116.00    0.17040
 116.40    0.15260
 117.30    0.13090
 118.10    0.12250
 119.40    0.11470
 121.90    0.10740
 124.80    0.11730
 126.10    0.12810
 127.30    0.14300
 129.80    0.15960
 131.50    0.17430
 133.60    0.18220
 135.70    0.20340
 137.40    0.22700
 139.50    0.24790
 141.60    0.23210
 143.30    0.19470
 144.50    0.17440
 145.40    0.15980
 145.80    0.14310
 146.20    0.13110
 147.10    0.10990
 147.90    0.96350E-01
 148.30    0.72400E-01
 148.80    0.86330E-01
 149.20    0.63450E-01
 150.00    0.50930E-01
 150.90    0.53220E-01
 152.10    0.62080E-01
 152.10    0.84460E-01
 153.00    0.70840E-01
 153.80    0.10070
 154.60    0.11490
 155.00    0.13410
 155.90    0.15640
 155.90    0.21750
 156.30    0.18650
 157.50    0.23240
 159.60    0.24280
 161.30    0.21280
 162.60    0.19070
 163.00    0.16350
 163.90    0.14330
 164.70    0.11250
 164.70    0.98600E-01
 165.50    0.77420E-01
 165.50    0.66370E-01
ENDDATA            235
ENDSUBENT          248
SUBENT        F0567013   20040211   20040519
BIB                  3          4
REACTION   (7-N-15(A,EL)7-N-15,,DA,,RTH)
SAMPLE     Target was made by evaporation of the element or
           compound onto carbon backing.
STATUS     (CURVE)Fig.1
ENDBIB               4
COMMON               1          3
EN
MEV
  24.0
ENDCOMMON            3
DATA                 2        288
ANG-CM     DATA-CM
ADEG       NO-DIM
 23.463    0.12114
 23.877    0.13796
 24.292    0.15712
 25.126    0.18286
 25.959    0.21749
 26.793    0.25313
 27.207    0.28827
 27.619    0.34284
 28.453    0.39901
 29.286    0.47456
 30.121    0.54049
 30.955    0.62905
 31.791    0.71644
 33.898    0.68626
 35.164    0.64320
 36.435    0.55280
 36.863    0.47505
 37.713    0.40827
 37.719    0.36636
 38.150    0.30149
 38.581    0.24810
 38.597    0.17927
 39.008    0.21788
 39.026    0.15406
 39.036    0.12677
 39.463    0.11377
 39.492    0.64778E-01
 39.895    0.91616E-01
 39.904    0.77039E-01
 39.919    0.56887E-01
 39.928    0.47836E-01
 40.354    0.43868E-01
 42.039    0.42938E-01
 42.453    0.48900E-01
 42.854    0.72221E-01
 42.864    0.59429E-01
 43.267    0.84051E-01
 43.679    0.99959E-01
 44.075    0.16099
 44.084    0.13538
 44.091    0.11888
 44.908    0.19148
 45.300    0.33630
 45.307    0.29531
 45.322    0.22284
 45.714    0.39138
 45.735    0.25934
 46.123    0.48607
 46.951    0.64423
 46.957    0.56572
 47.359    0.81761
 48.612    0.99377
 49.441     1.2889
 49.446     1.1566
 50.697     1.4681
 52.798     1.5671
 54.486     1.4688
 55.754     1.3183
 56.182     1.1577
 57.450     1.0390
 57.878    0.91245
 59.147    0.80138
 59.155    0.68863
 60.429    0.55461
 61.279    0.47664
 61.710    0.39224
 62.139    0.33707
 62.566    0.29601
 62.998    0.23837
 63.005    0.20932
 63.013    0.17987
 63.021    0.15457
 63.454    0.12180
 63.461    0.10696
 63.486    0.64991E-01
 63.508    0.43064E-01
 63.514    0.37816E-01
 63.519    0.34677E-01
 63.900    0.75636E-01
 63.921    0.50118E-01
 63.945    0.31119E-01
 63.951    0.27925E-01
 63.956    0.25059E-01
 64.309    0.93934E-01
 64.336    0.55854E-01
 64.785    0.32501E-01
 64.791    0.29165E-01
 65.193    0.42151E-01
 65.199    0.37014E-01
 65.606    0.49055E-01
 66.021    0.54669E-01
 66.423    0.79012E-01
 66.429    0.70901E-01
 66.434    0.63624E-01
 66.836    0.91953E-01
 67.252    0.10248
 67.667    0.11421
 68.081    0.13006
 68.485    0.18001
 68.490    0.16507
 68.495    0.14812
 68.901    0.20061
 69.316    0.22357
 70.151    0.25463
 70.567    0.28377
 70.983    0.30947
 71.399    0.34489
 72.237    0.36809
 72.664    0.33032
 73.091    0.29008
 73.520    0.24929
 73.527    0.21890
 73.955    0.19224
 74.381    0.17251
 74.806    0.15821
 75.235    0.13596
 75.663    0.11939
 75.676    0.92064E-01
 76.089    0.10714
 76.103    0.82619E-01
 76.110    0.72550E-01
 76.115    0.65103E-01
 76.121    0.58420E-01
 76.968    0.52430E-01
 76.974    0.47048E-01
 76.980    0.41314E-01
 77.407    0.37075E-01
 77.415    0.31859E-01
 77.820    0.43148E-01
 77.842    0.27978E-01
 78.258    0.31180E-01
 78.653    0.51318E-01
 78.671    0.36287E-01
 79.478    0.71028E-01
 79.485    0.62371E-01
 79.489    0.57195E-01
 79.886    0.92117E-01
 79.894    0.79157E-01
 80.288    0.13313
 80.300    0.10491
 80.699    0.16180
 80.703    0.14837
 80.714    0.11947
 81.106    0.20984
 81.114    0.18032
 81.522    0.23386
 81.929    0.30329
 81.935    0.27216
 82.347    0.32367
 82.761    0.36862
 83.175    0.41980
 83.584    0.53278
 83.590    0.47809
 84.419    0.60679
 84.826    0.80419
 84.834    0.69105
 86.081    0.93602
 86.918     1.0209
 88.177     1.1134
 89.436     1.1884
 90.702     1.1138
 91.129    0.99955
 91.554    0.91665
 93.243    0.84076
 95.341    0.95773
 95.346    0.85942
 96.177     1.0674
 96.594     1.1641
 97.429     1.3258
 97.843     1.5099
 98.257     1.7195
 98.672     1.9583
 99.084     2.3290
 99.920     2.5957
 100.34     2.8307
 100.75     3.1547
 101.59     3.5160
 102.00     4.0042
 102.42     4.5602
 102.83     5.3071
 103.25     5.7878
 104.50     6.3127
 105.34     6.7374
 106.60     7.0369
 108.71     6.8880
 109.56     6.1817
 110.40     5.6693
 110.83     5.1991
 111.68     4.6660
 112.10     4.2790
 112.53     3.8400
 113.38     3.3723
 113.80     2.9615
 114.23     2.6007
 114.66     2.2839
 114.67     2.0056
 115.51     1.7999
 115.52     1.5467
 115.95     1.3582
 117.22     1.2190
 118.06     1.2459
 119.31     1.6514
 119.32     1.4190
 119.72     1.8807
 120.55     2.3358
 120.56     2.0960
 121.39     2.7185
 121.79     3.6818
 122.22     3.3041
 122.63     4.1933
 123.46     4.6735
 123.87     6.4680
 123.88     5.4389
 124.70     7.3666
 125.12     8.3895
 125.53     9.7636
 126.37     10.882
 127.62     11.869
 129.73     12.669
 131.41     11.875
 132.26     10.890
 132.69     9.9871
 133.53     9.1593
 134.38     7.8716
 135.23     6.9130
 135.66     6.0708
 136.08     5.5673
 136.09     4.9959
 136.52     4.2932
 137.37     3.8530
 137.79     3.4577
 137.80     3.0363
 138.65     2.6666
 139.91     2.4457
 141.59     2.6676
 141.59     3.0379
 142.00     3.3855
 142.83     4.4872
 142.84     3.9403
 143.66     5.1105
 144.49     6.7734
 144.50     5.8205
 145.33     7.8833
 145.74     8.5973
 146.16     9.7911
 146.57     10.912
 146.99     12.427
 147.82     13.850
 148.24     15.435
 149.50     16.835
 150.76     17.968
 152.44     17.211
 154.13     16.131
 154.56     14.476
 155.40     12.992
 156.25     11.915
 156.68     10.927
 157.10     9.5956
 157.95     8.4271
 158.80     7.4009
 159.23     6.4993
 159.65     5.8325
 160.08     5.1220
 160.51     4.3073
 162.20     3.7022
 163.46     3.9514
 163.46     4.4998
 163.87     5.0148
 164.28     6.5038
 164.29     5.8362
 164.69     7.4069
 164.69     8.6196
 165.52     9.8170
 165.94     11.180
 166.34     14.500
 166.34     16.874
 166.35     12.733
 167.17     18.806
 167.17     20.957
 167.58     23.867
 167.99     27.776
 168.83     30.957
 169.24     36.028
 169.66     41.030
 170.49     45.729
 170.91     53.219
 171.74     59.313
 172.58     69.032
ENDDATA            290
ENDSUBENT          303
SUBENT        F0567014   20040211   20040519
BIB                  3          4
REACTION   (8-O-16(A,EL)8-O-16,,DA,,RTH)
SAMPLE     Target was made by evaporation of the element or
           compound onto carbon backing.
STATUS     (CURVE)Fig.1
ENDBIB               4
COMMON               1          3
EN
MEV
  24.0
ENDCOMMON            3
DATA                 2        130
ANG-CM     DATA-CM
ADEG       NO-DIM
 42.336    0.12306
 43.149    0.16325
 43.969    0.20290
 44.796    0.23628
 45.206    0.26342
 46.026    0.32740
 46.422    0.41582
 47.247    0.49485
 47.630    0.71598
 47.652    0.57619
 48.452    0.87078
 49.702    0.99234
 50.110     1.1306
 51.788     1.2073
 54.320     1.1568
 55.181    0.97249
 56.459    0.85395
 57.321    0.70248
 58.178    0.61678
 58.198    0.50725
 59.478    0.43585
 60.773    0.32168
 61.203    0.29494
 62.911    0.23746
 63.779    0.18704
 63.799    0.15382
 65.504    0.12657
 67.620    0.11610
 70.567    0.11875
 71.844    0.10427
 72.283    0.87651E-01
 72.301    0.73669E-01
 73.155    0.66102E-01
 73.173    0.55558E-01
 74.027    0.49852E-01
 74.886    0.42830E-01
 74.895    0.39265E-01
 75.336    0.32296E-01
 75.345    0.29609E-01
 90.641    0.49007
 91.049    0.55835
 92.292    0.67915
 92.700    0.77378
 93.941    0.96185
 94.347     1.1199
 95.590     1.3622
 95.994     1.6210
 97.658     1.9719
 98.064     2.2960
 98.891     2.6737
 99.715     3.1818
 100.55     3.4715
 101.79     4.1318
 102.63     4.6069
 104.30     4.9194
 105.99     5.0298
 107.26     4.7141
 108.53     4.5153
 109.81     3.8797
 110.66     3.4812
 111.53     2.7419
 112.80     2.4606
 114.50     2.1145
 116.19     2.1155
 116.60     2.2582
 117.42     2.8684
 117.83     3.1978
 118.23     3.8052
 119.06     4.5284
 119.07     4.1516
 119.87     6.0074
 119.88     5.3891
 121.12     7.1501
 121.53     7.9713
 122.78     9.0842
 123.19     10.128
 124.02     11.049
 126.53     12.596
 129.07     12.069
 130.34     11.069
 131.62     9.3064
 132.47     8.5339
 133.33     7.1743
 135.03     6.4389
 135.90     5.1829
 136.75     4.5507
 137.19     3.8252
 138.46     3.5851
 139.72     3.6651
 140.55     4.3618
 140.96     4.9695
 142.62     6.1781
 143.03     6.8877
 143.85     8.1969
 144.69     8.9430
 145.93     10.878
 146.76     12.395
 148.02     13.234
 150.12     14.134
 152.65     13.251
 153.51     11.635
 153.94     10.214
 155.64     8.7774
 155.66     7.7048
 156.52     6.2019
 157.38     5.4453
 157.39     4.6772
 158.25     4.0184
 158.70     3.1647
 159.13     2.7783
 159.57     2.2852
 160.84     2.1418
 162.09     2.6051
 162.52     2.2871
 162.89     3.9371
 162.91     3.2380
 162.92     2.9047
 164.12     5.1113
 164.14     4.5853
 164.53     5.9514
 164.93     7.0818
 165.34     7.8952
 165.73     10.473
 166.17     9.3958
 166.55     13.594
 166.56     11.933
 167.36     18.034
 167.80     15.159
 168.19     20.550
 168.60     23.413
ENDDATA            132
ENDSUBENT          145
SUBENT        F0567015   20040211   20040519
BIB                  3          4
REACTION   (8-O-18(A,EL)8-O-18,,DA,,RTH)
SAMPLE     Target was made by evaporation of the element or
           compound onto carbon backing.
STATUS     (CURVE)Fig.1
ENDBIB               4
COMMON               1          3
EN
MEV
  24.0
ENDCOMMON            3
DATA                 2        203
ANG-CM     DATA-CM
ADEG       NO-DIM
 39.786    0.14527
 40.589    0.21000
 41.029    0.17661
 41.398    0.28446
 41.415    0.24444
 41.806    0.32397
 42.208    0.38532
 43.039    0.42950
 43.849    0.58179
 43.863    0.51089
 44.258    0.64842
 45.079    0.78818
 46.327    0.91755
 48.000     1.0230
 48.843     1.0233
 51.799    0.95968
 52.248    0.74011
 52.655    0.84293
 52.686    0.63606
 52.695    0.58327
 53.133    0.50127
 53.566    0.44987
 54.034    0.29174
 54.425    0.38667
 54.442    0.33227
 55.317    0.24541
 55.764    0.19341
 55.802    0.13676
 55.854    0.84918E-01
 56.204    0.16266
 56.242    0.11501
 56.261    0.96716E-01
 56.291    0.72980E-01
 56.727    0.64093E-01
 58.831    0.65537E-01
 59.657    0.76285E-01
 60.064    0.86883E-01
 60.474    0.96833E-01
 61.281    0.13404
 61.295    0.11770
 62.081    0.19800
 62.488    0.22551
 62.521    0.16652
 62.888    0.27408
 64.555    0.32610
 64.964    0.36344
 65.374    0.40506
 66.205    0.45151
 66.609    0.52549
 67.024    0.56084
 67.859    0.59864
 69.547    0.58610
 70.406    0.50376
 71.260    0.45216
 72.119    0.38864
 72.552    0.34879
 72.990    0.29976
 73.425    0.26326
 73.442    0.22622
 73.465    0.18216
 74.743    0.16002
 74.757    0.14052
 75.614    0.12342
 76.896    0.10382
 78.172    0.93199E-01
 79.436    0.93233E-01
 80.267    0.10392
 80.669    0.12360
 81.479    0.16743
 81.495    0.14387
 82.728    0.19073
 83.138    0.21258
 83.548    0.23692
 83.955    0.26983
 84.783    0.30736
 85.188    0.35772
 86.859    0.40757
 88.097    0.51741
 88.921    0.61546
 89.749    0.70105
 90.573    0.83389
 91.399    0.97065
 92.644     1.1547
 93.472     1.3153
 95.993     1.4046
 97.685     1.3169
 98.547     1.1076
 99.827    0.95215
 100.27    0.78360
 100.71    0.65901
 100.73    0.55416
 101.59    0.46610
 102.45    0.38364
 102.47    0.32966
 102.49    0.27721
 102.51    0.23821
 103.36    0.21381
 105.46    0.23331
 105.84    0.33721
 105.85    0.28977
 106.25    0.37583
 106.65    0.44699
 107.04    0.59244
 107.06    0.50909
 107.87    0.68960
 108.27    0.80260
 109.52    0.93435
 109.93     1.0642
 110.34     1.1860
 111.16     1.3510
 111.57     1.5057
 112.83     1.6785
 115.76     1.8721
 117.88     1.7554
 118.31     1.5416
 119.59     1.3542
 120.45     1.1146
 120.47    0.93729
 120.49    0.82306
 120.50    0.73858
 120.94    0.63474
 120.95    0.54544
 121.81    0.45877
 121.83    0.40286
 121.84    0.34618
 123.12    0.30410
 123.98    0.26138
 125.66    0.27906
 126.49    0.32483
 127.74    0.36212
 128.14    0.44012
 128.97    0.50132
 129.79    0.60938
 130.62    0.69412
 131.02    0.79055
 132.69    0.90070
 134.38    0.92087
 136.08    0.80903
 136.52    0.68040
 136.54    0.55988
 137.40    0.48123
 138.26    0.40476
 138.27    0.34782
 138.29    0.30543
 138.30    0.26246
 139.59    0.22078
 140.44    0.19817
 141.29    0.18574
 142.56    0.17793
 143.39    0.20268
 144.21    0.23592
 145.04    0.27461
 145.45    0.31961
 146.27    0.37202
 147.10    0.41468
 147.50    0.49320
 147.91    0.54968
 148.74    0.63983
 149.15    0.72872
 150.40    0.81237
 151.65    0.90562
 152.48     1.0095
 154.16     1.0777
 156.27     1.0106
 157.56    0.85008
 157.58    0.71483
 157.59    0.62771
 158.03    0.52790
 158.47    0.43445
 159.33    0.37342
 159.79    0.26986
 160.19    0.32096
 160.23    0.22209
 161.08    0.19934
 161.12    0.14720
 161.52    0.17507
 163.23    0.13802
 163.66    0.12387
 164.92    0.13513
 165.32    0.16071
 166.15    0.18707
 166.97    0.22739
 167.35    0.32866
 167.73    0.46486
 167.75    0.39090
 167.79    0.26469
 168.11    0.70163
 168.13    0.56498
 168.51    0.81660
 169.30     1.3442
 169.32     1.1304
 169.34    0.95053
 169.70     1.6338
 170.11     1.9431
 170.49     2.6895
 170.51     2.2616
 170.90     3.1302
 171.28     4.3324
 171.29     3.8877
 171.31     3.4886
 172.94     5.3828
 172.95     4.9361
 252.87    0.69740E-02
ENDDATA            205
ENDSUBENT          218
SUBENT        F0567016   20040211   20040519
BIB                  3          4
REACTION   (6-C-12(A,EL)6-C-12,,DA,,RTH)
SAMPLE     Target was made by evaporation of the eleme nt or
           compound onto carbon backing.
STATUS     (CURVE)Fig.1
ENDBIB               4
COMMON               1          3
EN
MEV
  24.0
ENDCOMMON            3
DATA                 2        172
ANG-CM     DATA-CM
ADEG       NO-DIM
 28.391    0.30377
 28.724    0.51098
 28.752    0.42968
 28.784    0.35357
 29.116    0.59475
 29.509    0.69226
 29.898    0.82339
 30.701     1.0010
 31.100     1.1157
 31.493     1.2986
 32.299     1.5449
 33.527     1.7988
 33.923     2.0489
 34.733     2.3852
 35.967     2.6595
 37.626     2.8401
 39.716     2.7818
 40.983     2.5524
 41.831     2.3414
 42.267     2.1014
 42.702     1.8861
 43.133     1.7299
 43.568     1.5526
 43.590     1.3634
 44.025     1.2236
 44.884     1.0519
 45.326    0.90405
 46.175    0.82932
 46.617    0.71277
 47.053    0.63973
 47.495    0.54982
 49.171    0.52690
 50.402    0.60036
 51.212    0.69891
 52.011    0.86827
 52.411    0.96777
 53.228     1.0789
 54.020     1.3996
 54.042     1.2291
 54.413     1.6291
 55.219     1.9380
 56.029     2.2562
 56.425     2.5698
 57.235     2.9916
 57.628     3.4821
 59.272     4.0552
 60.075     4.9299
 62.148     5.3810
 64.231     5.5039
 65.911     5.1614
 67.178     4.7356
 68.030     4.2511
 68.469     3.7337
 69.739     3.3523
 70.184     2.8194
 71.044     2.4237
 71.907     2.0388
 72.342     1.8299
 72.777     1.6423
 72.798     1.4422
 74.072     1.2671
 74.514     1.0890
 74.542    0.91576
 75.405    0.77034
 75.841    0.69140
 75.858    0.62043
 76.718    0.53334
 77.156    0.46842
 78.423    0.42978
 79.696    0.37761
 81.376    0.35411
 82.218    0.33922
 83.895    0.32508
 85.165    0.29187
 85.607    0.25086
 86.042    0.22515
 86.477    0.20207
 86.916    0.17748
 87.354    0.15588
 87.375    0.13688
 87.807    0.12554
 88.242    0.11268
 88.677    0.10113
 89.526    0.92770E-01
 89.961    0.83263E-01
 90.792    0.85117E-01
 91.560    0.12850
 91.585    0.11042
 91.606    0.96966E-01
 92.334    0.18578
 92.348    0.17036
 92.370    0.14960
 92.723    0.22097
 93.080    0.31940
 93.112    0.26283
 93.462    0.39673
 93.484    0.34838
 93.855    0.46177
 94.251    0.52596
 94.647    0.59906
 95.022    0.77703
 95.040    0.69727
 95.407    0.94446
 95.800     1.0993
 96.613     1.2523
 97.006     1.4576
 97.402     1.6603
 97.802     1.8505
 98.598     2.3493
 98.615     2.1081
 99.407     2.7349
 99.807     3.0483
 100.21     3.3976
 101.43     3.9561
 101.83     4.4094
 102.65     5.0232
 104.72     5.3654
 107.23     5.3714
 108.49     4.9283
 109.34     4.5209
 110.19     4.2380
 111.04     3.8877
 111.89     3.5664
 112.73     3.4164
 113.99     3.2734
 115.24     3.3469
 116.06     3.5729
 116.87     4.0703
 117.69     4.6369
 118.49     5.6371
 118.90     6.0167
 119.71     7.0044
 120.11     7.6397
 120.92     8.7033
 122.16     9.7042
 122.97     11.055
 123.79     12.060
 125.44     14.045
 126.26     14.993
 127.50     16.009
 130.00     16.378
 131.69     15.029
 132.53     14.397
 133.38     12.924
 134.65     11.858
 135.50     10.417
 135.93     9.7633
 136.36     8.9546
 138.05     8.0413
 139.33     6.9138
 140.17     6.4812
 141.43     6.0768
 144.36     6.0846
 145.18     6.6378
 145.99     7.3998
 147.65     8.0754
 148.05     9.0008
 149.71     9.4062
 150.53     10.261
 151.77     11.196
 154.27     11.454
 155.95     10.977
 158.03     11.473
 160.10     12.255
 161.34     13.664
 163.41     14.595
 164.23     16.270
 165.05     17.749
 167.12     19.374
 167.94     22.071
 169.17     24.082
 171.24     27.449
ENDDATA            174
ENDSUBENT          187
SUBENT        F0567017   20040211   20040519
BIB                  3          4
REACTION   (6-C-14(A,EL)6-C-14,,DA,,RTH)
SAMPLE     Target was made by evaporation of the element or
           compound onto carbon backing.
STATUS     (CURVE)Fig.1
ENDBIB               4
COMMON               1          3
EN
MEV
  24.0
ENDCOMMON            3
DATA                 2        218
ANG-CM     DATA-CM
ADEG       NO-DIM
 25.352    0.40011
 25.369    0.33645
 25.386    0.28292
 25.738    0.56591
 25.753    0.48629
 26.563    0.64459
 26.968    0.75021
 27.372    0.87313
 27.778    0.99442
 28.604     1.1327
 29.427     1.3184
 29.833     1.5015
 30.237     1.7476
 31.065     1.9479
 32.307     2.2675
 33.138     2.4203
 34.807     2.5839
 36.070     2.4221
 36.920     2.1274
 37.768     1.9094
 38.618     1.6771
 39.047     1.5051
 39.899     1.2936
 40.331     1.1361
 40.349    0.93485
 41.203    0.78628
 41.641    0.64708
 41.655    0.55604
 42.085    0.49902
 42.520    0.41967
 42.539    0.34533
 42.970    0.30328
 43.399    0.27218
 43.830    0.23903
 43.847    0.20100
 45.112    0.18438
 45.956    0.17281
 47.206    0.18448
 48.031    0.21012
 48.844    0.27256
 48.856    0.23934
 49.244    0.33126
 50.003    0.75464
 50.015    0.66267
 50.030    0.56944
 50.048    0.46857
 50.063    0.40265
 50.407    0.87829
 50.762     1.7191
 50.772     1.5427
 50.801     1.1391
 50.814     1.0003
 51.206     1.3258
 51.585     2.0010
 52.414     2.1826
 52.823     2.4325
 53.648     2.7707
 54.898     2.9577
 56.988     3.0903
 58.674     2.7743
 59.941     2.4903
 60.793     2.1404
 61.647     1.8003
 62.078     1.5810
 62.508     1.4189
 62.937     1.2734
 63.366     1.1428
 63.807    0.90060
 64.216     1.0037
 64.666    0.72536
 65.076    0.79109
 65.097    0.63702
 65.526    0.57170
 65.541    0.49126
 65.974    0.42219
 66.405    0.37078
 66.430    0.28591
 66.837    0.32562
 67.282    0.24574
 67.712    0.22053
 68.974    0.20673
 70.218    0.23549
 71.039    0.28011
 71.442    0.33315
 72.269    0.37133
 73.507    0.45141
 75.592    0.49253
 76.857    0.45180
 77.291    0.38827
 77.720    0.34846
 78.570    0.30605
 79.001    0.26878
 79.432    0.23605
 80.280    0.21186
 80.295    0.18206
 80.720    0.17062
 81.987    0.15316
 82.833    0.14048
 84.073    0.16711
 84.477    0.19449
 84.877    0.23638
 85.696    0.28732
 86.096    0.34920
 86.498    0.41532
 86.899    0.50477
 87.270    0.83082
 87.291    0.66901
 87.303    0.58748
 87.658     1.1499
 87.672    0.98813
 88.060     1.3676
 88.462     1.6266
 89.281     1.9771
 90.104     2.3013
 90.927     2.6787
 91.334     3.0508
 91.744     3.3273
 92.988     3.7903
 93.809     4.5084
 95.470     5.2488
 97.135     5.8517
 98.800     6.5238
 101.32     6.3882
 103.42     5.8611
 105.10     5.2617
 105.96     4.5224
 106.81     3.9721
 108.07     3.6436
 109.76     3.2009
 111.42     3.8082
 112.66     4.3381
 113.49     4.9413
 114.31     5.5077
 115.56     6.1396
 117.64     6.9955
 119.31     7.6319
 120.98     7.6352
 123.50     7.3162
 125.61     6.4280
 126.87     5.8964
 127.30     5.1783
 127.73     4.6473
 128.17     3.9083
 129.02     3.2872
 129.03     2.8865
 129.04     2.5902
 129.49     1.9129
 129.90     2.2263
 129.93     1.5742
 129.94     1.3824
 130.37     1.2406
 130.39     1.0661
 131.25    0.80460
 131.66    0.89673
 132.53    0.66230
 132.54    0.59431
 132.96    0.53337
 133.82    0.46846
 134.64    0.55722
 135.04    0.66272
 135.44    0.77131
 135.83     1.0447
 135.85    0.87846
 136.65     1.3551
 136.66     1.1899
 137.04     1.7960
 137.47     1.5435
 137.84     2.5404
 137.86     2.1362
 138.25     2.8313
 138.64     3.8348
 138.65     3.3674
 139.47     4.3679
 139.87     4.9747
 140.27     5.9166
 141.51     7.0383
 141.92     8.1916
 142.74     9.5348
 143.57     10.628
 144.39     12.370
 145.64     13.790
 146.47     15.371
 148.13     17.511
 149.80     18.295
 152.32     17.530
 152.75     15.732
 154.44     13.525
 154.87     11.878
 155.29     10.893
 156.14     9.7771
 156.15     8.7735
 156.59     7.3784
 157.01     6.7667
 157.45     5.5688
 158.30     4.7863
 158.74     4.2034
 159.16     3.8550
 159.17     3.3851
 160.02     3.0383
 160.03     2.7861
 162.14     2.5015
 162.54     2.9114
 163.78     3.3165
 164.17     4.6908
 164.19     3.9444
 164.99     5.5795
 165.80     7.5577
 165.81     6.4944
 166.20     8.7961
 166.61     10.018
 167.83     14.172
 167.85     12.445
 168.24     16.855
 168.63     20.934
 168.64     18.785
 169.04     23.331
 169.45     27.154
 169.85     30.926
ENDDATA            220
ENDSUBENT          233
ENDENTRY            17
