ENTRY            F0582   20150926   20160302   20160215       F059
SUBENT        F0582001   20150926   20160302   20160215       F059
BIB                 11         29
TITLE      4H resonances in the d+t reaction.
AUTHOR     (V.I.Grantsev,V.S.Zaritskij,V.I.Konfederatenko,
           B.V.Lashchenov,O.F.Nemets,V.A.Pilipchenko,
           O.M.Povoroznik,B.G.Struzhko)
INSTITUTE  (4UKRIJD)
REFERENCE  (J,IZV,53,(1),175,1989)
           (J,BAS,53,(1),171,1989) English translation
FACILITY   (CYCLO,4UKRIJD) U-120 cyclotron
DETECTOR   (TELES,SIBAR)Telescopes consisted of silicon neutron
            -alloyed E detectors with the thickness of 1.5 mm and
           silicon surface-barrier delta-E detectors with the
           thickness of 50-70 mu-m were placed on two independent
           platforms: one detector at the left and the other two
           detectors at the right from the beam. Diaphragms (6 mm
           in diameter) were placed immediately in front of delta-
           E detectors at the distance of 150-200 mm from the
           target. Solid angles were tested on counting rates in
           peaks of deuteron elastic scattering on titanium,
           tritium and carbon nuclei.
SAMPLE     Tritium-titanium target with the thickness of 2.5
           mu-g/cm2 was used.
METHOD     (EDE)
           (COINC)
MONITOR    (1-H-3(D,D)1-H-3,,DA) - triton was detected.
           (1-H-3(D,N)2-HE-4,,DA)
ERR-ANALYS (E-ERR-DIG) Energy digitizing error
           (ERR-DIG)   Data digitizing error
HISTORY    (20050817C)
           (20150926U) English translation was added.
ENDBIB              29
COMMON               3          3
EN         E-ERR-DIG  ERR-DIG
MEV        MEV        MB/SR2/MEV
       13.6        0.6        0.1
ENDCOMMON            3
ENDSUBENT           36
SUBENT        F0582002   20051206   20060315   20060201       F023
BIB                  4          7
REACTION   (1-H-3(D,N+P)1-H-3,,DA/DA/DE,P/T/P)
           ANG1 is the angle of proton detection
           ANG2 is the angle of triton detection (on the opposite
           side of the beam)
PART-DET   (P,T)
EN-SEC     (E,P)
STATUS     (CURVE)Fig.1
ENDBIB               7
NOCOMMON             0          0
DATA                 5        189
ANG1       ANG2       E          DATA       ERR-S
ADEG       ADEG       MEV        MB/SR2/MEV MB/SR2/MEV
 20.000    -20.000     2.1854     10.837
 20.000    -20.000     2.3569     9.3864
 20.000    -20.000     2.5967     10.545
 20.000    -20.000     2.7453     13.801
 20.000    -20.000     2.9958     11.560
 20.000    -20.000     3.2096     13.374
 20.000    -20.000     3.3974     15.843
 20.000    -20.000     3.5554     14.132     1.4377
 20.000    -20.000     3.7855     19.866     2.2228
 20.000    -20.000     3.9860     21.550     1.9614
 20.000    -20.000     4.1468     23.499     2.3545
 20.000    -20.000     4.3754     27.272     2.2208
 20.000    -20.000     4.5974     22.550     1.9614
 20.000    -20.000     4.7470     27.113     1.9624
 20.000    -20.000     4.9846     25.265     1.3070
 20.000    -20.000     5.1749     31.002     1.4357
 20.000    -20.000     5.3750     32.294     1.6990
 20.000    -20.000     5.5732     31.103     1.5683
 20.000    -20.000     5.7864     32.132     1.1753
 20.000    -20.000     5.9699     28.982     2.3525
 20.000    -20.000     6.1329     33.806     2.2228
 20.000    -20.000     6.3538     27.646     1.8307
 20.000    -20.000     6.5661     27.499     2.0911
 20.000    -20.000     6.7378     26.310     2.0911
 20.000    -20.000     6.9635     26.293     1.8307
 20.000    -20.000     7.1575     19.743     2.6139
 20.000    -20.000     7.3585     22.081     1.9614
 20.000    -20.000     7.5569     21.151     2.0921
 20.000    -20.000     7.7547     19.437     1.9584
 20.000    -20.000     7.9654     17.199     1.9604
 20.000    -20.000     8.1664     19.537     1.8297
 20.000    -20.000     8.3641     17.692     2.2208
 20.000    -20.000     8.5751     15.846     2.0891
 20.000    -20.000     8.7606     15.440     1.8317
 20.000    -35.000     2.3734     2.5186
 20.000    -35.000     2.5992     2.3130
 20.000    -35.000     2.7866     3.3718
 20.000    -35.000     3.0137     4.3630
 20.000    -35.000     3.1856     3.4275
 20.000    -35.000     3.3878     5.8822
 20.000    -35.000     3.5594     4.7472
 20.000    -35.000     3.9321     5.0031    0.73173
 20.000    -35.000     4.1603     6.9916    0.93119
 20.000    -35.000     4.3596     6.7867     1.0631
 20.000    -35.000     4.5611     8.6430    0.99732
 20.000    -35.000     4.7882     9.6342    0.86398
 20.000    -35.000     4.9722     7.6345     1.3294
 20.000    -35.000     5.1606     9.6241     1.1971
 20.000    -35.000     5.3598     9.4192     1.3955
 20.000    -35.000     5.5474     10.677     1.2636
 20.000    -35.000     5.7483     12.002     1.3962
 20.000    -35.000     5.9369     14.191     1.2633
 20.000    -35.000     6.1482     12.855     1.9285
 20.000    -35.000     6.3901     15.176     1.0642
 20.000    -35.000     6.5303     21.821     1.7283
 20.000    -35.000     6.7664     18.823     1.3959
 20.000    -35.000     6.9654     18.352     1.0638
 20.000    -35.000     7.1744     14.889    0.99696
 20.000    -35.000     7.3509     18.209     1.4627
 20.000    -35.000     7.5722     13.748    0.86470
 20.000    -35.000     7.7761     17.798     1.0634
 20.000    -35.000     7.9500     18.791     1.2633
 20.000    -35.000     8.1974     13.930     1.5289
 20.000    -35.000     8.3682     11.997     1.1964
 20.000    -35.000     8.6205     11.592     1.0634
 20.000    -35.000     8.7785     10.125     1.0638
 20.000    -45.000     2.1976     1.9503
 20.000    -45.000     2.3703     1.9475
 20.000    -45.000     2.5961     1.7491
 20.000    -45.000     2.7822     1.9407
 20.000    -45.000     2.9282     1.7437
 20.000    -45.000     3.1550     3.1028
 20.000    -45.000     3.3814     3.8779
 20.000    -45.000     3.5538     3.2910
 20.000    -45.000     3.7395     2.9635
 20.000    -45.000     3.9662     4.1280
 20.000    -45.000     4.1375     2.0484    0.84391
 20.000    -45.000     4.3502     2.2396    0.77901
 20.000    -45.000     4.5639     3.7937     1.3629
 20.000    -45.000     4.7621     2.2329    0.84391
 20.000    -45.000     4.9628     4.1766     1.0386
 20.000    -45.000     5.1752     3.9135    0.97327
 20.000    -45.000     5.3492     5.8577    0.84369
 20.000    -45.000     5.5747     5.2699     1.2329
 20.000    -45.000     5.7614     6.2403     1.2329
 20.000    -45.000     6.0014     7.5344     1.2331
 20.000    -45.000     6.1488     9.2843     1.3631
 20.000    -45.000     6.3621     10.319     1.1680
 20.000    -45.000     6.5733     8.3687    0.77879
 20.000    -45.000     6.7720     7.5218     1.4276
 20.000    -45.000     6.9866     10.374     1.4927
 20.000    -45.000     7.1746     13.356     1.2980
 20.000    -45.000     7.4111     9.4583    0.97327
 20.000    -45.000     7.5725     12.246     1.2331
 20.000    -45.000     7.7594     13.606     1.1682
 20.000    -45.000     7.9445     12.240     1.3633
 20.000    -45.000     8.1693     10.614     1.2982
 20.000    -45.000     8.3823     11.195     1.3631
 20.000    -45.000     8.5802     9.2445     1.4929
 30.000    -20.000     2.2166     9.3635
 30.000    -20.000     2.4162     11.450
 30.000    -20.000     2.6525     11.173
 30.000    -20.000     2.8085     9.6832
 30.000    -20.000     3.0038     8.0573
 30.000    -20.000     3.2163     9.9410
 30.000    -20.000     3.4165     12.635
 30.000    -20.000     3.6255     11.414
 30.000    -20.000     3.8389     14.107     1.4179
 30.000    -20.000     4.0362     14.236     1.1479
 30.000    -20.000     4.2109     17.606     1.4858
 30.000    -20.000     4.4468     16.992     1.0796
 30.000    -20.000     4.6134     13.206     1.3508
 30.000    -20.000     4.8277     16.710     1.6871
 30.000    -20.000     5.0101     15.220     1.6196
 30.000    -20.000     5.2110     18.521    0.94578
 30.000    -20.000     5.4263     11.359     1.0796
 30.000    -20.000     5.6510     12.433     1.2821
 30.000    -20.000     5.8373     14.385     1.1479
 30.000    -20.000     6.0356     15.391     1.5525
 30.000    -20.000     6.2321     14.778     1.4175
 30.000    -20.000     6.3982     10.588     1.2154
 30.000    -20.000     6.6402     15.305     1.4167
 30.000    -20.000     6.8109     15.165     1.6208
 30.000    -20.000     7.0372     17.656     1.5521
 30.000    -20.000     7.2185     15.288     1.3508
 30.000    -20.000     7.4375     11.366    0.74170
 30.000    -20.000     7.6331     10.010     1.2821
 30.000    -20.000     7.8206     12.975     1.8225
 30.000    -20.000     8.0166     11.956     1.8904
 30.000    -20.000     8.2538     12.489     1.5533
 30.000    -20.000     8.4626     11.200     1.3496
 30.000    -20.000     8.6362     13.558     1.5525
 30.000    -20.000     8.8270     7.9495     1.3512
 30.000    -20.000     9.0444     2.6778     1.1475
 35.000    -20.000     2.2261     6.5894
 35.000    -20.000     2.4359     5.4563
 35.000    -20.000     2.6380     9.4643
 35.000    -20.000     2.8377     11.289
 35.000    -20.000     3.0244     13.255
 35.000    -20.000     3.1132     9.9429
 35.000    -20.000     3.2175     8.7425
 35.000    -20.000     3.4530     7.0453
 35.000    -20.000     3.6268     9.2231
 35.000    -20.000     3.8253     9.9214
 35.000    -20.000     3.9985     11.606     1.5485
 35.000    -20.000     4.2090     11.107     1.1263
 35.000    -20.000     4.3923     9.8338     1.2676
 35.000    -20.000     4.5794     12.152     1.2680
 35.000    -20.000     4.7664     14.400     1.6205
 35.000    -20.000     4.9740     11.225     1.3384
 35.000    -20.000     5.1874     13.542     1.5493
 35.000    -20.000     5.3837     12.057     1.4788
 35.000    -20.000     5.5704     14.024     1.6905
 35.000    -20.000     5.7693     15.074     1.6897
 35.000    -20.000     5.9533     14.505     1.4796
 35.000    -20.000     6.1549     18.090     1.9726
 35.000    -20.000     6.3631     15.408     1.4792
 35.000    -20.000     6.5616     16.106     1.6897
 35.000    -20.000     6.7738     17.227     1.6197
 35.000    -20.000     6.9543     13.348     1.2672
 35.000    -20.000     7.1783     13.200    0.98509
 35.000    -20.000     7.3630     13.195     1.0567
 35.000    -20.000     7.5324     11.288    0.77463
 35.000    -20.000     7.7428     10.789    0.91627
 45.000    -20.000     2.2507     3.3050
 45.000    -20.000     2.4865     3.5025
 45.000    -20.000     2.6673     4.2418
 45.000    -20.000     2.8766     5.6561
 45.000    -20.000     3.0319     8.8284
 45.000    -20.000     3.2554     10.715
 45.000    -20.000     3.4875     6.8590
 45.000    -20.000     3.6735     13.206     1.5543
 45.000    -20.000     3.8944     12.188     1.4867
 45.000    -20.000     4.0741     11.711     1.6216
 45.000    -20.000     4.2998     15.963     1.2162
 45.000    -20.000     4.5188     12.985     1.6888
 45.000    -20.000     4.6996     13.657     1.6894
 45.000    -20.000     4.8932     13.112     1.7564
 45.000    -20.000     5.0903     16.418     1.6222
 45.000    -20.000     5.3238     14.184     1.8243
 45.000    -20.000     5.5461     14.719     1.5540
 45.000    -20.000     5.7265     14.986     1.6219
 45.000    -20.000     5.9743     13.156     1.3516
 45.000    -20.000     6.1843     15.449     1.6222
 45.000    -20.000     6.3932     16.525     1.5540
 45.000    -20.000     6.5972     12.196     1.6888
 45.000    -20.000     6.8479     13.542     1.5528
 45.000    -20.000     7.0811     10.902     1.2837
 45.000    -20.000     7.2867     8.3975     1.4192
ENDDATA            191
ENDSUBENT          203
ENDENTRY             2
