ENTRY            F0590   20110811   20111215   20111123       F042
SUBENT        F0590001   20110811   20111215   20111123       F042
BIB                 10         27
TITLE      Levels of 28Si from the 24Mg(alpha,alpha)24Mg and
           24Mg(alpha,gamma)28Si reactions
AUTHOR     (J.Cseh,E.Koltay,Z.Mate,E.Somorjai,L.Zolnai)
INSTITUTE  (3HUNDEB)
REFERENCE  (J,NP/A,385,43,1982)
FACILITY   (VDG,3HUNDEB) 5 MeV Van de Graaff accelerator.
DETECTOR   (SIBAR) Six surface-barrier detectors were mounted at
           67.5, 80.5, 116.8, 134.7, 145.0, 162.5 degrees for
           measuring excitation function
           (NAICR) 8cm*8cm NaI crystal was used to measure the
           gamma-ray excitation function simultaneously.
           (GELI) 70 cm3 and 25 cm3 Ge(Li) detectors (of 2.7 keV
           and 3.2 keV resolution at 1 .33 MeV, respectively) were
           used to measure gamma-ray spectra and angular
           distribution.
SAMPLE     Targets of 4-9 keV thickness at Ea=3.5 MeV were
           prepared by vacuum evaporation of MgO, 98.5% enriched
           in 24Mg on thin self-supporting carbon foils.
ANALYSIS   (RFN) Multi-level R-matrix analysis was performed for
           nineteen resonances.
ERR-ANALYS (EN-ERR) The uncertainty of the absolute energy scale
           For energy calibration the Ea=3198.3 keV resonance
           was used (from P.M.Endt+,J,NP/A,310,1,1978)
HISTORY    (20030821C)
           (20110808A) SD: in Subent 003.1 - DATA: MEV -> KEV
           In Subent 002 angle 167.5 corrected on 162.5 - mistake
            on the figure 2 in the article.
ENDBIB              27
COMMON               1          3
EN-ERR
KEV
 5.
ENDCOMMON            3
ENDSUBENT           34
SUBENT        F0590002   20110811   20111215   20111123       F042
BIB                  4          6
REACTION   (12-MG-24(A,EL)12-MG-24,,DA)
ERR-ANALYS (EN-ERR-DIG) Digitizing error
           (ERR-DIG)Digitizing error
STATUS     (CURVE)Fig.2 of NP/A,385,43,1982
HISTORY    (20110808A) SD:angle 167.5 corrected on 162.5 - mistake
            on the figure 2 in the article.
ENDBIB               6
COMMON               2          3
EN-ERR-DIG ERR-DIG
MEV        B/SR
 0.0005     0.002
ENDCOMMON            3
DATA                 3       3566
ANG        EN         DATA
ADEG       MEV        B/SR
     67.500     3.1859    0.66160
     67.500     3.1880    0.67244
     67.500     3.1907    0.65105
     67.500     3.1920    0.71203
     67.500     3.1941    0.70136
     67.500     3.1961    0.71220
     67.500     3.1968    0.72656
     67.500     3.1969    0.68356
     67.500     3.1976    0.64417
     67.500     3.1990    0.61556
     67.500     3.2004    0.63353
     67.500     3.2017    0.65868
     67.500     3.2025    0.62287
     67.500     3.2038    0.68385
     67.500     3.2058    0.66243
     67.500     3.2072    0.68041
     67.500     3.2093    0.64466
     67.500     3.2107    0.65547
     67.500     3.2120    0.68061
     67.500     3.2148    0.66281
     67.500     3.2168    0.71306
     67.500     3.2175    0.68084
     67.500     3.2203    0.65587
     67.500     3.2251    0.67757
     67.500     3.2299    0.69211
     67.500     3.2347    0.66005
     67.500     3.2388    0.67814
     67.500     3.2444    0.63179
     67.500     3.2492    0.66066
     67.500     3.2540    0.63219
     67.500     3.2588    0.69331
     67.500     3.2636    0.66843
     67.500     3.2685    0.61129
     67.500     3.2733    0.64733
     67.500     3.2780    0.67620
     67.500     3.2836    0.65851
     67.500     3.2850    0.63706
     67.500     3.2884    0.66946
     67.500     3.2918    0.64094
     67.500     3.2940    0.60877
     67.500     3.2953    0.62316
     67.500     3.2981    0.60894
     67.500     3.2995    0.56958
     67.500     3.3009    0.54455
     67.500     3.3023    0.56253
     67.500     3.3036    0.60200
     67.500     3.3042    0.63070
     67.500     3.3057    0.57342
     67.500     3.3077    0.58784
     67.500     3.3084    0.61296
     67.500     3.3090    0.68466
     67.500     3.3111    0.65607
     67.500     3.3124    0.67405
     67.500     3.3138    0.64185
     67.500     3.3159    0.66703
     67.500     3.3159    0.63477
     67.500     3.3167    0.60255
     67.500     3.3186    0.65997
     67.500     3.3201    0.62061
     67.500     3.3207    0.63856
     67.500     3.3221    0.65295
     67.500     3.3234    0.67451
     67.500     3.3263    0.57070
     67.500     3.3297    0.61743
     67.500     3.3360    0.57110
     67.500     3.3401    0.57127
     67.500     3.3462    0.61095
     67.500     3.3516    0.66852
     67.500     3.3545    0.58263
     67.500     3.3613    0.61875
     67.500     3.3661    0.65120
     67.500     3.3751    0.59424
     67.500     3.3764    0.65522
     67.500     3.3778    0.62661
     67.500     3.3792    0.64817
     67.500     3.3799    0.59444
     67.500     3.3820    0.61244
     67.500     3.3840    0.61253
     67.500     3.3853    0.65559
     67.500     3.3853    0.68426
     67.500     3.3868    0.58039
     67.500     3.3881    0.62345
     67.500     3.3901    0.66296
     67.500     3.3902    0.61279
     67.500     3.3929    0.68099
     67.500     3.3936    0.66669
     67.500     3.3937    0.58426
     67.500     3.3950    0.63449
     67.500     3.3958    0.55210
     67.500     3.3965    0.53421
     67.500     3.3971    0.57724
     67.500     3.3986    0.52354
     67.500     3.3990    0.70275
     67.500     3.3999    0.57377
     67.500     3.3999    0.54510
     67.500     3.4018    0.65270
     67.500     3.4025    0.68498
     67.500     3.4033    0.62408
     67.500     3.4033    0.60258
     67.500     3.4061    0.59553
     67.500     3.4074    0.60992
     67.500     3.4074    0.62784
     67.500     3.4087    0.64582
     67.500     3.4094    0.68526
     67.500     3.4116    0.59576
     67.500     3.4130    0.58148
     67.500     3.4138    0.48475
     67.500     3.4179    0.51360
     67.500     3.4204    0.63197
     67.500     3.4232    0.61058
     67.500     3.4254    0.56767
     67.500     3.4300    0.65746
     67.500     3.4322    0.57154
     67.500     3.4363    0.62188
     67.500     3.4423    0.70456
     67.500     3.4451    0.69751
     67.500     3.4453    0.56491
     67.500     3.4488    0.51130
     67.500     3.4529    0.55448
     67.500     3.4562    0.61196
     67.500     3.4570    0.57257
     67.500     3.4570    0.55465
     67.500     3.4591    0.54399
     67.500     3.4604    0.55480
     67.500     3.4611    0.57991
     67.500     3.4624    0.59789
     67.500     3.4632    0.57641
     67.500     3.4659    0.57653
     67.500     3.4666    0.60164
     67.500     3.4679    0.62678
     67.500     3.4700    0.60895
     67.500     3.4707    0.57314
     67.500     3.4734    0.63776
     67.500     3.4741    0.61629
     67.500     3.4747    0.67366
     67.500     3.4762    0.62713
     67.500     3.4762    0.60563
     67.500     3.4782    0.61288
     67.500     3.4788    0.67025
     67.500     3.4796    0.64519
     67.500     3.4808    0.71692
     67.500     3.4809    0.69542
     67.500     3.4829    0.72776
     67.500     3.4829    0.68475
     67.500     3.4844    0.64897
     67.500     3.4872    0.60967
     67.500     3.4886    0.58823
     67.500     3.4900    0.56678
     67.500     3.4900    0.54528
     67.500     3.4920    0.59554
     67.500     3.4928    0.55256
     67.500     3.4934    0.61709
     67.500     3.4956    0.52401
     67.500     3.4961    0.61721
     67.500     3.4982    0.57429
     67.500     3.5010    0.57441
     67.500     3.5017    0.54577
     67.500     3.5037    0.58886
     67.500     3.5058    0.59611
     67.500     3.5065    0.55672
     67.500     3.5085    0.61414
     67.500     3.5106    0.58556
     67.500     3.5113    0.56409
     67.500     3.5114    0.48883
     67.500     3.5168    0.61090
     67.500     3.5195    0.62894
     67.500     3.5258    0.52885
     67.500     3.5367    0.57948
     67.500     3.5388    0.55807
     67.500     3.5422    0.60838
     67.500     3.5429    0.58691
     67.500     3.5457    0.59778
     67.500     3.5477    0.62653
     67.500     3.5484    0.57280
     67.500     3.5517    0.66254
     67.500     3.5525    0.64107
     67.500     3.5545    0.68415
     67.500     3.5565    0.70216
     67.500     3.5580    0.63771
     67.500     3.5602    0.54104
     67.500     3.5616    0.49451
     67.500     3.5636    0.55910
     67.500     3.5650    0.54124
     67.500     3.5692    0.49124
     67.500     3.5705    0.52714
     67.500     3.5740    0.49144
     67.500     3.5746    0.57748
     67.500     3.5767    0.51306
     67.500     3.5795    0.51318
     67.500     3.5829    0.50974
     67.500     3.5870    0.54216
     67.500     3.5890    0.58167
     67.500     3.5918    0.57820
     67.500     3.5925    0.56389
     67.500     3.5952    0.54250
     67.500     3.5973    0.53542
     67.500     3.5973    0.56409
     67.500     3.6007    0.59649
     67.500     3.6021    0.54996
     67.500     3.6049    0.55366
     67.500     3.6069    0.58958
     67.500     3.6090    0.53950
     67.500     3.6103    0.60406
     67.500     3.6118    0.52169
     67.500     3.6145    0.52181
     67.500     3.6165    0.56490
     67.500     3.6179    0.53628
     67.500     3.6187    0.51481
     67.500     3.6228    0.51498
     67.500     3.6241    0.59388
     67.500     3.6261    0.57247
     67.500     3.6282    0.56180
     67.500     3.6296    0.53319
     67.500     3.6325    0.47597
     67.500     3.6338    0.51903
     67.500     3.6358    0.54420
     67.500     3.6385    0.56223
     67.500     3.6400    0.48345
     67.500     3.6420    0.54446
     67.500     3.6441    0.53021
     67.500     3.6461    0.59480
     67.500     3.6490    0.48382
     67.500     3.6495    0.56627
     67.500     3.6524    0.50188
     67.500     3.6543    0.57364
     67.500     3.6572    0.53075
     67.500     3.6592    0.54517
     67.500     3.6606    0.52373
     67.500     3.6627    0.49156
     67.500     3.6640    0.54538
     67.500     3.6668    0.50249
     67.500     3.6681    0.59572
     67.500     3.6702    0.53847
     67.500     3.6723    0.49197
     67.500     3.6743    0.55656
     67.500     3.6772    0.48500
     67.500     3.6798    0.59262
     67.500     3.6805    0.54248
     67.500     3.6846    0.55340
     67.500     3.6880    0.56430
     67.500     3.6894    0.55002
     67.500     3.6929    0.51433
     67.500     3.6950    0.53592
     67.500     3.6964    0.50731
     67.500     3.6978    0.49303
     67.500     3.6998    0.50387
     67.500     3.7040    0.50404
     67.500     3.7060    0.51846
     67.500     3.7080    0.53288
     67.500     3.7108    0.55091
     67.500     3.7142    0.54747
     67.500     3.7156    0.53678
     67.500     3.7191    0.49750
     67.500     3.7218    0.50837
     67.500     3.7233    0.46542
     67.500     3.7273    0.51576
     67.500     3.7287    0.53016
     67.500     3.7309    0.45499
     67.500     3.7335    0.50527
     67.500     3.7355    0.53403
     67.500     3.7376    0.51620
     67.500     3.7396    0.55570
     67.500     3.7404    0.52706
     67.500     3.7431    0.51284
     67.500     3.7466    0.51298
     67.500     3.7495    0.41993
     67.500     3.7527    0.55625
     67.500     3.7564    0.41663
     67.500     3.7590    0.47767
     67.500     3.7591    0.43825
     67.500     3.7602    0.56731
     67.500     3.7624    0.51006
     67.500     3.7686    0.53182
     67.500     3.7698    0.59280
     67.500     3.7712    0.57852
     67.500     3.7727    0.53199
     67.500     3.7748    0.47833
     67.500     3.7775    0.49994
     67.500     3.7775    0.53219
     67.500     3.7788    0.60392
     67.500     3.7830    0.52167
     67.500     3.7845    0.47156
     67.500     3.7865    0.48240
     67.500     3.7879    0.46454
     67.500     3.7906    0.50049
     67.500     3.7920    0.48621
     67.500     3.7940    0.50421
     67.500     3.7961    0.51147
     67.500     3.7967    0.53300
     67.500     3.7988    0.52233
     67.500     3.7996    0.49011
     67.500     3.8023    0.47947
     67.500     3.8030    0.49384
     67.500     3.8057    0.54054
     67.500     3.8078    0.47254
     67.500     3.8086    0.45106
     67.500     3.8112    0.53719
     67.500     3.8118    0.56947
     67.500     3.8141    0.45129
     67.500     3.8152    0.58394
     67.500     3.8174    0.51236
     67.500     3.8195    0.48736
     67.500     3.8215    0.52686
     67.500     3.8230    0.44092
     67.500     3.8243    0.48039
     67.500     3.8271    0.47692
     67.500     3.8291    0.53076
     67.500     3.8313    0.43051
     67.500     3.8334    0.38043
     67.500     3.8354    0.45577
     67.500     3.8374    0.48452
     67.500     3.8395    0.45594
     67.500     3.8415    0.47394
     67.500     3.8437    0.43819
     67.500     3.8456    0.53504
     67.500     3.8477    0.48854
     67.500     3.8504    0.52090
     67.500     3.8526    0.44932
     67.500     3.8553    0.48885
     67.500     3.8588    0.39941
     67.500     3.8607    0.55359
     67.500     3.8622    0.42463
     67.500     3.8628    0.49633
     67.500     3.8656    0.47136
     67.500     3.8684    0.47148
     67.500     3.8697    0.49304
     67.500     3.8739    0.46454
     67.500     3.8759    0.46463
     67.500     3.8794    0.46477
     67.500     3.8807    0.52217
     67.500     3.8834    0.52228
     67.500     3.8848    0.50442
     67.500     3.8870    0.45075
     67.500     3.8883    0.48665
     67.500     3.8917    0.47604
     67.500     3.8958    0.51921
     67.500     3.9000    0.49789
     67.500     3.9021    0.46930
     67.500     3.9048    0.49092
     67.500     3.9082    0.50540
     67.500     3.9103    0.49473
     67.500     3.9123    0.50557
     67.500     3.9151    0.50568
     67.500     3.9172    0.46277
     67.500     3.9192    0.47360
     67.500     4.2076    0.38151
     67.500     4.2088    0.38833
     67.500     4.2102    0.39864
     67.500     4.2134    0.37137
     67.500     4.2155    0.38494
     67.500     4.2188    0.34061
     67.500     4.2221    0.43260
     67.500     4.2241    0.39519
     67.500     4.2250    0.41899
     67.500     4.2296    0.39855
     67.500     4.2323    0.39858
     67.500     4.2352    0.38147
     67.500     4.2380    0.39503
     67.500     4.2401    0.38147
     67.500     4.2429    0.41210
     67.500     4.2447    0.37467
     67.500     4.2455    0.36442
     67.500     4.2478    0.40862
     67.500     4.2498    0.38481
     67.500     4.2523    0.43255
     67.500     4.2532    0.34734
     67.500     4.2569    0.35418
     67.500     4.2577    0.38137
     67.500     4.2594    0.37117
     67.500     4.2613    0.38136
     67.500     4.2647    0.34739
     67.500     4.2668    0.37114
     67.500     4.2671    0.33366
     67.500     4.2701    0.32346
     67.500     4.2728    0.33364
     67.500     4.2744    0.38131
     67.500     4.2757    0.38812
     67.500     4.2769    0.39495
     67.500     4.2782    0.37453
     67.500     4.2795    0.34047
     67.500     4.2826    0.40514
     67.500     4.2838    0.39498
     67.500     4.2843    0.37789
     67.500     4.2871    0.37104
     67.500     4.2892    0.35062
     67.500     4.2914    0.40512
     67.500     4.2934    0.38124
     67.500     4.2955    0.38126
     67.500     4.2971    0.33697
     67.500     4.3003    0.40164
     67.500     4.3011    0.39143
     67.500     4.3039    0.38125
     67.500     4.3085    0.36758
     67.500     4.3118    0.37779
     67.500     4.3133    0.29948
     67.500     4.3149    0.28239
     67.500     4.3151    0.29600
     67.500     4.3172    0.33000
     67.500     4.3182    0.35734
     67.500     4.3204    0.34021
     67.500     4.3225    0.38454
     67.500     4.3247    0.31982
     67.500     4.3263    0.37096
     67.500     4.3289    0.35729
     67.500     4.3298    0.38114
     67.500     4.3324    0.35726
     67.500     4.3356    0.37435
     67.500     4.3388    0.37088
     67.500     4.3415    0.34707
     67.500     4.3422    0.38107
     67.500     4.3451    0.36743
     67.500     4.3475    0.35722
     67.500     4.3484    0.38441
     67.500     4.3502    0.36065
     67.500     4.3521    0.35389
     67.500     4.3540    0.36746
     67.500     4.3567    0.36748
     67.500     4.3569    0.34357
     67.500     4.3585    0.39461
     67.500     4.3624    0.35371
     67.500     4.3648    0.32994
     67.500     4.3689    0.35033
     67.500     4.3702    0.32987
     67.500     4.3724    0.34014
     67.500     4.3756    0.35031
     67.500     4.3788    0.35039
     67.500     4.3829    0.36738
     67.500     4.3857    0.36737
     67.500     4.3898    0.36726
     67.500     4.3921    0.33327
     67.500     4.3983    0.35027
     67.500     4.4045    0.37069
     67.500     4.4076    0.34677
     67.500     4.4113    0.31950
     67.500     4.4155    0.33995
     67.500     4.4191    0.34333
     67.500     4.4232    0.38762
     67.500     4.4271    0.36717
     67.500     4.4311    0.33648
     67.500     4.4355    0.35359
     67.500     4.4388    0.33988
     67.500     4.4435    0.33645
     67.500     4.4479    0.33306
     67.500     4.4513    0.32958
     67.500     4.4558    0.34667
     67.500     4.4598    0.33633
     67.500     4.4622    0.32273
     67.500     4.4654    0.34311
     67.500     4.4717    0.31240
     67.500     4.4746    0.28522
     67.500     4.4807    0.32261
     67.500     4.4849    0.34315
     67.500     4.4880    0.32263
     67.500     4.4930    0.32262
     67.500     4.4961    0.32267
     67.500     4.5013    0.32266
     67.500     4.5042    0.27835
     67.500     4.5056    0.32948
     67.500     4.5094    0.31918
     67.500     4.5128    0.30219
     67.500     4.5205    0.32252
     67.500     4.5245    0.29524
     67.500     4.5289    0.27823
     67.500     4.5333    0.26456
     67.500     4.5357    0.28841
     67.500     4.5393    0.31904
     67.500     4.5432    0.33947
     67.500     4.5472    0.34624
     67.500     4.5495    0.39056
     67.500     4.5517    0.36674
     67.500     4.5546    0.38039
     67.500     4.5559    0.37012
     67.500     4.5589    0.34281
     67.500     4.5630    0.32911
     67.500     4.5642    0.34626
     67.500     4.5674    0.34282
     67.500     4.5719    0.29502
     67.500     4.5753    0.27123
     67.500     4.5785    0.32579
     67.500     4.5837    0.33254
     67.500     4.5872    0.38366
     67.500     4.5924    0.32905
     67.500     4.5965    0.39044
     67.500     4.6001    0.39726
     67.500     4.6046    0.34607
     67.500     4.6096    0.35289
     67.500     4.6123    0.36996
     67.500     4.6161    0.32211
     67.500     4.6162    0.37678
     67.500     4.6188    0.30173
     67.500     4.6224    0.36649
     67.500     4.6246    0.30172
     67.500     4.6279    0.26424
     67.500     4.6327    0.24031
     67.500     4.6349    0.26423
     67.500     4.6364    0.28800
     67.500     4.6404    0.26752
     67.500     4.6431    0.36293
     67.500     4.6465    0.29480
     67.500     4.6493    0.30849
     67.500     4.6532    0.26754
     67.500     4.6557    0.23348
     67.500     4.6598    0.26419
     67.500     4.6627    0.31526
     67.500     4.6642    0.27092
     67.500     4.6693    0.39693
     67.500     4.6732    0.33905
     67.500     4.6735    0.36961
     67.500     4.6809    0.31857
     67.500     4.6826    0.27429
     67.500     4.6878    0.28103
     67.500     4.6907    0.30142
     67.500     4.6958    0.30142
     67.500     4.6977    0.25714
     67.500     4.7017    0.25715
     67.500     4.7049    0.21965
     67.500     4.7076    0.26053
     67.500     4.7124    0.26732
     67.500     4.7142    0.26732
     67.500     4.7199    0.27077
     67.500     4.7211    0.31509
     67.500     4.7238    0.26380
     67.500     4.7270    0.24686
     67.500     4.7315    0.28779
     67.500     4.7357    0.28085
     67.500     4.7358    0.29103
     67.500     4.7372    0.26720
     67.500     4.7413    0.22973
     67.500     4.7459    0.27744
     67.500     4.7485    0.27068
     67.500     4.7534    0.33537
     67.500     4.7558    0.28422
     67.500     4.7607    0.25699
     67.500     4.7609    0.38643
     67.500     4.7634    0.28417
     67.500     4.7661    0.23645
     67.500     4.7703    0.20576
     67.500     4.7732    0.25008
     67.500     4.7771    0.26364
     67.500     4.7800    0.22629
     67.500     4.7851    0.37957
     67.500     4.7871    0.19892
     67.500     4.7913    0.25004
     67.500     4.8008    0.34195
     67.500     4.8035    0.36246
     67.500     4.8073    0.28748
     67.500     4.8114    0.36574
     67.500     4.8154    0.34872
     67.500     4.8188    0.32483
     67.500     4.8247    0.33846
     67.500     4.8328    0.33849
     67.500     4.8375    0.32488
     67.500     4.8409    0.29077
     67.500     4.8432    0.31459
     67.500     4.8471    0.36224
     67.500     4.8501    0.39295
     67.500     4.8542    0.34517
     67.500     4.8574    0.29062
     67.500     4.8614    0.33831
     67.500     4.8643    0.29744
     67.500     4.8686    0.31445
     67.500     4.8729    0.32809
     67.500     4.8757    0.29407
     67.500     4.8795    0.24626
     67.500     4.8823    0.29734
     67.500     4.8872    0.33483
     67.500     4.8931    0.29735
     67.500     4.8984    0.37918
     67.500     4.9017    0.34501
     67.500     4.9043    0.33131
     67.500     4.9084    0.35180
     67.500     4.9114    0.29042
     67.500     4.9126    0.31434
     67.500     4.9183    0.29722
     67.500     4.9201    0.32797
     67.500     4.9239    0.35511
     67.500     4.9287    0.31420
     67.500     4.9318    0.34491
     67.500     4.9397    0.34142
     67.500     4.9430    0.32449
     80.500     3.1834    0.38028
     80.500     3.1855    0.39173
     80.500     3.1862    0.38460
     80.500     3.1888    0.42177
     80.500     3.1910    0.40465
     80.500     3.1923    0.41038
     80.500     3.1937    0.40468
     80.500     3.1945    0.37184
     80.500     3.1954    0.30899
     80.500     3.1974    0.32473
     80.500     3.1993    0.39047
     80.500     3.2000    0.37048
     80.500     3.2013    0.39478
     80.500     3.2026    0.42336
     80.500     3.2047    0.41053
     80.500     3.2048    0.38910
     80.500     3.2068    0.41198
     80.500     3.2068    0.40056
     80.500     3.2088    0.40915
     80.500     3.2103    0.38631
     80.500     3.2123    0.40491
     80.500     3.2138    0.37064
     80.500     3.2150    0.41065
     80.500     3.2171    0.41496
     80.500     3.2192    0.40499
     80.500     3.2240    0.40076
     80.500     3.2289    0.38082
     80.500     3.2344    0.38660
     80.500     3.2392    0.40094
     80.500     3.2434    0.38242
     80.500     3.2488    0.40820
     80.500     3.2530    0.39539
     80.500     3.2586    0.36261
     80.500     3.2633    0.38266
     80.500     3.2675    0.39128
     80.500     3.2723    0.39705
     80.500     3.2778    0.37141
     80.500     3.2819    0.38431
     80.500     3.2847    0.37863
     80.500     3.2861    0.37294
     80.500     3.2875    0.36581
     80.500     3.2910    0.36585
     80.500     3.2922    0.39586
     80.500     3.2945    0.34589
     80.500     3.2965    0.36592
     80.500     3.2992    0.36452
     80.500     3.2992    0.37595
     80.500     3.3005    0.38596
     80.500     3.3020    0.37312
     80.500     3.3026    0.38170
     80.500     3.3034    0.35886
     80.500     3.3054    0.38745
     80.500     3.3060    0.40603
     80.500     3.3068    0.37747
     80.500     3.3075    0.36176
     80.500     3.3088    0.37321
     80.500     3.3102    0.36322
     80.500     3.3116    0.36896
     80.500     3.3116    0.37467
     80.500     3.3123    0.35468
     80.500     3.3150    0.37900
     80.500     3.3151    0.35043
     80.500     3.3171    0.38902
     80.500     3.3177    0.42331
     80.500     3.3191    0.39761
     80.500     3.3197    0.41476
     80.500     3.3205    0.38906
     80.500     3.3212    0.37050
     80.500     3.3240    0.36768
     80.500     3.3260    0.40055
     80.500     3.3288    0.38773
     80.500     3.3349    0.39780
     80.500     3.3399    0.34929
     80.500     3.3460    0.38222
     80.500     3.3510    0.34228
     80.500     3.3550    0.36090
     80.500     3.3612    0.36812
     80.500     3.3667    0.36247
     80.500     3.3744    0.33971
     80.500     3.3757    0.36687
     80.500     3.3764    0.34545
     80.500     3.3771    0.36117
     80.500     3.3785    0.35690
     80.500     3.3798    0.36549
     80.500     3.3804    0.40121
     80.500     3.3805    0.35978
     80.500     3.3806    0.34550
     80.500     3.3839    0.36696
     80.500     3.3854    0.33127
     80.500     3.3868    0.33557
     80.500     3.3881    0.34844
     80.500     3.3888    0.34274
     80.500     3.3894    0.39131
     80.500     3.3930    0.33136
     80.500     3.3944    0.31995
     80.500     3.3972    0.32427
     80.500     3.3977    0.36570
     80.500     3.3998    0.35573
     80.500     3.4004    0.40002
     80.500     3.4019    0.35289
     80.500     3.4025    0.37861
     80.500     3.4032    0.36291
     80.500     3.4032    0.37005
     80.500     3.4040    0.35149
     80.500     3.4059    0.40437
     80.500     3.4067    0.36724
     80.500     3.4075    0.33011
     80.500     3.4081    0.34725
     80.500     3.4101    0.39156
     80.500     3.4102    0.35585
     80.500     3.4114    0.40586
     80.500     3.4129    0.35303
     80.500     3.4130    0.34017
     80.500     3.4169    0.39022
     80.500     3.4233    0.34029
     80.500     3.4260    0.37461
     80.500     3.4295    0.33323
     80.500     3.4329    0.33898
     80.500     3.4356    0.37615
     80.500     3.4432    0.35339
     80.500     3.4453    0.33484
     80.500     3.4481    0.34202
     80.500     3.4522    0.33921
     80.500     3.4556    0.35068
     80.500     3.4584    0.34929
     80.500     3.4584    0.35928
     80.500     3.4605    0.34503
     80.500     3.4612    0.33218
     80.500     3.4632    0.34649
     80.500     3.4646    0.34079
     80.500     3.4659    0.37366
     80.500     3.4674    0.34939
     80.500     3.4693    0.40084
     80.500     3.4707    0.37515
     80.500     3.4735    0.37946
     80.500     3.4741    0.39947
     80.500     3.4762    0.39093
     80.500     3.4762    0.38521
     80.500     3.4776    0.39523
     80.500     3.4789    0.40096
     80.500     3.4797    0.37525
     80.500     3.4803    0.41669
     80.500     3.4824    0.39528
     80.500     3.4848    0.26961
     80.500     3.4848    0.25246
     80.500     3.4856    0.22819
     80.500     3.4863    0.24105
     80.500     3.4869    0.26249
     80.500     3.4883    0.24965
     80.500     3.4896    0.26109
     80.500     3.4896    0.27823
     80.500     3.4909    0.29682
     80.500     3.4924    0.27684
     80.500     3.4930    0.30113
     80.500     3.4945    0.25972
     80.500     3.4964    0.29831
     80.500     3.4992    0.30263
     80.500     3.4999    0.29693
     80.500     3.5012    0.31266
     80.500     3.5040    0.31269
     80.500     3.5074    0.31130
     80.500     3.5094    0.32418
     80.500     3.5115    0.33135
     80.500     3.5136    0.32852
     80.500     3.5164    0.30570
     80.500     3.5204    0.34717
     80.500     3.5225    0.33291
     80.500     3.5253    0.31152
     80.500     3.5253    0.30438
     80.500     3.5363    0.33022
     80.500     3.5390    0.33311
     80.500     3.5412    0.29599
     80.500     3.5424    0.35743
     80.500     3.5438    0.34317
     80.500     3.5458    0.37462
     80.500     3.5479    0.37036
     80.500     3.5500    0.36610
     80.500     3.5520    0.37898
     80.500     3.5534    0.36614
     80.500     3.5570    0.31904
     80.500     3.5592    0.26193
     80.500     3.5600    0.24622
     80.500     3.5620    0.23625
     80.500     3.5640    0.28055
     80.500     3.5661    0.26629
     80.500     3.5695    0.29062
     80.500     3.5729    0.29637
     80.500     3.5756    0.30212
     80.500     3.5777    0.29786
     80.500     3.5790    0.31930
     80.500     3.5811    0.31361
     80.500     3.5818    0.32076
     80.500     3.5840    0.28508
     80.500     3.5867    0.27654
     80.500     3.5901    0.30229
     80.500     3.5934    0.34519
     80.500     3.5943    0.27806
     80.500     3.5956    0.29522
     80.500     3.5970    0.30523
     80.500     3.5984    0.28668
     80.500     3.5997    0.30955
     80.500     3.6018    0.30529
     80.500     3.6039    0.30960
     80.500     3.6053    0.30105
     80.500     3.6073    0.30964
     80.500     3.6087    0.29109
     80.500     3.6101    0.30396
     80.500     3.6121    0.31541
     80.500     3.6143    0.27544
     80.500     3.6171    0.27262
     80.500     3.6190    0.30835
     80.500     3.6210    0.33123
     80.500     3.6225    0.29125
     80.500     3.6245    0.30985
     80.500     3.6273    0.31274
     80.500     3.6287    0.30418
     80.500     3.6315    0.28708
     80.500     3.6328    0.31709
     80.500     3.6349    0.30426
     80.500     3.6376    0.33572
     80.500     3.6390    0.32002
     80.500     3.6411    0.30862
     80.500     3.6438    0.32294
     80.500     3.6446    0.29152
     80.500     3.6466    0.30297
     80.500     3.6480    0.30870
     80.500     3.6514    0.30589
     80.500     3.6536    0.27591
     80.500     3.6549    0.30164
     80.500     3.6569    0.30738
     80.500     3.6597    0.28599
     80.500     3.6610    0.31314
     80.500     3.6639    0.28889
     80.500     3.6679    0.31894
     80.500     3.6700    0.29611
     80.500     3.6735    0.29615
     80.500     3.6762    0.29190
     80.500     3.6790    0.29479
     80.500     3.6796    0.33765
     80.500     3.6796    0.33194
     80.500     3.6817    0.32053
     80.500     3.6844    0.31628
     80.500     3.6858    0.33201
     80.500     3.6872    0.31346
     80.500     3.6893    0.31777
     80.500     3.6900    0.30063
     80.500     3.6914    0.30636
     80.500     3.6941    0.29640
     80.500     3.6962    0.29499
     80.500     3.6975    0.31644
     80.500     3.6983    0.29930
     80.500     3.7003    0.30504
     80.500     3.7038    0.29794
     80.500     3.7072    0.29513
     80.500     3.7121    0.27376
     80.500     3.7148    0.29093
     80.500     3.7169    0.29096
     80.500     3.7169    0.27953
     80.500     3.7190    0.29098
     80.500     3.7210    0.29958
     80.500     3.7237    0.30532
     80.500     3.7265    0.31250
     80.500     3.7286    0.29538
     80.500     3.7299    0.30968
     80.500     3.7321    0.27828
     80.500     3.7354    0.31118
     80.500     3.7369    0.28691
     80.500     3.7417    0.29697
     80.500     3.7443    0.33557
     80.500     3.7500    0.27850
     80.500     3.7534    0.30996
     80.500     3.7560    0.33857
     80.500     3.7596    0.27718
     80.500     3.7604    0.26576
     80.500     3.7610    0.29863
     80.500     3.7637    0.30009
     80.500     3.7658    0.30297
     80.500     3.7671    0.31013
     80.500     3.7685    0.30443
     80.500     3.7706    0.31303
     80.500     3.7726    0.32734
     80.500     3.7733    0.31163
     80.500     3.7766    0.36024
     80.500     3.7768    0.31596
     80.500     3.7789    0.30455
     80.500     3.7839    0.23462
     80.500     3.7859    0.24036
     80.500     3.7873    0.25037
     80.500     3.7886    0.26610
     80.500     3.7914    0.25185
     80.500     3.7927    0.28044
     80.500     3.7947    0.30903
     80.500     3.7961    0.29762
     80.500     3.7989    0.28051
     80.500     3.8003    0.25910
     80.500     3.8024    0.25055
     80.500     3.8052    0.26344
     80.500     3.8059    0.25060
     80.500     3.8072    0.27490
     80.500     3.8093    0.25492
     80.500     3.8107    0.26494
     80.500     3.8127    0.27782
     80.500     3.8147    0.28356
     80.500     3.8175    0.27216
     80.500     3.8182    0.29217
     80.500     3.8202    0.29648
     80.500     3.8216    0.27793
     80.500     3.8251    0.28797
     80.500     3.8251    0.27940
     80.500     3.8286    0.26658
     80.500     3.8306    0.28089
     80.500     3.8333    0.28664
     80.500     3.8354    0.26952
     80.500     3.8389    0.27385
     80.500     3.8410    0.26101
     80.500     3.8430    0.27961
     80.500     3.8443    0.29820
     80.500     3.8472    0.26680
     80.500     3.8485    0.27253
     80.500     3.8514    0.23257
     80.500     3.8527    0.26116
     80.500     3.8554    0.28690
     80.500     3.8595    0.27981
     80.500     3.8616    0.27412
     80.500     3.8636    0.29414
     80.500     3.8643    0.28129
     80.500     3.8679    0.25562
     80.500     3.8699    0.26136
     80.500     3.8713    0.25424
     80.500     3.8733    0.26712
     80.500     3.8755    0.25143
     80.500     3.8789    0.24718
     80.500     3.8823    0.26865
     80.500     3.8844    0.26011
     80.500     3.8865    0.24585
     80.500     3.8885    0.26444
     80.500     3.8906    0.27161
     80.500     3.8926    0.26449
     80.500     3.8968    0.26168
     80.500     3.8995    0.26314
     80.500     3.9010    0.23459
     80.500     3.9024    0.24032
     80.500     3.9057    0.28322
     80.500     3.9071    0.25466
     80.500     3.9092    0.26040
     80.500     3.9113    0.25186
     80.500     3.9146    0.28475
     80.500     3.9153    0.27333
     80.500     3.9175    0.25050
     80.500     3.9208    0.28340
     80.500     4.2036    0.24385
     80.500     4.2057    0.24386
     80.500     4.2077    0.24246
     80.500     4.2097    0.21589
     80.500     4.2111    0.23128
     80.500     4.2131    0.23128
     80.500     4.2138    0.20890
     80.500     4.2165    0.22569
     80.500     4.2185    0.23548
     80.500     4.2192    0.22290
     80.500     4.2219    0.22290
     80.500     4.2239    0.22990
     80.500     4.2246    0.22291
     80.500     4.2266    0.22291
     80.500     4.2280    0.23270
     80.500     4.2307    0.22851
     80.500     4.2340    0.20474
     80.500     4.2381    0.19775
     80.500     4.2394    0.22852
     80.500     4.2408    0.23132
     80.500     4.2415    0.23412
     80.500     4.2435    0.21874
     80.500     4.2455    0.19776
     80.500     4.2476    0.22434
     80.500     4.2496    0.19357
     80.500     4.2516    0.19637
     80.500     4.2530    0.20476
     80.500     4.2563    0.20057
     80.500     4.2577    0.20477
     80.500     4.2597    0.18659
     80.500     4.2618    0.18799
     80.500     4.2631    0.19779
     80.500     4.2665    0.21877
     80.500     4.2678    0.21318
     80.500     4.2698    0.21877
     80.500     4.2712    0.24115
     80.500     4.2739    0.25514
     80.500     4.2753    0.21738
     80.500     4.2766    0.23697
     80.500     4.2793    0.21179
     80.500     4.2813    0.22858
     80.500     4.2827    0.24257
     80.500     4.2847    0.23138
     80.500     4.2874    0.20761
     80.500     4.2888    0.22719
     80.500     4.2908    0.20622
     80.500     4.2928    0.21042
     80.500     4.2975    0.23140
     80.500     4.2996    0.22441
     80.500     4.3016    0.21322
     80.500     4.3030    0.17826
     80.500     4.3043    0.15169
     80.500     4.3057    0.17127
     80.500     4.3077    0.21743
     80.500     4.3084    0.19226
     80.500     4.3104    0.22163
     80.500     4.3117    0.23981
     80.500     4.3131    0.20065
     80.500     4.3165    0.24122
     80.500     4.3178    0.22444
     80.500     4.3198    0.20486
     80.500     4.3219    0.23144
     80.500     4.3239    0.22584
     80.500     4.3259    0.19508
     80.500     4.3273    0.21886
     80.500     4.3300    0.23564
     80.500     4.3320    0.21327
     80.500     4.3367    0.22446
     80.500     4.3388    0.22586
     80.500     4.3408    0.22447
     80.500     4.3421    0.25244
     80.500     4.3462    0.22308
     80.500     4.3489    0.22588
     80.500     4.3496    0.22168
     80.500     4.3502    0.24406
     80.500     4.3516    0.22029
     80.500     4.3536    0.21470
     80.500     4.3556    0.22309
     80.500     4.3570    0.22869
     80.500     4.3597    0.21610
     80.500     4.3624    0.21751
     80.500     4.3631    0.20772
     80.500     4.3658    0.19094
     80.500     4.3671    0.21751
     80.500     4.3698    0.22171
     80.500     4.3719    0.22311
     80.500     4.3739    0.24130
     80.500     4.3766    0.24410
     80.500     4.3779    0.22452
     80.500     4.3806    0.21893
     80.500     4.3833    0.21894
     80.500     4.3847    0.22034
     80.500     4.3915    0.21615
     80.500     4.3969    0.20077
     80.500     4.4002    0.21896
     80.500     4.4043    0.22875
     80.500     4.4083    0.22177
     80.500     4.4138    0.20639
     80.500     4.4165    0.19521
     80.500     4.4205    0.20780
     80.500     4.4246    0.20641
     80.500     4.4279    0.20082
     80.500     4.4327    0.21621
     80.500     4.4360    0.21621
     80.500     4.4401    0.20923
     80.500     4.4442    0.18965
     80.500     4.4475    0.20784
     80.500     4.4516    0.21903
     80.500     4.4550    0.19806
     80.500     4.4583    0.22184
     80.500     4.4637    0.18968
     80.500     4.4678    0.22045
     80.500     4.4725    0.21067
     80.500     4.4773    0.20648
     80.500     4.4820    0.19810
     80.500     4.4840    0.21348
     80.500     4.4887    0.21349
     80.500     4.4935    0.21629
     80.500     4.4982    0.20092
     80.500     4.5023    0.20512
     80.500     4.5063    0.21212
     80.500     4.5097    0.19674
     80.500     4.5131    0.19814
     80.500     4.5178    0.19675
     80.500     4.5212    0.20794
     80.500     4.5252    0.16879
     80.500     4.5286    0.19816
     80.500     4.5327    0.18698
     80.500     4.5360    0.19258
     80.500     4.5401    0.17860
     80.500     4.5414    0.21077
     80.500     4.5435    0.19679
     80.500     4.5462    0.20238
     80.500     4.5489    0.20099
     80.500     4.5522    0.21358
     80.500     4.5523    0.18141
     80.500     4.5550    0.18981
     80.500     4.5577    0.19401
     80.500     4.5597    0.20240
     80.500     4.5631    0.18423
     80.500     4.5678    0.18843
     80.500     4.5712    0.17864
     80.500     4.5752    0.17725
     80.500     4.5800    0.18005
     80.500     4.5847    0.16048
     80.500     4.5881    0.17167
     80.500     4.5921    0.18147
     80.500     4.5962    0.17868
     80.500     4.6009    0.20526
     80.500     4.6050    0.16610
     80.500     4.6083    0.15772
     80.500     4.6104    0.13674
     80.500     4.6138    0.11857
     80.500     4.6171    0.13535
     80.500     4.6198    0.15074
     80.500     4.6239    0.16054
     80.500     4.6259    0.17453
     80.500     4.6286    0.18292
     80.500     4.6326    0.18013
     80.500     4.6353    0.19692
     80.500     4.6381    0.17454
     80.500     4.6408    0.17734
     80.500     4.6414    0.18713
     80.500     4.6455    0.18434
     80.500     4.6516    0.15358
     80.500     4.6536    0.17037
     80.500     4.6576    0.17037
     80.500     4.6603    0.18576
     80.500     4.6644    0.20115
     80.500     4.6691    0.20675
     80.500     4.6718    0.19976
     80.500     4.6752    0.18159
     80.500     4.6766    0.18579
     80.500     4.6786    0.17600
     80.500     4.6826    0.19139
     80.500     4.6853    0.17041
     80.500     4.6894    0.18161
     80.500     4.6928    0.18161
     80.500     4.6968    0.18302
     80.500     4.7009    0.19561
     80.500     4.7043    0.18303
     80.500     4.7076    0.18863
     80.500     4.7097    0.16066
     80.500     4.7110    0.16765
     80.500     4.7157    0.17465
     80.500     4.7232    0.16767
     80.500     4.7293    0.15369
     80.500     4.7326    0.17048
     80.500     4.7367    0.17608
     80.500     4.7434    0.16910
     80.500     4.7468    0.15512
     80.500     4.7509    0.15932
     80.500     4.7543    0.14114
     80.500     4.7576    0.11737
     80.500     4.7617    0.17472
     80.500     4.7644    0.17192
     80.500     4.7651    0.16353
     80.500     4.7691    0.18592
     80.500     4.7725    0.20270
     80.500     4.7765    0.21110
     80.500     4.7792    0.18873
     80.500     4.7826    0.18733
     80.500     4.7860    0.17475
     80.500     4.7907    0.15378
     80.500     4.7941    0.15239
     80.500     4.7975    0.15938
     80.500     4.8015    0.19575
     80.500     4.8056    0.19995
     80.500     4.8090    0.19716
     80.500     4.8130    0.19437
     80.500     4.8157    0.17759
     80.500     4.8232    0.17760
     80.500     4.8265    0.16922
     80.500     4.8299    0.17901
     80.500     4.8340    0.17762
     80.500     4.8367    0.18322
     80.500     4.8400    0.18322
     80.500     4.8448    0.21260
     80.500     4.8482    0.17484
     80.500     4.8563    0.19024
     80.500     4.8583    0.16926
     80.500     4.8617    0.18045
     80.500     4.8657    0.20004
     80.500     4.8684    0.18746
     80.500     4.8732    0.17488
     80.500     4.8765    0.16649
     80.500     4.8799    0.17908
     80.500     4.8840    0.17489
     80.500     4.8873    0.16231
     80.500     4.8914    0.18050
     80.500     4.8948    0.17631
     80.500     4.8975    0.19589
     80.500     4.9009    0.16513
     80.500     4.9036    0.18751
     80.500     4.9069    0.17492
     80.500     4.9177    0.17634
     80.500     4.9211    0.17774
     80.500     4.9265    0.18194
     80.500     4.9286    0.15817
     80.500     4.9319    0.17216
     80.500     4.9353    0.14559
     80.500     4.9400    0.16378
     80.500     4.9427    0.15120
     116.80     3.1830    0.16654
     116.80     3.1851    0.15450
     116.80     3.1857    0.17436
     116.80     3.1878    0.15806
     116.80     3.1906    0.15240
     116.80     3.1906    0.16516
     116.80     3.1913    0.15595
     116.80     3.1927    0.15950
     116.80     3.1941    0.15525
     116.80     3.1954    0.15810
     116.80     3.1954    0.16519
     116.80     3.1968    0.16732
     116.80     3.1989    0.14819
     116.80     3.1989    0.15244
     116.80     3.2009    0.15954
     116.80     3.2009    0.15387
     116.80     3.2030    0.16097
     116.80     3.2037    0.15459
     116.80     3.2044    0.14609
     116.80     3.2057    0.16524
     116.80     3.2058    0.15035
     116.80     3.2085    0.15746
     116.80     3.2099    0.16101
     116.80     3.2120    0.15251
     116.80     3.2126    0.16031
     116.80     3.2147    0.15749
     116.80     3.2161    0.15962
     116.80     3.2196    0.15042
     116.80     3.2237    0.15682
     116.80     3.2285    0.15117
     116.80     3.2340    0.15191
     116.80     3.2389    0.14485
     116.80     3.2436    0.15622
     116.80     3.2491    0.15837
     116.80     3.2533    0.15485
     116.80     3.2581    0.15558
     116.80     3.2630    0.14568
     116.80     3.2725    0.15636
     116.80     3.2774    0.15426
     116.80     3.2829    0.14649
     116.80     3.2835    0.16138
     116.80     3.2863    0.15147
     116.80     3.2877    0.14722
     116.80     3.2898    0.13872
     116.80     3.2905    0.14511
     116.80     3.2925    0.15363
     116.80     3.2939    0.14442
     116.80     3.2961    0.12954
     116.80     3.29830.89833E-01
     116.80     3.29910.63598E-01
     116.80     3.29920.55797E-01
     116.80     3.30120.57935E-01
     116.80     3.30310.96949E-01
     116.80     3.3037    0.11468
     116.80     3.3064    0.13668
     116.80     3.3078    0.13456
     116.80     3.3091    0.14591
     116.80     3.3098    0.13812
     116.80     3.3118    0.15160
     116.80     3.3133    0.13459
     116.80     3.3146    0.15161
     116.80     3.3153    0.14949
     116.80     3.3174    0.14099
     116.80     3.3180    0.16085
     116.80     3.3187    0.14951
     116.80     3.3194    0.15731
     116.80     3.3214    0.15165
     116.80     3.3222    0.13960
     116.80     3.3235    0.15521
     116.80     3.3255    0.16302
     116.80     3.3297    0.14531
     116.80     3.3407    0.14749
     116.80     3.3463    0.14610
     116.80     3.3518    0.14400
     116.80     3.3552    0.13835
     116.80     3.3614    0.14051
     116.80     3.3704    0.14694
     116.80     3.3710    0.14978
     116.80     3.3738    0.14341
     116.80     3.3773    0.13562
     116.80     3.3779    0.15052
     116.80     3.3787    0.13918
     116.80     3.3800    0.15408
     116.80     3.3807    0.14344
     116.80     3.3821    0.13423
     116.80     3.3835    0.14346
     116.80     3.3841    0.15126
     116.80     3.3849    0.13424
     116.80     3.3862    0.14914
     116.80     3.3876    0.13426
     116.80     3.3882    0.15554
     116.80     3.3890    0.13143
     116.80     3.3896    0.15129
     116.80     3.3917    0.15059
     116.80     3.3917    0.13712
     116.80     3.3931    0.14705
     116.80     3.3945    0.13784
     116.80     3.3952    0.14210
     116.80     3.3965    0.14707
     116.80     3.3986    0.13857
     116.80     3.3992    0.16198
     116.80     3.4000    0.14496
     116.80     3.4007    0.13007
     116.80     3.4027    0.15561
     116.80     3.4033    0.15774
     116.80     3.4048    0.15137
     116.80     3.4055    0.13648
     116.80     3.4068    0.14925
     116.80     3.4083    0.13436
     116.80     3.4096    0.13721
     116.80     3.4110    0.13367
     116.80     3.4131    0.12942
     116.80     3.4171    0.15923
     116.80     3.4193    0.13371
     116.80     3.4262    0.14013
     116.80     3.4289    0.13660
     116.80     3.4365    0.13947
     116.80     3.4413    0.14092
     116.80     3.4447    0.14448
     116.80     3.4455    0.12108
     116.80     3.4482    0.13670
     116.80     3.4524    0.12821
     116.80     3.4557    0.14950
     116.80     3.4566    0.11546
     116.80     3.4579    0.12043
     116.80     3.4586    0.11760
     116.80     3.4627    0.12117
     116.80     3.4634    0.11621
     116.80     3.4648    0.11338
     116.80     3.4656    0.10558
     116.80     3.4676    0.11410
     116.80     3.4682    0.12616
     116.80     3.4696    0.12191
     116.80     3.4710    0.11837
     116.80     3.4724    0.11625
     116.80     3.4752    0.11201
     116.80     3.47600.80103E-01
     116.80     3.47820.59548E-01
     116.80     3.47960.40408E-01
     116.80     3.47960.51045E-01
     116.80     3.48100.48216E-01
     116.80     3.48160.60275E-01
     116.80     3.48160.64530E-01
     116.80     3.48290.78011E-01
     116.80     3.4848    0.10852
     116.80     3.4861    0.12696
     116.80     3.4888    0.13690
     116.80     3.4895    0.13123
     116.80     3.4909    0.14330
     116.80     3.4929    0.15253
     116.80     3.4936    0.15040
     116.80     3.4950    0.14757
     116.80     3.4964    0.13694
     116.80     3.4998    0.13767
     116.80     3.5006    0.12987
     116.80     3.5026    0.13626
     116.80     3.5047    0.13131
     116.80     3.5067    0.13629
     116.80     3.5088    0.14126
     116.80     3.5102    0.13914
     116.80     3.5122    0.14128
     116.80     3.5123    0.12284
     116.80     3.5150    0.13278
     116.80     3.5185    0.12783
     116.80     3.5205    0.13636
     116.80     3.5226    0.13282
     116.80     3.5253    0.13354
     116.80     3.5266    0.14632
     116.80     3.5377    0.13786
     116.80     3.5377    0.12864
     116.80     3.5399    0.12014
     116.80     3.5419    0.13292
     116.80     3.5426    0.12512
     116.80     3.5446    0.12939
     116.80     3.5467    0.13082
     116.80     3.5487    0.13154
     116.80     3.5495    0.11948
     116.80     3.5530    0.10319
     116.80     3.55520.87599E-01
     116.80     3.55590.75547E-01
     116.80     3.55720.84773E-01
     116.80     3.55930.88330E-01
     116.80     3.55990.96134E-01
     116.80     3.5612    0.11812
     116.80     3.5625    0.13799
     116.80     3.5645    0.14509
     116.80     3.5673    0.13801
     116.80     3.5721    0.14300
     116.80     3.5749    0.14302
     116.80     3.5769    0.14090
     116.80     3.5784    0.13098
     116.80     3.5796    0.14800
     116.80     3.5818    0.13738
     116.80     3.5818    0.13454
     116.80     3.5852    0.14094
     116.80     3.5880    0.12890
     116.80     3.5914    0.13104
     116.80     3.5942    0.13319
     116.80     3.5963    0.12965
     116.80     3.5976    0.13249
     116.80     3.5984    0.12399
     116.80     3.5997    0.13463
     116.80     3.6024    0.13252
     116.80     3.6038    0.13891
     116.80     3.6059    0.12615
     116.80     3.6079    0.14318
     116.80     3.6093    0.14177
     116.80     3.6100    0.13185
     116.80     3.6135    0.12903
     116.80     3.6162    0.13046
     116.80     3.6183    0.13685
     116.80     3.6196    0.13544
     116.80     3.6217    0.12907
     116.80     3.6231    0.12411
     116.80     3.6266    0.12555
     116.80     3.6273    0.11704
     116.80     3.6294    0.11989
     116.80     3.6314    0.12628
     116.80     3.6348    0.14119
     116.80     3.6362    0.11851
     116.80     3.6382    0.13483
     116.80     3.6403    0.12917
     116.80     3.6411    0.11782
     116.80     3.6438    0.12067
     116.80     3.6466    0.11998
     116.80     3.6479    0.13346
     116.80     3.6500    0.12212
     116.80     3.6520    0.13348
     116.80     3.6541    0.12356
     116.80     3.6555    0.12570
     116.80     3.6582    0.13068
     116.80     3.6596    0.12430
     116.80     3.6617    0.12644
     116.80     3.6631    0.11439
     116.80     3.6665    0.12434
     116.80     3.6686    0.11867
     116.80     3.6700    0.12152
     116.80     3.6720    0.12791
     116.80     3.6782    0.13149
     116.80     3.6789    0.12298
     116.80     3.6810    0.12725
     116.80     3.6824    0.11662
     116.80     3.6865    0.12444
     116.80     3.6885    0.13083
     116.80     3.6892    0.12162
     116.80     3.6906    0.12801
     116.80     3.6906    0.12375
     116.80     3.6927    0.11454
     116.80     3.6948    0.11242
     116.80     3.6975    0.11811
     116.80     3.6989    0.11457
     116.80     3.6989    0.12237
     116.80     3.7017    0.11459
     116.80     3.7044    0.11460
     116.80     3.7064    0.13234
     116.80     3.7092    0.12385
     116.80     3.7107    0.10470
     116.80     3.7133    0.12599
     116.80     3.7147    0.11607
     116.80     3.7168    0.11892
     116.80     3.7189    0.10758
     116.80     3.7210    0.11327
     116.80     3.7230    0.11966
     116.80     3.7243    0.12676
     116.80     3.7299    0.12253
     116.80     3.7313    0.11970
     116.80     3.7333    0.11688
     116.80     3.7361    0.11689
     116.80     3.7374    0.12541
     116.80     3.7429    0.12827
     116.80     3.7430    0.12118
     116.80     3.7485    0.11057
     116.80     3.7513    0.10775
     116.80     3.7547    0.10918
     116.80     3.7581    0.11771
     116.80     3.7609    0.10567
     116.80     3.7636    0.11278
     116.80     3.7637    0.10781
     116.80     3.7671    0.10854
     116.80     3.76850.98618E-01
     116.80     3.7705    0.10997
     116.80     3.77270.98639E-01
     116.80     3.7740    0.11070
     116.80     3.77610.98657E-01
     116.80     3.77690.83059E-01
     116.80     3.77820.85902E-01
     116.80     3.78040.73148E-01
     116.80     3.78110.66060E-01
     116.80     3.78380.67492E-01
     116.80     3.78570.98706E-01
     116.80     3.7864    0.10226
     116.80     3.7877    0.11361
     116.80     3.7891    0.10936
     116.80     3.7905    0.10724
     116.80     3.7926    0.10654
     116.80     3.7933    0.10087
     116.80     3.79680.98762E-01
     116.80     3.7968    0.10160
     116.80     3.7981    0.11082
     116.80     3.8015    0.11368
     116.80     3.8035    0.12504
     116.80     3.8035    0.13071
     116.80     3.8070    0.12718
     116.80     3.8077    0.11655
     116.80     3.8104    0.11727
     116.80     3.8111    0.11444
     116.80     3.8132    0.12650
     116.80     3.8152    0.12651
     116.80     3.8173    0.12440
     116.80     3.8179    0.13858
     116.80     3.8221    0.12584
     116.80     3.8228    0.11662
     116.80     3.8248    0.13224
     116.80     3.8276    0.12232
     116.80     3.8304    0.11737
     116.80     3.8317    0.14007
     116.80     3.8338    0.12945
     116.80     3.8351    0.13867
     116.80     3.8373    0.12237
     116.80     3.8393    0.12025
     116.80     3.8421    0.12807
     116.80     3.8442    0.12170
     116.80     3.8455    0.13660
     116.80     3.8483    0.12526
     116.80     3.8497    0.11960
     116.80     3.8531    0.12033
     116.80     3.8544    0.13735
     116.80     3.8558    0.12459
     116.80     3.8586    0.11823
     116.80     3.8634    0.13031
     116.80     3.8648    0.12606
     116.80     3.8648    0.11684
     116.80     3.8676    0.10763
     116.80     3.8703    0.12041
     116.80     3.8724    0.10979
     116.80     3.8752    0.11973
     116.80     3.8759    0.10626
     116.80     3.8794    0.10415
     116.80     3.8814    0.10770
     116.80     3.8827    0.11480
     116.80     3.8861    0.12546
     116.80     3.8869    0.10206
     116.80     3.88900.97106E-01
     116.80     3.8917    0.10918
     116.80     3.8938    0.10777
     116.80     3.89520.97847E-01
     116.80     3.8966    0.10707
     116.80     3.90010.95744E-01
     116.80     3.9021    0.10143
     116.80     3.9041    0.11491
     116.80     3.9069    0.10642
     116.80     3.9082    0.10997
     116.80     3.9104    0.10218
     116.80     3.9123    0.11637
     116.80     3.9152    0.10079
     116.80     3.9172    0.11852
     116.80     3.9186    0.10719
     116.80     4.20130.97034E-01
     116.80     4.20190.92897E-01
     116.80     4.2060    0.10945
     116.80     4.2073    0.10532
     116.80     4.20940.90836E-01
     116.80     4.21210.79805E-01
     116.80     4.21480.97738E-01
     116.80     4.21550.89463E-01
     116.80     4.2182    0.10188
     116.80     4.2202    0.10326
     116.80     4.2222    0.11568
     116.80     4.22420.95680E-01
     116.80     4.2263    0.10672
     116.80     4.2276    0.10120
     116.80     4.2303    0.10465
     116.80     4.23170.82585E-01
     116.80     4.2344    0.11155
     116.80     4.23640.97072E-01
     116.80     4.23780.92936E-01
     116.80     4.23980.97076E-01
     116.80     4.24180.96388E-01
     116.80     4.24590.99841E-01
     116.80     4.2472    0.10191
     116.80     4.24930.97086E-01
     116.80     4.25130.99847E-01
     116.80     4.25400.96402E-01
     116.80     4.25600.83301E-01
     116.80     4.2567    0.10399
     116.80     4.2594    0.10744
     116.80     4.2614    0.10400
     116.80     4.2641    0.10193
     116.80     4.2655    0.10814
     116.80     4.26750.88831E-01
     116.80     4.26890.92280E-01
     116.80     4.27160.95731E-01
     116.80     4.2729    0.10194
     116.80     4.27560.97805E-01
     116.80     4.27760.96428E-01
     116.80     4.27900.92291E-01
     116.80     4.28100.85397E-01
     116.80     4.2851    0.10471
     116.80     4.2871    0.10058
     116.80     4.28910.96440E-01
     116.80     4.2905    0.10541
     116.80     4.29390.77136E-01
     116.80     4.29450.95756E-01
     116.80     4.29730.77139E-01
     116.80     4.29860.84727E-01
     116.80     4.30060.86108E-01
     116.80     4.3026    0.10197
     116.80     4.30470.95767E-01
     116.80     4.30740.95770E-01
     116.80     4.30810.88185E-01
     116.80     4.30870.94393E-01
     116.80     4.30940.84739E-01
     116.80     4.31210.94396E-01
     116.80     4.31350.97156E-01
     116.80     4.31550.84056E-01
     116.80     4.31750.85437E-01
     116.80     4.31960.90267E-01
     116.80     4.32090.96475E-01
     116.80     4.32360.90961E-01
     116.80     4.32700.79930E-01
     116.80     4.32900.90967E-01
     116.80     4.33110.85452E-01
     116.80     4.33370.90972E-01
     116.80     4.33510.97180E-01
     116.80     4.33780.84770E-01
     116.80     4.33920.96495E-01
     116.80     4.34190.87532E-01
     116.80     4.34390.85466E-01
     116.80     4.34520.92364E-01
     116.80     4.34660.86848E-01
     116.80     4.34930.90299E-01
     116.80     4.35130.93060E-01
     116.80     4.35270.99268E-01
     116.80     4.35470.85478E-01
     116.80     4.35670.91687E-01
     116.80     4.35810.96515E-01
     116.80     4.36080.89622E-01
     116.80     4.36280.97900E-01
     116.80     4.36480.83420E-01
     116.80     4.36750.88940E-01
     116.80     4.36890.92389E-01
     116.80     4.37230.89635E-01
     116.80     4.37290.95842E-01
     116.80     4.37430.81361E-01
     116.80     4.37570.82742E-01
     116.80     4.37770.84123E-01
     116.80     4.37970.95160E-01
     116.80     4.38110.86196E-01
     116.80     4.38380.85509E-01
     116.80     4.39120.80000E-01
     116.80     4.39590.86902E-01
     116.80     4.39930.84147E-01
     116.80     4.40340.85531E-01
     116.80     4.40810.92432E-01
     116.80     4.41220.81403E-01
     116.80     4.41490.85543E-01
     116.80     4.41960.86928E-01
     116.80     4.42370.76588E-01
     116.80     4.42700.88315E-01
     116.80     4.43040.82112E-01
     116.80     4.43510.84186E-01
     116.80     4.44050.87640E-01
     116.80     4.44330.84885E-01
     116.80     4.44730.78682E-01
     116.80     4.45000.79375E-01
     116.80     4.45340.72482E-01
     116.80     4.45750.66970E-01
     116.80     4.46360.62839E-01
     116.80     4.46760.60774E-01
     116.80     4.47230.71813E-01
     116.80     4.47570.71817E-01
     116.80     4.48110.78719E-01
     116.80     4.48310.80791E-01
     116.80     4.48790.73210E-01
     116.80     4.49260.71836E-01
     116.80     4.49730.78737E-01
     116.80     4.50070.67017E-01
     116.80     4.50480.67021E-01
     116.80     4.50610.68402E-01
     116.80     4.50880.58061E-01
     116.80     4.51360.62893E-01
     116.80     4.51690.64966E-01
     116.80     4.51970.56693E-01
     116.80     4.52370.57387E-01
     116.80     4.52780.56702E-01
     116.80     4.53180.56017E-01
     116.80     4.53590.71883E-01
     116.80     4.53990.65681E-01
     116.80     4.54060.83612E-01
     116.80     4.54330.69822E-01
     116.80     4.54460.85685E-01
     116.80     4.54670.77412E-01
     116.80     4.55000.86381E-01
     116.80     4.55480.71214E-01
     116.80     4.55680.71216E-01
     116.80     4.55820.82941E-01
     116.80     4.56220.71912E-01
     116.80     4.56630.56744E-01
     116.80     4.57030.67783E-01
     116.80     4.57370.76062E-01
     116.80     4.57780.86411E-01
     116.80     4.58320.87796E-01
     116.80     4.58790.85043E-01
     116.80     4.59190.97461E-01
     116.80     4.59600.96775E-01
     116.80     4.60010.93332E-01
     116.80     4.60410.95405E-01
     116.80     4.60750.96098E-01
     116.80     4.61020.84378E-01
     116.80     4.61290.94725E-01
     116.80     4.61700.95419E-01
     116.80     4.6196    0.10301
     116.80     4.62570.96808E-01
     116.80     4.62840.98190E-01
     116.80     4.63250.96126E-01
     116.80     4.63520.91301E-01
     116.80     4.63790.96132E-01
     116.80     4.64130.94066E-01
     116.80     4.64530.98898E-01
     116.80     4.64670.94762E-01
     116.80     4.65070.96835E-01
     116.80     4.65340.97528E-01
     116.80     4.65620.81669E-01
     116.80     4.65890.81672E-01
     116.80     4.66360.77540E-01
     116.80     4.66430.84437E-01
     116.80     4.66770.79613E-01
     116.80     4.67170.92031E-01
     116.80     4.67510.89966E-01
     116.80     4.67850.85142E-01
     116.80     4.68180.88594E-01
     116.80     4.68520.85839E-01
     116.80     4.68860.78946E-01
     116.80     4.69270.85847E-01
     116.80     4.69600.92747E-01
     116.80     4.70010.82407E-01
     116.80     4.70280.87237E-01
     116.80     4.70690.87242E-01
     116.80     4.71020.94831E-01
     116.80     4.71230.77593E-01
     116.80     4.71570.81045E-01
     116.80     4.71900.90703E-01
     116.80     4.72170.72086E-01
     116.80     4.72580.84504E-01
     116.80     4.72850.74852E-01
     116.80     4.73260.76925E-01
     116.80     4.73660.81067E-01
     116.80     4.73930.88656E-01
     116.80     4.74270.80385E-01
     116.80     4.74670.80389E-01
     116.80     4.75080.70049E-01
     116.80     4.75350.72810E-01
     116.80     4.75620.76261E-01
     116.80     4.76030.76956E-01
     116.80     4.76500.67995E-01
     116.80     4.76700.69377E-01
     116.80     4.77110.65933E-01
     116.80     4.77380.57661E-01
     116.80     4.77790.48700E-01
     116.80     4.78060.36979E-01
     116.80     4.78460.58362E-01
     116.80     4.78930.93539E-01
     116.80     4.79340.92853E-01
     116.80     4.79610.86650E-01
     116.80     4.80080.87344E-01
     116.80     4.80490.94245E-01
     116.80     4.80760.83214E-01
     116.80     4.81160.89425E-01
     116.80     4.81570.85981E-01
     116.80     4.82240.84609E-01
     116.80     4.82580.92199E-01
     116.80     4.82920.83927E-01
     116.80     4.83330.80483E-01
     116.80     4.83660.83246E-01
     116.80     4.83930.81869E-01
     116.80     4.84340.86701E-01
     116.80     4.84610.77049E-01
     116.80     4.84880.75673E-01
     116.80     4.85420.74989E-01
     116.80     4.85690.75682E-01
     116.80     4.86160.91549E-01
     116.80     4.86440.79828E-01
     116.80     4.86910.70868E-01
     116.80     4.87180.74319E-01
     116.80     4.88130.71571E-01
     116.80     4.88600.62611E-01
     116.80     4.88940.65373E-01
     116.80     4.89340.67446E-01
     116.80     4.89680.61933E-01
     116.80     4.89950.71591E-01
     116.80     4.90220.66076E-01
     116.80     4.90630.64702E-01
     116.80     4.90900.60567E-01
     116.80     4.91300.61261E-01
     116.80     4.91640.52989E-01
     116.80     4.92050.46097E-01
     116.80     4.92390.50928E-01
     116.80     4.92660.48173E-01
     116.80     4.93060.44039E-01
     116.80     4.93400.55767E-01
     116.80     4.93800.71633E-01
     134.70     3.1820    0.11798
     134.70     3.1848    0.11873
     134.70     3.1854    0.12449
     134.70     3.1882    0.11732
     134.70     3.1902    0.12526
     134.70     3.1910    0.11663
     134.70     3.1929    0.12601
     134.70     3.1950    0.12387
     134.70     3.1951    0.11236
     134.70     3.19540.88621E-01
     134.70     3.1959    0.10661
     134.70     3.1966    0.10302
     134.70     3.19800.99440E-01
     134.70     3.1986    0.11240
     134.70     3.1993    0.10377
     134.70     3.2013    0.11027
     134.70     3.2020    0.11747
     134.70     3.2026    0.12179
     134.70     3.2041    0.11173
     134.70     3.2054    0.12110
     134.70     3.2061    0.11751
     134.70     3.2081    0.12760
     134.70     3.2101    0.12474
     134.70     3.2117    0.11109
     134.70     3.2129    0.12405
     134.70     3.2150    0.11616
     134.70     3.2157    0.12336
     134.70     3.2185    0.11476
     134.70     3.2246    0.11986
     134.70     3.2302    0.11848
     134.70     3.2336    0.11420
     134.70     3.2370    0.12071
     134.70     3.2391    0.12145
     134.70     3.2419    0.11068
     134.70     3.2440    0.11142
     134.70     3.2487    0.11939
     134.70     3.2529    0.11583
     134.70     3.2584    0.11085
     134.70     3.2632    0.11522
     134.70     3.2680    0.11095
     134.70     3.2729    0.11100
     134.70     3.2778    0.10242
     134.70     3.2826    0.10031
     134.70     3.2853    0.10394
     134.70     3.28600.98908E-01
     134.70     3.28750.93886E-01
     134.70     3.28960.88153E-01
     134.70     3.29020.91756E-01
     134.70     3.29230.88900E-01
     134.70     3.29450.78131E-01
     134.70     3.29610.58003E-01
     134.70     3.29770.29243E-01
     134.70     3.29830.37882E-01
     134.70     3.29910.25660E-01
     134.70     3.29970.41493E-01
     134.70     3.30040.32149E-01
     134.70     3.30080.65966E-01
     134.70     3.3017    0.11921
     134.70     3.30200.86841E-01
     134.70     3.3048    0.15018
     134.70     3.3049    0.13867
     134.70     3.3062    0.14804
     134.70     3.3075    0.15309
     134.70     3.3084    0.13943
     134.70     3.3104    0.14304
     134.70     3.3118    0.14018
     134.70     3.3126    0.13227
     134.70     3.3147    0.12222
     134.70     3.3160    0.12871
     134.70     3.3160    0.13303
     134.70     3.3166    0.14239
     134.70     3.3187    0.13234
     134.70     3.3194    0.13666
     134.70     3.3216    0.12373
     134.70     3.3229    0.13238
     134.70     3.3263    0.12882
     134.70     3.3284    0.12740
     134.70     3.3347    0.12027
     134.70     3.3394    0.12680
     134.70     3.3464    0.11392
     134.70     3.3505    0.11756
     134.70     3.3540    0.11759
     134.70     3.3608    0.11982
     134.70     3.3663    0.12276
     134.70     3.3698    0.11847
     134.70     3.3711    0.12065
     134.70     3.3739    0.11708
     134.70     3.3752    0.12285
     134.70     3.3767    0.11351
     134.70     3.3774    0.11064
     134.70     3.3782    0.10273
     134.70     3.3794    0.11426
     134.70     3.3807    0.13082
     134.70     3.3828    0.11717
     134.70     3.3829    0.10926
     134.70     3.3849    0.12223
     134.70     3.3850    0.11000
     134.70     3.3862    0.12584
     134.70     3.3863    0.11649
     134.70     3.3890    0.12371
     134.70     3.3891    0.11436
     134.70     3.3917    0.12374
     134.70     3.3918    0.11223
     134.70     3.39330.98574E-01
     134.70     3.39490.83481E-01
     134.70     3.39540.94279E-01
     134.70     3.39690.89977E-01
     134.70     3.3980    0.11157
     134.70     3.39820.94307E-01
     134.70     3.4007    0.12023
     134.70     3.4008    0.10872
     134.70     3.4008    0.11232
     134.70     3.40230.94350E-01
     134.70     3.4036    0.10803
     134.70     3.40570.97982E-01
     134.70     3.4063    0.10734
     134.70     3.4083    0.11743
     134.70     3.4090    0.11384
     134.70     3.4103    0.12824
     134.70     3.4125    0.11388
     134.70     3.4126    0.10237
     134.70     3.4180    0.10674
     134.70     3.42080.99576E-01
     134.70     3.4229    0.10248
     134.70     3.4255    0.11617
     134.70     3.4296    0.11765
     134.70     3.4346    0.10403
     134.70     3.4373    0.10334
     134.70     3.4421    0.10123
     134.70     3.4449    0.10126
     134.70     3.44570.88322E-01
     134.70     3.4490    0.10131
     134.70     3.4517    0.10781
     134.70     3.4565    0.10858
     134.70     3.45670.88435E-01
     134.70     3.45810.86291E-01
     134.70     3.45880.90614E-01
     134.70     3.46020.79119E-01
     134.70     3.46080.95671E-01
     134.70     3.46440.79161E-01
     134.70     3.46640.84218E-01
     134.70     3.46780.81355E-01
     134.70     3.46840.87836E-01
     134.70     3.47050.81383E-01
     134.70     3.47060.77786E-01
     134.70     3.47270.66298E-01
     134.70     3.47480.70635E-01
     134.70     3.47550.67045E-01
     134.70     3.47560.51219E-01
     134.70     3.47860.30386E-01
     134.70     3.48050.40478E-01
     134.70     3.48110.51276E-01
     134.70     3.48170.66390E-01
     134.70     3.48220.88697E-01
     134.70     3.48230.75029E-01
     134.70     3.48290.81510E-01
     134.70     3.4841    0.10311
     134.70     3.4846    0.12254
     134.70     3.4850    0.14772
     134.70     3.4865    0.13694
     134.70     3.4892    0.13913
     134.70     3.4892    0.14417
     134.70     3.4912    0.15282
     134.70     3.4920    0.13988
     134.70     3.4933    0.14205
     134.70     3.4941    0.13486
     134.70     3.4969    0.12698
     134.70     3.4991    0.11981
     134.70     3.4997    0.12269
     134.70     3.5017    0.12847
     134.70     3.5046    0.11627
     134.70     3.5080    0.11918
     134.70     3.5107    0.12280
     134.70     3.5122    0.10627
     134.70     3.5122    0.11059
     134.70     3.5156    0.11494
     134.70     3.5204    0.11283
     134.70     3.5224    0.12292
     134.70     3.5266    0.11290
     134.70     3.5274    0.10139
     134.70     3.5382    0.12237
     134.70     3.5384    0.10223
     134.70     3.53980.97924E-01
     134.70     3.5425    0.11018
     134.70     3.54270.90759E-01
     134.70     3.5445    0.11092
     134.70     3.5473    0.10592
     134.70     3.5487    0.10161
     134.70     3.55090.94441E-01
     134.70     3.55230.85822E-01
     134.70     3.55320.62810E-01
     134.70     3.55670.62126E-01
     134.70     3.55780.91634E-01
     134.70     3.5595    0.13194
     134.70     3.5602    0.12619
     134.70     3.5629    0.13269
     134.70     3.5630    0.11903
     134.70     3.5650    0.12480
     134.70     3.5666    0.10324
     134.70     3.5705    0.12630
     134.70     3.5727    0.11625
     134.70     3.5754    0.11915
     134.70     3.5762    0.10621
     134.70     3.5782    0.11846
     134.70     3.5822    0.12282
     134.70     3.5823    0.11491
     134.70     3.5851    0.11566
     134.70     3.5879    0.11065
     134.70     3.5912    0.11860
     134.70     3.5933    0.12293
     134.70     3.5933    0.11286
     134.70     3.5969    0.10499
     134.70     3.5989    0.10932
     134.70     3.6009    0.11726
     134.70     3.6016    0.10791
     134.70     3.6050    0.12090
     134.70     3.6091    0.11950
     134.70     3.6113    0.10657
     134.70     3.6126    0.11090
     134.70     3.6153    0.11381
     134.70     3.6181    0.11240
     134.70     3.6196    0.10018
     134.70     3.62240.97335E-01
     134.70     3.6235    0.12037
     134.70     3.6271    0.10242
     134.70     3.6298    0.11468
     134.70     3.6320    0.10175
     134.70     3.6340    0.10465
     134.70     3.6367    0.10612
     134.70     3.6394    0.11981
     134.70     3.64170.93217E-01
     134.70     3.6436    0.10259
     134.70     3.64580.96857E-01
     134.70     3.64930.91137E-01
     134.70     3.6505    0.11057
     134.70     3.6525    0.10916
     134.70     3.6546    0.10558
     134.70     3.6566    0.11064
     134.70     3.6594    0.11354
     134.70     3.6608    0.10852
     134.70     3.6629    0.10135
     134.70     3.6650    0.10065
     134.70     3.6663    0.10786
     134.70     3.6683    0.11364
     134.70     3.67130.89206E-01
     134.70     3.6718    0.10432
     134.70     3.6751    0.11730
     134.70     3.6773    0.10438
     134.70     3.6793    0.11519
     134.70     3.6820    0.11522
     134.70     3.6828    0.10443
     134.70     3.6841    0.11380
     134.70     3.6863    0.10375
     134.70     3.68640.93678E-01
     134.70     3.6896    0.11529
     134.70     3.6897    0.10954
     134.70     3.69190.94454E-01
     134.70     3.6939    0.10095
     134.70     3.6952    0.10312
     134.70     3.6973    0.10530
     134.70     3.7000    0.10389
     134.70     3.7021    0.10103
     134.70     3.70420.97459E-01
     134.70     3.7069    0.10108
     134.70     3.7089    0.10902
     134.70     3.7110    0.10400
     134.70     3.7131    0.10331
     134.70     3.71600.92544E-01
     134.70     3.71800.92565E-01
     134.70     3.71870.98327E-01
     134.70     3.72140.94039E-01
     134.70     3.72350.96938E-01
     134.70     3.72480.99110E-01
     134.70     3.72830.99865E-01
     134.70     3.72970.92685E-01
     134.70     3.73240.97749E-01
     134.70     3.7344    0.11000
     134.70     3.73720.97079E-01
     134.70     3.7386    0.10213
     134.70     3.74130.98560E-01
     134.70     3.7434    0.10146
     134.70     3.74350.92827E-01
     134.70     3.7461    0.10149
     134.70     3.75040.90740E-01
     134.70     3.75240.92200E-01
     134.70     3.7557    0.10303
     134.70     3.76200.91579E-01
     134.70     3.76340.98787E-01
     134.70     3.76480.93046E-01
     134.70     3.76830.88766E-01
     134.70     3.76890.99563E-01
     134.70     3.77170.93837E-01
     134.70     3.77380.84506E-01
     134.70     3.77510.93153E-01
     134.70     3.77870.73046E-01
     134.70     3.78150.68758E-01
     134.70     3.78160.63003E-01
     134.70     3.78360.65902E-01
     134.70     3.78400.92525E-01
     134.70     3.7858    0.12708
     134.70     3.7885    0.12638
     134.70     3.7907    0.11634
     134.70     3.7920    0.12138
     134.70     3.7933    0.13291
     134.70     3.7941    0.11853
     134.70     3.7956    0.10919
     134.70     3.7983    0.11138
     134.70     3.7983    0.10850
     134.70     3.8004    0.11212
     134.70     3.8018    0.10566
     134.70     3.8025    0.10998
     134.70     3.8045    0.10712
     134.70     3.80670.96356E-01
     134.70     3.80810.94931E-01
     134.70     3.80960.85594E-01
     134.70     3.81010.97830E-01
     134.70     3.81430.88521E-01
     134.70     3.81570.95729E-01
     134.70     3.82120.92908E-01
     134.70     3.82180.97950E-01
     134.70     3.82460.99417E-01
     134.70     3.8266    0.10232
     134.70     3.82950.90835E-01
     134.70     3.83010.95158E-01
     134.70     3.8321    0.10453
     134.70     3.8356    0.10097
     134.70     3.83700.95229E-01
     134.70     3.83900.98127E-01
     134.70     3.8396    0.10605
     134.70     3.8431    0.10680
     134.70     3.84530.93156E-01
     134.70     3.8472    0.10684
     134.70     3.84870.97507E-01
     134.70     3.8507    0.10041
     134.70     3.85280.98269E-01
     134.70     3.85550.98297E-01
     134.70     3.8568    0.10766
     134.70     3.86100.98354E-01
     134.70     3.8644    0.10343
     134.70     3.86650.99130E-01
     134.70     3.87000.92691E-01
     134.70     3.87200.97748E-01
     134.70     3.8740    0.11000
     134.70     3.87620.91316E-01
     134.70     3.87900.87748E-01
     134.70     3.88100.92805E-01
     134.70     3.88170.97847E-01
     134.70     3.88370.99307E-01
     134.70     3.8864    0.10221
     134.70     3.88860.91444E-01
     134.70     3.89210.82127E-01
     134.70     3.8961    0.10303
     134.70     3.89960.87960E-01
     134.70     3.9016    0.10021
     134.70     3.90440.95203E-01
     134.70     3.90650.92347E-01
     134.70     3.90780.98836E-01
     134.70     3.90990.97418E-01
     134.70     3.91330.95295E-01
     134.70     3.9140    0.10034
     134.70     3.9167    0.10109
     134.70     3.91960.87446E-01
     134.70     3.92020.98244E-01
     134.70     3.92220.96826E-01
     134.70     4.20120.84931E-01
     134.70     4.20330.82151E-01
     134.70     4.20600.81454E-01
     134.70     4.20730.85619E-01
     134.70     4.21000.79366E-01
     134.70     4.21200.81447E-01
     134.70     4.21470.77972E-01
     134.70     4.21680.80053E-01
     134.70     4.21880.84218E-01
     134.70     4.21950.80745E-01
     134.70     4.22420.70324E-01
     134.70     4.22620.75877E-01
     134.70     4.22830.77263E-01
     134.70     4.22890.74485E-01
     134.70     4.23160.76565E-01
     134.70     4.23500.80034E-01
     134.70     4.23640.83504E-01
     134.70     4.23770.80725E-01
     134.70     4.24040.80028E-01
     134.70     4.24310.77942E-01
     134.70     4.24580.84188E-01
     134.70     4.24790.76548E-01
     134.70     4.24920.80018E-01
     134.70     4.25060.85572E-01
     134.70     4.25260.84876E-01
     134.70     4.25530.76540E-01
     134.70     4.25800.75842E-01
     134.70     4.25870.61954E-01
     134.70     4.26070.70284E-01
     134.70     4.26340.69587E-01
     134.70     4.26480.66113E-01
     134.70     4.26610.63334E-01
     134.70     4.26680.67500E-01
     134.70     4.26680.95971E-01
     134.70     4.26880.93885E-01
     134.70     4.26950.79302E-01
     134.70     4.27080.73051E-01
     134.70     4.27290.66799E-01
     134.70     4.27420.72353E-01
     134.70     4.27560.70963E-01
     134.70     4.27760.70266E-01
     134.70     4.27900.75820E-01
     134.70     4.28030.70263E-01
     134.70     4.28370.78592E-01
     134.70     4.28500.77202E-01
     134.70     4.28710.86922E-01
     134.70     4.28840.75115E-01
     134.70     4.29040.70947E-01
     134.70     4.29250.77888E-01
     134.70     4.29520.89690E-01
     134.70     4.29720.79967E-01
     134.70     4.29860.75799E-01
     134.70     4.30130.70935E-01
     134.70     4.30330.82043E-01
     134.70     4.30460.63293E-01
     134.70     4.30530.48015E-01
     134.70     4.30800.70928E-01
     134.70     4.31140.70229E-01
     134.70     4.31340.73699E-01
     134.70     4.31750.71612E-01
     134.70     4.31820.63278E-01
     134.70     4.32090.68830E-01
     134.70     4.32220.71607E-01
     134.70     4.32360.75772E-01
     134.70     4.32490.62576E-01
     134.70     4.32700.72990E-01
     134.70     4.32900.68822E-01
     134.70     4.33100.66042E-01
     134.70     4.33370.89649E-01
     134.70     4.33570.72981E-01
     134.70     4.33710.65341E-01
     134.70     4.33980.68116E-01
     134.70     4.34180.68113E-01
     134.70     4.34380.68806E-01
     134.70     4.34590.70887E-01
     134.70     4.34720.76440E-01
     134.70     4.34930.75049E-01
     134.70     4.35060.73659E-01
     134.70     4.35060.62549E-01
     134.70     4.35260.78518E-01
     134.70     4.35530.78515E-01
     134.70     4.35740.77124E-01
     134.70     4.35800.68096E-01
     134.70     4.36140.61843E-01
     134.70     4.36280.65313E-01
     134.70     4.36480.63228E-01
     134.70     4.36750.64614E-01
     134.70     4.36890.68084E-01
     134.70     4.37090.66693E-01
     134.70     4.37220.72941E-01
     134.70     4.37560.70855E-01
     134.70     4.37770.80574E-01
     134.70     4.37900.61824E-01
     134.70     4.38100.74321E-01
     134.70     4.38370.64596E-01
     134.70     4.39120.77782E-01
     134.70     4.39590.77777E-01
     134.70     4.40000.69439E-01
     134.70     4.40270.73603E-01
     134.70     4.40740.69431E-01
     134.70     4.41210.65954E-01
     134.70     4.41620.74283E-01
     134.70     4.41960.65252E-01
     134.70     4.42290.71498E-01
     134.70     4.42770.71493E-01
     134.70     4.43040.62462E-01
     134.70     4.43510.70096E-01
     134.70     4.43980.63841E-01
     134.70     4.44320.70782E-01
     134.70     4.44590.65918E-01
     134.70     4.45070.70079E-01
     134.70     4.45330.62438E-01
     134.70     4.45740.65905E-01
     134.70     4.47230.65195E-01
     134.70     4.47430.63804E-01
     134.70     4.47560.56164E-01
     134.70     4.48040.69353E-01
     134.70     4.48380.75599E-01
     134.70     4.48850.79760E-01
     134.70     4.49120.75591E-01
     134.70     4.49660.74196E-01
     134.70     4.49660.67946E-01
     134.70     4.50070.70719E-01
     134.70     4.50470.67243E-01
     134.70     4.50880.71405E-01
     134.70     4.51280.64457E-01
     134.70     4.51550.72092E-01
     134.70     4.51960.67921E-01
     134.70     4.52370.71389E-01
     134.70     4.52700.61664E-01
     134.70     4.53110.63743E-01
     134.70     4.53510.67905E-01
     134.70     4.53920.70678E-01
     134.70     4.53920.61651E-01
     134.70     4.54260.63730E-01
     134.70     4.54390.50535E-01
     134.70     4.54730.60947E-01
     134.70     4.54930.41502E-01
     134.70     4.55000.45667E-01
     134.70     4.55200.47054E-01
     134.70     4.55340.33859E-01
     134.70     4.55470.41496E-01
     134.70     4.55740.35243E-01
     134.70     4.56220.33155E-01
     134.70     4.57030.44257E-01
     134.70     4.57440.65779E-01
     134.70     4.57840.73413E-01
     134.70     4.58180.76187E-01
     134.70     4.58250.74103E-01
     134.70     4.58720.78959E-01
     134.70     4.59130.78955E-01
     134.70     4.59530.72006E-01
     134.70     4.59940.80335E-01
     134.70     4.60340.74081E-01
     134.70     4.61020.78934E-01
     134.70     4.61290.60877E-01
     134.70     4.61490.55319E-01
     134.70     4.61830.44205E-01
     134.70     4.62160.45590E-01
     134.70     4.62500.49753E-01
     134.70     4.62770.53222E-01
     134.70     4.63180.58773E-01
     134.70     4.63380.64326E-01
     134.70     4.63520.62936E-01
     134.70     4.63790.67099E-01
     134.70     4.64060.72652E-01
     134.70     4.64330.68482E-01
     134.70     4.64670.68479E-01
     134.70     4.64870.61532E-01
     134.70     4.65140.57363E-01
     134.70     4.65480.51804E-01
     134.70     4.65820.43467E-01
     134.70     4.66360.58739E-01
     134.70     4.66760.68456E-01
     134.70     4.67100.63591E-01
     134.70     4.67440.72615E-01
     134.70     4.67780.80250E-01
     134.70     4.68180.71913E-01
     134.70     4.68390.62189E-01
     134.70     4.68720.68435E-01
     134.70     4.69130.76069E-01
     134.70     4.69540.74676E-01
     134.70     4.69940.82310E-01
     134.70     4.70210.80918E-01
     134.70     4.70480.76054E-01
     134.70     4.70890.71189E-01
     134.70     4.71160.77436E-01
     134.70     4.71500.90626E-01
     134.70     4.71770.85068E-01
     134.70     4.72100.52427E-01
     134.70     4.72440.60756E-01
     134.70     4.72850.73251E-01
     134.70     4.73190.64914E-01
     134.70     4.73590.72549E-01
     134.70     4.73930.62823E-01
     134.70     4.74270.73930E-01
     134.70     4.74610.72538E-01
     134.70     4.74940.69062E-01
     134.70     4.75280.51698E-01
     134.70     4.75550.47529E-01
     134.70     4.75950.38497E-01
     134.70     4.76360.42659E-01
     134.70     4.76560.47518E-01
     134.70     4.77110.59317E-01
     134.70     4.77380.64869E-01
     134.70     4.77710.67643E-01
     134.70     4.78120.65556E-01
     134.70     4.78530.74579E-01
     134.70     4.79000.82906E-01
     134.70     4.79270.55127E-01
     134.70     4.79610.58595E-01
     134.70     4.79940.55814E-01
     134.70     4.80350.66226E-01
     134.70     4.81030.71774E-01
     134.70     4.81430.73853E-01
     134.70     4.82240.69678E-01
     134.70     4.82510.59953E-01
     134.70     4.82850.60644E-01
     134.70     4.83190.60640E-01
     134.70     4.83600.68274E-01
     134.70     4.83930.61326E-01
     134.70     4.84270.61323E-01
     134.70     4.84680.64096E-01
     134.70     4.85350.69644E-01
     134.70     4.85690.59919E-01
     134.70     4.86100.64775E-01
     134.70     4.86370.59911E-01
     134.70     4.86770.66157E-01
     134.70     4.87110.59209E-01
     134.70     4.88190.52947E-01
     134.70     4.88530.59888E-01
     134.70     4.88930.53634E-01
     134.70     4.89340.61962E-01
     134.70     4.89540.52933E-01
     134.70     4.89810.56402E-01
     134.70     4.90080.50844E-01
     134.70     4.90490.46673E-01
     134.70     4.90830.48058E-01
     134.70     4.91230.50137E-01
     134.70     4.91570.56383E-01
     134.70     4.91910.42491E-01
     134.70     4.92310.48042E-01
     134.70     4.92650.40400E-01
     134.70     4.92990.44563E-01
     134.70     4.93330.47337E-01
     134.70     4.93660.37611E-01
     134.70     4.94070.48023E-01
     145.00     3.1827    0.10880
     145.00     3.1853    0.11598
     145.00     3.1868    0.10599
     145.00     3.1895    0.11602
     145.00     3.1916    0.11247
     145.00     3.1923    0.10605
     145.00     3.1936    0.11463
     145.00     3.1943    0.10893
     145.00     3.19580.95370E-01
     145.00     3.19660.88235E-01
     145.00     3.19740.74672E-01
     145.00     3.19930.90406E-01
     145.00     3.19930.95406E-01
     145.00     3.2012    0.11043
     145.00     3.2039    0.11688
     145.00     3.2054    0.10404
     145.00     3.2065    0.12763
     145.00     3.2095    0.10694
     145.00     3.2122    0.10697
     145.00     3.2157    0.10843
     145.00     3.2164    0.10273
     145.00     3.2191    0.10561
     145.00     3.2239    0.11495
     145.00     3.2301    0.11144
     145.00     3.2349    0.11078
     145.00     3.2390    0.10796
     145.00     3.2432    0.10301
     145.00     3.2453    0.10446
     145.00     3.2487    0.10592
     145.00     3.25500.89557E-01
     145.00     3.2569    0.10601
     145.00     3.2590    0.10817
     145.00     3.26320.96071E-01
     145.00     3.26460.98228E-01
     145.00     3.26870.96128E-01
     145.00     3.27350.98321E-01
     145.00     3.27840.94086E-01
     145.00     3.28260.86272E-01
     145.00     3.28460.92008E-01
     145.00     3.28750.77037E-01
     145.00     3.29020.79923E-01
     145.00     3.29160.74938E-01
     145.00     3.29310.69238E-01
     145.00     3.29600.52125E-01
     145.00     3.29820.33576E-01
     145.00     3.29970.22877E-01
     145.00     3.30020.40026E-01
     145.00     3.30030.30027E-01
     145.00     3.3015    0.12290
     145.00     3.3019    0.14648
     145.00     3.3038    0.16650
     145.00     3.3066    0.16510
     145.00     3.3066    0.16224
     145.00     3.3087    0.15440
     145.00     3.3088    0.14940
     145.00     3.3095    0.14298
     145.00     3.3109    0.14800
     145.00     3.3123    0.14301
     145.00     3.3138    0.13374
     145.00     3.3166    0.12806
     145.00     3.3172    0.13449
     145.00     3.3206    0.13453
     145.00     3.3220    0.13240
     145.00     3.3248    0.13171
     145.00     3.3269    0.12602
     145.00     3.3297    0.11676
     145.00     3.3352    0.11896
     145.00     3.3407    0.11759
     145.00     3.3477    0.10909
     145.00     3.3518    0.10771
     145.00     3.3559    0.11704
     145.00     3.3621    0.11139
     145.00     3.3669    0.11144
     145.00     3.3718    0.10649
     145.00     3.3751    0.11652
     145.00     3.3765    0.11225
     145.00     3.3766    0.10439
     145.00     3.3794    0.10299
     145.00     3.38010.98002E-01
     145.00     3.3807    0.10801
     145.00     3.3813    0.11373
     145.00     3.3834    0.11232
     145.00     3.3835    0.10447
     145.00     3.3855    0.10592
     145.00     3.38630.97352E-01
     145.00     3.3870    0.10022
     145.00     3.3874    0.12308
     145.00     3.3896    0.10810
     145.00     3.3917    0.10384
     145.00     3.3924    0.10670
     145.00     3.39540.81018E-01
     145.00     3.39620.71740E-01
     145.00     3.39820.78904E-01
     145.00     3.39880.88910E-01
     145.00     3.39940.94631E-01
     145.00     3.40220.92517E-01
     145.00     3.4034    0.10324
     145.00     3.4040    0.11611
     145.00     3.4047    0.11326
     145.00     3.4061    0.10970
     145.00     3.40760.98288E-01
     145.00     3.40900.93303E-01
     145.00     3.4090    0.10116
     145.00     3.4110    0.10618
     145.00     3.4117    0.10047
     145.00     3.41240.97624E-01
     145.00     3.41460.89075E-01
     145.00     3.41800.94824E-01
     145.00     3.42140.97717E-01
     145.00     3.4248    0.10275
     145.00     3.42690.96346E-01
     145.00     3.43040.92810E-01
     145.00     3.43450.94996E-01
     145.00     3.4378    0.10075
     145.00     3.44270.94368E-01
     145.00     3.44610.96546E-01
     145.00     3.44690.87982E-01
     145.00     3.45310.90189E-01
     145.00     3.45650.88083E-01
     145.00     3.45800.74526E-01
     145.00     3.46000.81690E-01
     145.00     3.46080.75269E-01
     145.00     3.46290.73862E-01
     145.00     3.46490.76026E-01
     145.00     3.46830.77491E-01
     145.00     3.47120.69663E-01
     145.00     3.47460.63985E-01
     145.00     3.47610.56857E-01
     145.00     3.47690.49721E-01
     145.00     3.47840.35451E-01
     145.00     3.47980.24038E-01
     145.00     3.48050.29759E-01
     145.00     3.48160.51914E-01
     145.00     3.48210.71920E-01
     145.00     3.48260.94068E-01
     145.00     3.48270.88354E-01
     145.00     3.4832    0.10693
     145.00     3.4838    0.11265
     145.00     3.4856    0.14481
     145.00     3.4869    0.14769
     145.00     3.4883    0.14341
     145.00     3.4896    0.15200
     145.00     3.4911    0.14344
     145.00     3.4911    0.13916
     145.00     3.4932    0.13347
     145.00     3.4939    0.14062
     145.00     3.4953    0.13563
     145.00     3.4961    0.11921
     145.00     3.4974    0.12779
     145.00     3.4996    0.11567
     145.00     3.5023    0.11570
     145.00     3.5044    0.11144
     145.00     3.5044    0.11430
     145.00     3.5066    0.10289
     145.00     3.5072    0.11504
     145.00     3.5085    0.11720
     145.00     3.5106    0.11222
     145.00     3.5120    0.11795
     145.00     3.5127    0.10653
     145.00     3.5135    0.10082
     145.00     3.5169    0.10657
     145.00     3.5189    0.10873
     145.00     3.5224    0.10305
     145.00     3.5252    0.10237
     145.00     3.5279    0.10240
     145.00     3.5389    0.10251
     145.00     3.54100.99676E-01
     145.00     3.54390.87563E-01
     145.00     3.54450.97569E-01
     145.00     3.54650.96162E-01
     145.00     3.54970.56908E-01
     145.00     3.55080.86920E-01
     145.00     3.55290.78371E-01
     145.00     3.55350.83378E-01
     145.00     3.55640.71978E-01
     145.00     3.55780.66279E-01
     145.00     3.5595    0.10773
     145.00     3.5608    0.11560
     145.00     3.5614    0.12203
     145.00     3.5648    0.12350
     145.00     3.5656    0.11779
     145.00     3.5683    0.11996
     145.00     3.5739    0.11359
     145.00     3.5760    0.10933
     145.00     3.5786    0.11864
     145.00     3.5794    0.10793
     145.00     3.5823    0.10082
     145.00     3.5836    0.10655
     145.00     3.58370.93692E-01
     145.00     3.5863    0.11158
     145.00     3.5898    0.10733
     145.00     3.5933    0.10022
     145.00     3.5967    0.10097
     145.00     3.59750.93835E-01
     145.00     3.5980    0.10456
     145.00     3.59950.99570E-01
     145.00     3.6028    0.10603
     145.00     3.6043    0.10176
     145.00     3.6070    0.10465
     145.00     3.61050.98256E-01
     145.00     3.6125    0.10113
     145.00     3.6138    0.10758
     145.00     3.6159    0.10117
     145.00     3.61810.96906E-01
     145.00     3.62080.93364E-01
     145.00     3.6221    0.10052
     145.00     3.62420.96256E-01
     145.00     3.62700.96999E-01
     145.00     3.6283    0.10701
     145.00     3.62980.85600E-01
     145.00     3.63380.99928E-01
     145.00     3.63660.95671E-01
     145.00     3.63870.93550E-01
     145.00     3.6400    0.10642
     145.00     3.6414    0.10001
     145.00     3.6441    0.10146
     145.00     3.6461    0.10791
     145.00     3.6489    0.10508
     145.00     3.65100.98678E-01
     145.00     3.65310.95843E-01
     145.00     3.6545    0.10157
     145.00     3.6579    0.10375
     145.00     3.65930.98764E-01
     145.00     3.66070.93065E-01
     145.00     3.6627    0.10094
     145.00     3.66410.95243E-01
     145.00     3.6668    0.10027
     145.00     3.66970.87444E-01
     145.00     3.67170.97464E-01
     145.00     3.67440.98922E-01
     145.00     3.67520.88929E-01
     145.00     3.6764    0.10394
     145.00     3.67930.91115E-01
     145.00     3.68140.89708E-01
     145.00     3.6826    0.10401
     145.00     3.68480.89744E-01
     145.00     3.6860    0.10619
     145.00     3.68750.96915E-01
     145.00     3.6888    0.10693
     145.00     3.6908    0.10838
     145.00     3.69240.92679E-01
     145.00     3.69440.91272E-01
     145.00     3.69510.97708E-01
     145.00     3.69780.94879E-01
     145.00     3.70060.96336E-01
     145.00     3.70060.93480E-01
     145.00     3.70270.92073E-01
     145.00     3.7047    0.10138
     145.00     3.70740.98551E-01
     145.00     3.70950.94287E-01
     145.00     3.71230.92887E-01
     145.00     3.71360.99329E-01
     145.00     3.71570.95780E-01
     145.00     3.71850.90809E-01
     145.00     3.72050.93687E-01
     145.00     3.72460.95873E-01
     145.00     3.72670.96608E-01
     145.00     3.7287    0.10163
     145.00     3.73010.95930E-01
     145.00     3.73300.88816E-01
     145.00     3.73500.95980E-01
     145.00     3.73700.95287E-01
     145.00     3.74050.93180E-01
     145.00     3.74060.85324E-01
     145.00     3.7438    0.10250
     145.00     3.74530.92516E-01
     145.00     3.74600.88238E-01
     145.00     3.74880.91123E-01
     145.00     3.75160.86867E-01
     145.00     3.75420.96895E-01
     145.00     3.7583    0.10122
     145.00     3.76450.94145E-01
     145.00     3.76600.91302E-01
     145.00     3.76800.94181E-01
     145.00     3.77080.90638E-01
     145.00     3.77350.89953E-01
     145.00     3.77700.87846E-01
     145.00     3.78200.70754E-01
     145.00     3.78410.59348E-01
     145.00     3.78540.70790E-01
     145.00     3.7877    0.11367
     145.00     3.7884    0.11939
     145.00     3.7917    0.13014
     145.00     3.7930    0.13373
     145.00     3.7951    0.13161
     145.00     3.7965    0.13662
     145.00     3.7973    0.12234
     145.00     3.7987    0.11664
     145.00     3.8009    0.10809
     145.00     3.80230.97395E-01
     145.00     3.80380.91696E-01
     145.00     3.80520.85996E-01
     145.00     3.80800.78883E-01
     145.00     3.81010.73190E-01
     145.00     3.81080.78911E-01
     145.00     3.81090.69626E-01
     145.00     3.81350.77511E-01
     145.00     3.81700.75404E-01
     145.00     3.81970.79004E-01
     145.00     3.82040.81868E-01
     145.00     3.82590.81926E-01
     145.00     3.82730.73369E-01
     145.00     3.83340.83433E-01
     145.00     3.83550.77740E-01
     145.00     3.83690.82040E-01
     145.00     3.84160.85661E-01
     145.00     3.84570.91418E-01
     145.00     3.84850.90732E-01
     145.00     3.84980.94318E-01
     145.00     3.85190.92911E-01
     145.00     3.85400.86504E-01
     145.00     3.85600.94382E-01
     145.00     3.85810.89404E-01
     145.00     3.86090.85147E-01
     145.00     3.86490.97332E-01
     145.00     3.86700.93068E-01
     145.00     3.86980.94525E-01
     145.00     3.86980.85240E-01
     145.00     3.87330.86705E-01
     145.00     3.87530.86012E-01
     145.00     3.87670.91026E-01
     145.00     3.87940.91769E-01
     145.00     3.88150.86791E-01
     145.00     3.88500.86826E-01
     145.00     3.88770.91140E-01
     145.00     3.89110.89033E-01
     145.00     3.89320.91198E-01
     145.00     3.89590.91940E-01
     145.00     3.90010.84841E-01
     145.00     3.90280.86298E-01
     145.00     3.90410.95597E-01
     145.00     3.90760.94919E-01
     145.00     3.90890.97790E-01
     145.00     3.91100.92098E-01
     145.00     3.91380.87841E-01
     145.00     3.91520.84998E-01
     145.00     3.91720.93591E-01
     145.00     3.91930.91469E-01
     145.00     3.92140.90777E-01
     145.00     4.20070.82726E-01
     145.00     4.20210.65242E-01
     145.00     4.20550.72231E-01
     145.00     4.20680.60341E-01
     145.00     4.20950.77121E-01
     145.00     4.21220.81313E-01
     145.00     4.21490.71520E-01
     145.00     4.21560.77813E-01
     145.00     4.21700.63825E-01
     145.00     4.21970.64521E-01
     145.00     4.22170.76407E-01
     145.00     4.22370.70810E-01
     145.00     4.22580.79199E-01
     145.00     4.22710.75001E-01
     145.00     4.22920.72202E-01
     145.00     4.23120.76395E-01
     145.00     4.23390.69398E-01
     145.00     4.23460.67999E-01
     145.00     4.23590.66599E-01
     145.00     4.23730.63800E-01
     145.00     4.23870.77085E-01
     145.00     4.24140.77781E-01
     145.00     4.24270.61695E-01
     145.00     4.24610.77775E-01
     145.00     4.24740.66584E-01
     145.00     4.24880.72177E-01
     145.00     4.25080.71475E-01
     145.00     4.25560.66574E-01
     145.00     4.25760.69369E-01
     145.00     4.25960.55381E-01
     145.00     4.26100.51183E-01
     145.00     4.26300.51880E-01
     145.00     4.26440.57473E-01
     145.00     4.26640.55372E-01
     145.00     4.26840.67957E-01
     145.00     4.27050.74948E-01
     145.00     4.27320.70748E-01
     145.00     4.27450.62355E-01
     145.00     4.27860.69343E-01
     145.00     4.28060.66543E-01
     145.00     4.28270.65842E-01
     145.00     4.28400.63742E-01
     145.00     4.28610.74928E-01
     145.00     4.28740.64437E-01
     145.00     4.29010.72126E-01
     145.00     4.29220.79117E-01
     145.00     4.29420.63729E-01
     145.00     4.29620.80510E-01
     145.00     4.29820.67221E-01
     145.00     4.30030.72114E-01
     145.00     4.30300.72110E-01
     145.00     4.30370.62319E-01
     145.00     4.30570.36442E-01
     145.00     4.30700.44832E-01
     145.00     4.30770.42034E-01
     145.00     4.30910.51823E-01
     145.00     4.31180.63008E-01
     145.00     4.31450.61606E-01
     145.00     4.31920.69293E-01
     145.00     4.31920.65796E-01
     145.00     4.32130.64395E-01
     145.00     4.32190.66492E-01
     145.00     4.32530.70684E-01
     145.00     4.32670.62990E-01
     145.00     4.32870.68582E-01
     145.00     4.33210.66480E-01
     145.00     4.33350.61583E-01
     145.00     4.33550.63678E-01
     145.00     4.33750.74165E-01
     145.00     4.33960.69967E-01
     145.00     4.34160.68566E-01
     145.00     4.34570.76952E-01
     145.00     4.34700.64363E-01
     145.00     4.34900.58067E-01
     145.00     4.34970.67157E-01
     145.00     4.35310.72048E-01
     145.00     4.35310.65754E-01
     145.00     4.35510.65053E-01
     145.00     4.35720.65050E-01
     145.00     4.35850.70643E-01
     145.00     4.36060.65745E-01
     145.00     4.36260.71337E-01
     145.00     4.36460.60845E-01
     145.00     4.36730.62240E-01
     145.00     4.36870.70630E-01
     145.00     4.37070.62935E-01
     145.00     4.37270.62933E-01
     145.00     4.37550.70622E-01
     145.00     4.37680.65026E-01
     145.00     4.37950.65722E-01
     145.00     4.38090.68517E-01
     145.00     4.38290.67815E-01
     145.00     4.38360.69913E-01
     145.00     4.39040.69205E-01
     145.00     4.39650.74792E-01
     145.00     4.39920.71292E-01
     145.00     4.40190.64995E-01
     145.00     4.40660.59394E-01
     145.00     4.41130.68480E-01
     145.00     4.41880.66372E-01
     145.00     4.42350.65667E-01
     145.00     4.42760.65662E-01
     145.00     4.43100.62861E-01
     145.00     4.43570.63554E-01
     145.00     4.43980.67046E-01
     145.00     4.44250.61448E-01
     145.00     4.44720.58645E-01
     145.00     4.45060.63536E-01
     145.00     4.45400.58636E-01
     145.00     4.45810.51638E-01
     145.00     4.46280.44640E-01
     145.00     4.46690.53026E-01
     145.00     4.47230.60712E-01
     145.00     4.47570.69798E-01
     145.00     4.48180.73987E-01
     145.00     4.48380.73285E-01
     145.00     4.48790.78874E-01
     145.00     4.49260.76771E-01
     145.00     4.49740.73268E-01
     145.00     4.50080.72565E-01
     145.00     4.50480.75357E-01
     145.00     4.50890.70457E-01
     145.00     4.51360.79542E-01
     145.00     4.51630.87231E-01
     145.00     4.52040.92121E-01
     145.00     4.52380.91417E-01
     145.00     4.52790.90713E-01
     145.00     4.53190.73225E-01
     145.00     4.53670.71821E-01
     145.00     4.53870.63427E-01
     145.00     4.54000.55733E-01
     145.00     4.54270.50135E-01
     145.00     4.54410.45938E-01
     145.00     4.54750.49430E-01
     145.00     4.55010.28448E-01
     145.00     4.55020.34042E-01
     145.00     4.55220.29144E-01
     145.00     4.55490.21449E-01
     145.00     4.55560.27042E-01
     145.00     4.55760.22145E-01
     145.00     4.55890.24940E-01
     145.00     4.56230.22838E-01
     145.00     4.56710.27727E-01
     145.00     4.57120.43806E-01
     145.00     4.57320.52195E-01
     145.00     4.57800.64777E-01
     145.00     4.58200.64072E-01
     145.00     4.58810.67561E-01
     145.00     4.59150.64061E-01
     145.00     4.59560.64755E-01
     145.00     4.59960.68246E-01
     145.00     4.60370.61948E-01
     145.00     4.60780.64740E-01
     145.00     4.60910.61941E-01
     145.00     4.61320.52146E-01
     145.00     4.61590.37457E-01
     145.00     4.61920.33956E-01
     145.00     4.62260.23463E-01
     145.00     4.62530.46536E-01
     145.00     4.62740.36044E-01
     145.00     4.63150.56319E-01
     145.00     4.63420.54218E-01
     145.00     4.63750.55612E-01
     145.00     4.63960.56309E-01
     145.00     4.64300.53507E-01
     145.00     4.64630.54203E-01
     145.00     4.64970.57695E-01
     145.00     4.65240.47202E-01
     145.00     4.65650.43701E-01
     145.00     4.65920.42998E-01
     145.00     4.66330.39496E-01
     145.00     4.66400.66069E-01
     145.00     4.66800.62567E-01
     145.00     4.67080.72354E-01
     145.00     4.67480.66755E-01
     145.00     4.67820.64653E-01
     145.00     4.68160.73040E-01
     145.00     4.68500.68141E-01
     145.00     4.68840.70934E-01
     145.00     4.69170.66035E-01
     145.00     4.69650.70224E-01
     145.00     4.69920.77913E-01
     145.00     4.70260.67420E-01
     145.00     4.70600.76506E-01
     145.00     4.70870.68111E-01
     145.00     4.71210.84191E-01
     145.00     4.71480.72999E-01
     145.00     4.71750.75094E-01
     145.00     4.72220.71591E-01
     145.00     4.72560.63895E-01
     145.00     4.72830.72982E-01
     145.00     4.73240.63187E-01
     145.00     4.73640.59686E-01
     145.00     4.73910.65277E-01
     145.00     4.74190.66672E-01
     145.00     4.74390.65271E-01
     145.00     4.74520.63171E-01
     145.00     4.75000.54774E-01
     145.00     4.75200.48477E-01
     145.00     4.75540.42180E-01
     145.00     4.76010.33782E-01
     145.00     4.76420.42169E-01
     145.00     4.76690.49158E-01
     145.00     4.77170.70131E-01
     145.00     4.77510.79218E-01
     145.00     4.7785    0.10229
     145.00     4.7819    0.11208
     145.00     4.7853    0.10997
     145.00     4.78860.68712E-01
     145.00     4.79260.46329E-01
     145.00     4.79940.44223E-01
     145.00     4.80350.40022E-01
     145.00     4.80750.43514E-01
     145.00     4.81430.43505E-01
     145.00     4.82180.52587E-01
     145.00     4.82520.53282E-01
     145.00     4.82850.51879E-01
     145.00     4.83600.56066E-01
     145.00     4.83800.54665E-01
     145.00     4.84340.48364E-01
     145.00     4.84610.48361E-01
     145.00     4.85020.44160E-01
     145.00     4.85430.51148E-01
     145.00     4.86040.55336E-01
     145.00     4.86370.46241E-01
     145.00     4.86780.49033E-01
     145.00     4.87050.49030E-01
     145.00     4.87460.49025E-01
     145.00     4.87800.44126E-01
     145.00     4.88200.44121E-01
     145.00     4.88540.35725E-01
     145.00     4.88950.44111E-01
     145.00     4.89290.49002E-01
     145.00     4.89560.37810E-01
     145.00     4.89900.42701E-01
     145.00     4.90170.34306E-01
     145.00     4.90570.37098E-01
     145.00     4.90910.37094E-01
     145.00     4.91320.35690E-01
     145.00     4.91590.36386E-01
     145.00     4.92000.37780E-01
     145.00     4.92330.40573E-01
     145.00     4.92600.29381E-01
     145.00     4.93010.37767E-01
     145.00     4.93420.43357E-01
     145.00     4.93760.41255E-01
     145.00     4.94160.45445E-01
     162.50     3.1845    0.10126
     162.50     3.18660.95583E-01
     162.50     3.18870.94883E-01
     162.50     3.19070.97029E-01
     162.50     3.1928    0.10486
     162.50     3.1935    0.10060
     162.50     3.19420.94914E-01
     162.50     3.19690.94929E-01
     162.50     3.19760.91377E-01
     162.50     3.19770.83554E-01
     162.50     3.19840.78579E-01
     162.50     3.19920.66492E-01
     162.50     3.20110.86418E-01
     162.50     3.20180.92111E-01
     162.50     3.2031    0.10919
     162.50     3.2038    0.10137
     162.50     3.2058    0.10778
     162.50     3.2058    0.10280
     162.50     3.20720.97120E-01
     162.50     3.2079    0.10424
     162.50     3.20930.97132E-01
     162.50     3.2106    0.10710
     162.50     3.21140.97143E-01
     162.50     3.21340.99288E-01
     162.50     3.2162    0.10001
     162.50     3.2175    0.10500
     162.50     3.2216    0.10360
     162.50     3.2272    0.10079
     162.50     3.23200.95124E-01
     162.50     3.23680.97284E-01
     162.50     3.2409    0.10229
     162.50     3.24570.96623E-01
     162.50     3.2512    0.10021
     162.50     3.25680.90283E-01
     162.50     3.26090.85327E-01
     162.50     3.26570.94600E-01
     162.50     3.27190.86099E-01
     162.50     3.28020.83300E-01
     162.50     3.28580.69818E-01
     162.50     3.28710.76226E-01
     162.50     3.28920.66992E-01
     162.50     3.29120.71271E-01
     162.50     3.29200.57761E-01
     162.50     3.29470.60621E-01
     162.50     3.29750.49968E-01
     162.50     3.29760.41434E-01
     162.50     3.29970.28643E-01
     162.50     3.29970.22954E-01
     162.50     3.30180.20831E-01
     162.50     3.30240.44305E-01
     162.50     3.3033    0.13108
     162.50     3.30350.89831E-01
     162.50     3.3050    0.19297
     162.50     3.3071    0.20151
     162.50     3.3078    0.19370
     162.50     3.3085    0.18943
     162.50     3.3100    0.16668
     162.50     3.3107    0.15957
     162.50     3.3121    0.15602
     162.50     3.3122    0.14464
     162.50     3.3142    0.14679
     162.50     3.3149    0.15462
     162.50     3.3150    0.12617
     162.50     3.3170    0.13969
     162.50     3.3185    0.12619
     162.50     3.3198    0.13615
     162.50     3.3199    0.11979
     162.50     3.3205    0.12904
     162.50     3.3226    0.11981
     162.50     3.3240    0.12479
     162.50     3.3254    0.11342
     162.50     3.3260    0.12196
     162.50     3.3295    0.11060
     162.50     3.3330    0.10706
     162.50     3.3378    0.10496
     162.50     3.3426    0.11067
     162.50     3.3495    0.10075
     162.50     3.3557    0.10506
     162.50     3.35850.98671E-01
     162.50     3.3632    0.10510
     162.50     3.36950.95176E-01
     162.50     3.37500.91650E-01
     162.50     3.37770.96644E-01
     162.50     3.3798    0.10021
     162.50     3.37980.93810E-01
     162.50     3.38120.89551E-01
     162.50     3.3825    0.10307
     162.50     3.38320.95252E-01
     162.50     3.38670.93137E-01
     162.50     3.39010.88889E-01
     162.50     3.39020.86044E-01
     162.50     3.3915    0.10028
     162.50     3.3921    0.10384
     162.50     3.39350.96020E-01
     162.50     3.39360.87486E-01
     162.50     3.39560.93898E-01
     162.50     3.39560.91053E-01
     162.50     3.39710.70436E-01
     162.50     3.39720.61901E-01
     162.50     3.39860.57641E-01
     162.50     3.40130.56234E-01
     162.50     3.40130.67614E-01
     162.50     3.40190.81842E-01
     162.50     3.40250.95359E-01
     162.50     3.40390.90388E-01
     162.50     3.40450.99638E-01
     162.50     3.40590.97512E-01
     162.50     3.40730.95385E-01
     162.50     3.40870.91837E-01
     162.50     3.41010.86866E-01
     162.50     3.41140.95408E-01
     162.50     3.41290.77636E-01
     162.50     3.4135    0.10040
     162.50     3.4148    0.10325
     162.50     3.41560.94009E-01
     162.50     3.41760.89042E-01
     162.50     3.42180.82664E-01
     162.50     3.42380.89076E-01
     162.50     3.42730.89095E-01
     162.50     3.43000.96223E-01
     162.50     3.43350.86996E-01
     162.50     3.43690.84170E-01
     162.50     3.44100.94150E-01
     162.50     3.44650.88491E-01
     162.50     3.44930.74282E-01
     162.50     3.45000.86376E-01
     162.50     3.45270.79279E-01
     162.50     3.45550.81428E-01
     162.50     3.46030.74343E-01
     162.50     3.46110.69368E-01
     162.50     3.46310.75069E-01
     162.50     3.46380.68672E-01
     162.50     3.46450.61564E-01
     162.50     3.46590.71528E-01
     162.50     3.46730.66558E-01
     162.50     3.46870.55186E-01
     162.50     3.47000.58038E-01
     162.50     3.47280.62321E-01
     162.50     3.47350.55924E-01
     162.50     3.47630.54516E-01
     162.50     3.47770.48123E-01
     162.50     3.47910.42441E-01
     162.50     3.47910.33195E-01
     162.50     3.48120.29651E-01
     162.50     3.48320.33929E-01
     162.50     3.48330.23261E-01
     162.50     3.48430.99369E-01
     162.50     3.48510.73058E-01
     162.50     3.4862    0.12498
     162.50     3.4863    0.11218
     162.50     3.4875    0.13993
     162.50     3.4881    0.14775
     162.50     3.4888    0.15345
     162.50     3.4908    0.15915
     162.50     3.4915    0.15417
     162.50     3.4943    0.14423
     162.50     3.4986    0.12648
     162.50     3.4986    0.12221
     162.50     3.5007    0.11795
     162.50     3.5013    0.12222
     162.50     3.5034    0.11726
     162.50     3.5062    0.11087
     162.50     3.5076    0.11372
     162.50     3.5096    0.11018
     162.50     3.5103    0.10876
     162.50     3.5124    0.10308
     162.50     3.51450.99537E-01
     162.50     3.51660.90302E-01
     162.50     3.5172    0.10240
     162.50     3.51930.99563E-01
     162.50     3.52620.91067E-01
     162.50     3.5283    0.10104
     162.50     3.53180.88964E-01
     162.50     3.54280.87602E-01
     162.50     3.54550.85484E-01
     162.50     3.54690.75535E-01
     162.50     3.54820.92612E-01
     162.50     3.55040.74131E-01
     162.50     3.55170.84096E-01
     162.50     3.55380.76995E-01
     162.50     3.55520.69180E-01
     162.50     3.56000.69206E-01
     162.50     3.5626    0.10123
     162.50     3.5646    0.11760
     162.50     3.5646    0.12115
     162.50     3.5673    0.12117
     162.50     3.5680    0.11833
     162.50     3.5701    0.12047
     162.50     3.5715    0.11337
     162.50     3.5750    0.11054
     162.50     3.5770    0.10486
     162.50     3.5811    0.10915
     162.50     3.58390.99211E-01
     162.50     3.58540.93529E-01
     162.50     3.58740.99941E-01
     162.50     3.58750.86428E-01
     162.50     3.59010.97112E-01
     162.50     3.59290.90726E-01
     162.50     3.59630.98568E-01
     162.50     3.5991    0.10143
     162.50     3.59910.98584E-01
     162.50     3.6018    0.10002
     162.50     3.60320.97895E-01
     162.50     3.60530.97195E-01
     162.50     3.60670.93647E-01
     162.50     3.60740.90095E-01
     162.50     3.6094    0.10006
     162.50     3.61150.85850E-01
     162.50     3.6156    0.10081
     162.50     3.61760.99398E-01
     162.50     3.6190    0.10225
     162.50     3.62180.88041E-01
     162.50     3.6231    0.10298
     162.50     3.62520.90194E-01
     162.50     3.62800.97321E-01
     162.50     3.62870.90924E-01
     162.50     3.63210.88098E-01
     162.50     3.63280.98771E-01
     162.50     3.63480.93803E-01
     162.50     3.63700.84569E-01
     162.50     3.63970.83162E-01
     162.50     3.64170.90997E-01
     162.50     3.64440.98835E-01
     162.50     3.6458    0.10240
     162.50     3.64720.91027E-01
     162.50     3.65000.83930E-01
     162.50     3.65210.86075E-01
     162.50     3.65410.92488E-01
     162.50     3.6554    0.10459
     162.50     3.65820.90377E-01
     162.50     3.66100.79724E-01
     162.50     3.66240.88266E-01
     162.50     3.66440.92545E-01
     162.50     3.66650.87578E-01
     162.50     3.66860.89723E-01
     162.50     3.67060.83334E-01
     162.50     3.6726    0.10682
     162.50     3.67410.87620E-01
     162.50     3.67680.88346E-01
     162.50     3.67820.94044E-01
     162.50     3.68020.94055E-01
     162.50     3.68370.85540E-01
     162.50     3.68640.89822E-01
     162.50     3.68780.92675E-01
     162.50     3.68780.82718E-01
     162.50     3.68920.90549E-01
     162.50     3.69120.93405E-01
     162.50     3.69260.89145E-01
     162.50     3.69680.82767E-01
     162.50     3.69950.83494E-01
     162.50     3.70230.84932E-01
     162.50     3.70360.97741E-01
     162.50     3.70500.83524E-01
     162.50     3.70700.89937E-01
     162.50     3.70910.97060E-01
     162.50     3.71180.98498E-01
     162.50     3.7139    0.10135
     162.50     3.71530.96383E-01
     162.50     3.71800.93554E-01
     162.50     3.71950.80048E-01
     162.50     3.72220.80064E-01
     162.50     3.72350.92162E-01
     162.50     3.72560.85772E-01
     162.50     3.72700.83646E-01
     162.50     3.72900.91481E-01
     162.50     3.73120.80113E-01
     162.50     3.73390.79417E-01
     162.50     3.73660.91523E-01
     162.50     3.73870.84423E-01
     162.50     3.74070.93680E-01
     162.50     3.74410.93699E-01
     162.50     3.74420.88009E-01
     162.50     3.74760.88739E-01
     162.50     3.74830.86610E-01
     162.50     3.75040.84487E-01
     162.50     3.75240.88055E-01
     162.50     3.75520.83092E-01
     162.50     3.75860.86667E-01
     162.50     3.76070.84545E-01
     162.50     3.76480.94525E-01
     162.50     3.76820.95255E-01
     162.50     3.76820.86009E-01
     162.50     3.77030.95977E-01
     162.50     3.77100.86735E-01
     162.50     3.77440.87466E-01
     162.50     3.77650.90322E-01
     162.50     3.77790.84640E-01
     162.50     3.77920.89626E-01
     162.50     3.78130.86081E-01
     162.50     3.78200.91064E-01
     162.50     3.78410.69739E-01
     162.50     3.78620.74729E-01
     162.50     3.78760.69758E-01
     162.50     3.78890.78300E-01
     162.50     3.7920    0.14019
     162.50     3.7941    0.13878
     162.50     3.7948    0.14519
     162.50     3.7976    0.13525
     162.50     3.7983    0.13098
     162.50     3.7990    0.12459
     162.50     3.8010    0.13242
     162.50     3.8038    0.13030
     162.50     3.8046    0.10541
     162.50     3.80740.82670E-01
     162.50     3.80890.65609E-01
     162.50     3.80890.62053E-01
     162.50     3.81110.50685E-01
     162.50     3.81320.42873E-01
     162.50     3.81590.44310E-01
     162.50     3.81990.58558E-01
     162.50     3.82140.50742E-01
     162.50     3.82410.53602E-01
     162.50     3.82680.53617E-01
     162.50     3.82820.61448E-01
     162.50     3.83090.60752E-01
     162.50     3.83580.55089E-01
     162.50     3.83780.62924E-01
     162.50     3.84050.67918E-01
     162.50     3.84400.67937E-01
     162.50     3.84670.64396E-01
     162.50     3.84870.77921E-01
     162.50     3.85010.68683E-01
     162.50     3.85290.70120E-01
     162.50     3.85490.75110E-01
     162.50     3.85700.68721E-01
     162.50     3.85830.77263E-01
     162.50     3.86110.75856E-01
     162.50     3.86240.86532E-01
     162.50     3.86520.78012E-01
     162.50     3.86940.70923E-01
     162.50     3.87340.89438E-01
     162.50     3.87350.77347E-01
     162.50     3.87820.88753E-01
     162.50     3.87890.81645E-01
     162.50     3.88240.80241E-01
     162.50     3.88310.83801E-01
     162.50     3.88510.80257E-01
     162.50     3.88860.83832E-01
     162.50     3.88990.88107E-01
     162.50     3.89270.80299E-01
     162.50     3.89540.86004E-01
     162.50     3.89620.75339E-01
     162.50     3.89880.89579E-01
     162.50     3.89950.91716E-01
     162.50     3.90160.92439E-01
     162.50     3.90430.90320E-01
     162.50     3.90780.80383E-01
     162.50     3.90850.91766E-01
     162.50     3.91190.82539E-01
     162.50     3.91600.89674E-01
     162.50     3.91740.87548E-01
     162.50     3.92010.92542E-01
     162.50     3.92220.84019E-01
     162.50     3.92420.98255E-01
     162.50     3.92700.93291E-01
     162.50     3.92770.84049E-01
     162.50     3.93050.84064E-01
     162.50     4.20310.67662E-01
     162.50     4.20380.64861E-01
     162.50     4.20440.70464E-01
     162.50     4.20710.72566E-01
     162.50     4.20850.64865E-01
     162.50     4.21050.73969E-01
     162.50     4.21320.65568E-01
     162.50     4.21600.64169E-01
     162.50     4.21800.64871E-01
     162.50     4.21940.58569E-01
     162.50     4.22070.59971E-01
     162.50     4.22410.69076E-01
     162.50     4.22550.63475E-01
     162.50     4.22750.68378E-01
     162.50     4.23090.73982E-01
     162.50     4.23360.61379E-01
     162.50     4.23560.63481E-01
     162.50     4.23770.69785E-01
     162.50     4.24040.75389E-01
     162.50     4.24310.57884E-01
     162.50     4.24510.63487E-01
     162.50     4.24720.67690E-01
     162.50     4.24990.66992E-01
     162.50     4.25670.57193E-01
     162.50     4.25870.55093E-01
     162.50     4.26070.42490E-01
     162.50     4.26280.29187E-01
     162.50     4.26410.37591E-01
     162.50     4.26680.43194E-01
     162.50     4.26890.69105E-01
     162.50     4.26960.51599E-01
     162.50     4.27230.54402E-01
     162.50     4.27430.62806E-01
     162.50     4.27700.60707E-01
     162.50     4.27770.64909E-01
     162.50     4.28110.67012E-01
     162.50     4.28240.58610E-01
     162.50     4.28520.67715E-01
     162.50     4.28650.72617E-01
     162.50     4.28920.70518E-01
     162.50     4.29060.55114E-01
     162.50     4.29260.69820E-01
     162.50     4.29400.73322E-01
     162.50     4.29670.69823E-01
     162.50     4.29870.65623E-01
     162.50     4.30010.58621E-01
     162.50     4.30280.60723E-01
     162.50     4.30350.53021E-01
     162.50     4.30550.51622E-01
     162.50     4.30690.29215E-01
     162.50     4.30960.53025E-01
     162.50     4.30960.39721E-01
     162.50     4.31230.52327E-01
     162.50     4.31300.48126E-01
     162.50     4.31570.63533E-01
     162.50     4.31770.57932E-01
     162.50     4.32310.62137E-01
     162.50     4.32520.54436E-01
     162.50     4.32720.55837E-01
     162.50     4.32790.61440E-01
     162.50     4.33130.61442E-01
     162.50     4.33260.66344E-01
     162.50     4.33540.59344E-01
     162.50     4.33740.57244E-01
     162.50     4.33870.71250E-01
     162.50     4.34080.65649E-01
     162.50     4.34280.61449E-01
     162.50     4.34480.60750E-01
     162.50     4.34690.57250E-01
     162.50     4.34960.59353E-01
     162.50     4.35160.61455E-01
     162.50     4.35160.55153E-01
     162.50     4.35430.64258E-01
     162.50     4.35640.67060E-01
     162.50     4.36040.64262E-01
     162.50     4.36180.59361E-01
     162.50     4.36380.61463E-01
     162.50     4.36660.64966E-01
     162.50     4.36860.48861E-01
     162.50     4.37060.57966E-01
     162.50     4.37270.62869E-01
     162.50     4.37470.53767E-01
     162.50     4.37670.57270E-01
     162.50     4.37880.62173E-01
     162.50     4.38220.67076E-01
     162.50     4.38350.60775E-01
     162.50     4.38690.64979E-01
     162.50     4.39230.68483E-01
     162.50     4.40120.64288E-01
     162.50     4.40450.62889E-01
     162.50     4.40930.70595E-01
     162.50     4.41340.66396E-01
     162.50     4.41740.63598E-01
     162.50     4.42080.62900E-01
     162.50     4.42560.62903E-01
     162.50     4.42900.64305E-01
     162.50     4.43780.63611E-01
     162.50     4.44460.62215E-01
     162.50     4.44930.60817E-01
     162.50     4.45270.58018E-01
     162.50     4.45610.58721E-01
     162.50     4.45880.48219E-01
     162.50     4.46490.47523E-01
     162.50     4.46970.60830E-01
     162.50     4.47440.60833E-01
     162.50     4.47780.72740E-01
     162.50     4.48190.89548E-01
     162.50     4.4852    0.11266
     162.50     4.48930.90953E-01
     162.50     4.49410.90956E-01
     162.50     4.49810.72753E-01
     162.50     4.49880.79055E-01
     162.50     4.50290.81859E-01
     162.50     4.50700.84662E-01
     162.50     4.51100.91667E-01
     162.50     4.5158    0.10498
     162.50     4.5192    0.11128
     162.50     4.5225    0.12599
     162.50     4.5259    0.12879
     162.50     4.5293    0.11759
     162.50     4.53340.89581E-01
     162.50     4.53820.83282E-01
     162.50     4.54090.74180E-01
     162.50     4.54290.41270E-01
     162.50     4.54560.48275E-01
     162.50     4.54630.23767E-01
     162.50     4.54840.34272E-01
     162.50     4.55180.20269E-01
     162.50     4.55250.90655E-02
     162.50     4.55650.69673E-02
     162.50     4.55860.83691E-02
     162.50     4.55920.18873E-01
     162.50     4.56400.10473E-01
     162.50     4.56870.20980E-01
     162.50     4.57210.42690E-01
     162.50     4.57680.64400E-01
     162.50     4.57960.56699E-01
     162.50     4.58500.60904E-01
     162.50     4.58900.67909E-01
     162.50     4.59310.56708E-01
     162.50     4.59720.62312E-01
     162.50     4.60130.54612E-01
     162.50     4.60940.58819E-01
     162.50     4.61140.46216E-01
     162.50     4.61420.37815E-01
     162.50     4.61760.28714E-01
     162.50     4.62030.22413E-01
     162.50     4.62370.28718E-01
     162.50     4.62640.32921E-01
     162.50     4.63250.49030E-01
     162.50     4.63590.53934E-01
     162.50     4.64200.63041E-01
     162.50     4.64470.56041E-01
     162.50     4.64940.93157E-01
     162.50     4.6521    0.10926
     162.50     4.6555    0.12677
     162.50     4.65890.88961E-01
     162.50     4.66100.65154E-01
     162.50     4.66440.51852E-01
     162.50     4.66640.51853E-01
     162.50     4.66710.57455E-01
     162.50     4.66980.61659E-01
     162.50     4.67250.56058E-01
     162.50     4.67590.66564E-01
     162.50     4.67930.60264E-01
     162.50     4.68270.60266E-01
     162.50     4.68670.60269E-01
     162.50     4.69010.59571E-01
     162.50     4.69350.70077E-01
     162.50     4.69760.67278E-01
     162.50     4.70100.60978E-01
     162.50     4.70440.87590E-01
     162.50     4.70780.74988E-01
     162.50     4.71120.63786E-01
     162.50     4.71390.68689E-01
     162.50     4.71660.65190E-01
     162.50     4.72000.73595E-01
     162.50     4.72270.66594E-01
     162.50     4.72680.54693E-01
     162.50     4.72950.66599E-01
     162.50     4.73350.57498E-01
     162.50     4.73760.62402E-01
     162.50     4.74100.66606E-01
     162.50     4.74510.59606E-01
     162.50     4.74710.49804E-01
     162.50     4.74980.51907E-01
     162.50     4.75120.39303E-01
     162.50     4.75390.40705E-01
     162.50     4.75930.35107E-01
     162.50     4.76070.31607E-01
     162.50     4.76540.37912E-01
     162.50     4.76880.72926E-01
     162.50     4.77350.85533E-01
     162.50     4.7769    0.10794
     162.50     4.7810    0.15206
     162.50     4.7836    0.20808
     162.50     4.7884    0.21579
     162.50     4.7918    0.11636
     162.50     4.79520.98152E-01
     162.50     4.79800.89050E-01
     162.50     4.80070.48438E-01
     162.50     4.80410.26733E-01
     162.50     4.80820.29536E-01
     162.50     4.81290.28139E-01
     162.50     4.82240.34447E-01
     162.50     4.82650.34450E-01
     162.50     4.83060.39354E-01
     162.50     4.83330.37255E-01
     162.50     4.83730.35857E-01
     162.50     4.84410.38662E-01
     162.50     4.84820.44267E-01
     162.50     4.85160.49171E-01
     162.50     4.85500.41470E-01
     162.50     4.85840.35170E-01
     162.50     4.86240.39374E-01
     162.50     4.86580.44278E-01
     162.50     4.86920.44280E-01
     162.50     4.87330.38681E-01
     162.50     4.87670.45686E-01
     162.50     4.88010.40786E-01
     162.50     4.88410.36587E-01
     162.50     4.88750.33788E-01
     162.50     4.89090.49896E-01
     162.50     4.89430.39395E-01
     162.50     4.89770.35896E-01
     162.50     4.90040.43600E-01
     162.50     4.90310.35199E-01
     162.50     4.90720.35902E-01
     162.50     4.91060.35204E-01
     162.50     4.91330.32404E-01
     162.50     4.91740.33107E-01
     162.50     4.92150.38712E-01
     162.50     4.92480.36613E-01
     162.50     4.92820.35215E-01
     162.50     4.93300.42220E-01
     162.50     4.93570.46424E-01
     162.50     4.93840.39423E-01
     162.50     4.94320.45028E-01
ENDDATA           3568
ENDSUBENT         3583
SUBENT        F0590003   20110811   20111215   20111123       F042
BIB                  4          9
REACTION  1(12-MG-24(A,0),,EN)
          2(12-MG-24(A,0),,J)
          3(12-MG-24(A,EL),,WID)
          4(12-MG-24(A,0),,PTY)
ERR-ANALYS (EN-ERR1)The error of the difference in the energy of
           two neighbouring resonances never exceeds +- 1 keV.
           (DATA-ERR) The uncertainty in resonance width
STATUS     (TABLE)Table 1
HISTORY    (20110808A) SD: units of the DATA in col.1: MEV -> KEV
ENDBIB               9
COMMON               2          3
EN-ERR1    DATA-ERR
KEV        PER-CENT
 1.         30.
ENDCOMMON            3
DATA                 4         20
DATA      1DATA      2DATA      3DATA      4
KEV        NO-DIM     KEV        NO-DIM
     3198.0        2.0        0.6        1.0
     3304.0        1.0        3.5       -1.0
     3400.0        2.0        1.3        1.0
     3486.0        1.0        1.7       -1.0
     3490.0        0.0        5.2        1.0
     3565.0        0.0        3.2        1.0
     3791.0        0.0        3.0        1.0
     3808.0        3.0       11.5       -1.0
     4263.0        2.0        4.5        1.0
     4309.0        2.0        1.9        1.0
     4471.0        1.0       11.4       -1.0
     4493.0        3.0        0.9       -1.0
     4541.0        3.0       19.7       -1.0
     4565.0        1.0        5.4       -1.0
     4622.0        2.0        6.2        1.0
     4656.0        4.0        1.3        1.0
     4661.0        2.0        4.5        1.0
     4669.0        1.0        7.2       -1.0
     4759.0        2.0        5.9        1.0
     4789.0        3.0        3.7       -1.0
ENDDATA             22
ENDSUBENT           40
ENDENTRY             3
