ENTRY            C2989   20240917   20241027   20241027       C240
SUBENT        C2989001   20240917   20241027   20241027       C240
BIB                 10         18
TITLE      Collective excitation of 172Yb from inelastic
           scattering at 36 MeV
AUTHOR     (M.Govil,H.W.Fulbright,D.Cline)
INSTITUTE  (1USAROC)
REFERENCE  (J,PR/C,36,1442,1987)
           #doi:10.1103/PhysRevC.36.1442
FACILITY   (VDGT,1USAROC)
DETECTOR   (MAGSP,PS) An Enge split-pole spectrometer in
           conjunction with a position-sensitive
           delay-line-readout proportional counter in
           the focal plane.
SAMPLE     The targets were 100-200 mu-g/cm2 of 97% enrichment
           172Yb evaporated onto 20 mu-g/cm2 carbon foils.
           (70-YB-172,ENR=0.97)
METHOD     (EXTB)
ADD-RES    (COMP,STRUC) Distorted-wave Born-approximation
           analysis was used to interpret the reaction results.
HISTORY    (20240916C) OG
ENDBIB              18
COMMON               2          3
EN         EN-RSL
MEV        KEV
36.        18.
ENDCOMMON            3
ENDSUBENT           25
SUBENT        C2989002   20240917   20241027   20241027       C240
BIB                  3          3
REACTION   (70-YB-172(A,EL)70-YB-172,,DA,,RTH)
ERR-ANALYS (DATA-ERR) No information on source of uncertainties.
STATUS     (CURVE,,I.M.Govil+,J,PR/C,36,1442,1987) Fig.3.
ENDBIB               3
NOCOMMON             0          0
DATA                 3         28
ANG-CM     DATA       DATA-ERR
ADEG       NO-DIM     NO-DIM
      7.425  1.020E+00  6.745E-02
      9.412  9.943E-01  8.932E-02
     11.479  1.030E+00  9.257E-02
     12.554  1.048E+00  7.769E-02
     15.867  9.225E-01  6.840E-02
     18.182  9.718E-01  7.208E-02
     20.826  1.087E+00  8.916E-02
     23.387  1.195E+00  7.915E-02
     26.367  1.156E+00  7.650E-02
     31.089  9.270E-01  5.391E-02
     33.579  7.055E-01  6.339E-02
     36.233  5.749E-01  3.807E-02
     38.803  4.766E-01  3.155E-02
     41.210  3.596E-01  2.379E-02
     43.699  2.931E-01  2.635E-02
     46.271  2.250E-01  1.308E-02
     48.678  1.741E-01  1.233E-02
     51.165  1.444E-01  1.185E-02
     53.822  1.062E-01  6.177E-03
     56.394  8.361E-02  4.861E-03
     58.967  6.202E-02  3.607E-03
     61.375  4.760E-02  2.765E-03
     63.698  3.749E-02  2.481E-03
     66.354  2.828E-02  2.263E-03
     68.847  1.959E-02  1.297E-03
     71.419  1.530E-02  1.367E-03
     73.577  1.194E-02  5.979E-04
     76.733  7.995E-03  4.652E-04
ENDDATA             30
ENDSUBENT           38
SUBENT        C2989003   20240917   20241027   20241027       C240
BIB                  3          3
REACTION   (70-YB-172(A,INL)70-YB-172,PAR,DA)
ERR-ANALYS (DATA-ERR) No information on source of uncertainties.
STATUS     (CURVE,,I.M.Govil+,J,PR/C,36,1442,1987) Figs.3-6.
ENDBIB               3
NOCOMMON             0          0
DATA                 4        220
E-EXC      ANG-CM     DATA-CM    DATA-ERR
KEV        ADEG       MB/SR      MB/SR
        79.     18.345  1.855E+00  2.937E-01
        79.     20.840  1.165E+00  1.229E-01
        79.     23.409  9.715E-01  1.026E-01
        79.     25.311  9.338E-01  8.147E-02
        79.     28.213  7.039E-01  8.704E-02
        79.     30.856  7.416E-01  6.473E-02
        79.     33.500  7.578E-01  8.000E-02
        79.     35.988  5.711E-01  6.030E-02
        79.     38.554  5.063E-01  3.944E-02
        79.     41.029  5.843E-01  4.005E-02
        79.     43.439  3.979E-01  3.472E-02
        79.     46.009  3.061E-01  2.387E-02
        79.     48.912  2.284E-01  1.780E-02
        79.     50.983  1.964E-01  1.530E-02
        79.     53.724  1.324E-01  1.399E-02
        79.     56.294  1.029E-01  7.052E-03
        79.     58.694  9.213E-02  7.775E-03
        79.     61.182  7.305E-02  7.052E-03
        79.     63.590  5.181E-02  3.553E-03
        79.     66.162  3.866E-02  2.648E-03
        79.     68.565  3.224E-02  2.210E-03
        79.     71.136  2.430E-02  1.663E-03
       260.     15.290  1.059E+00  5.295E-01
       260.     20.261  2.827E+00  4.179E-01
       260.     22.689  1.816E+00  5.879E-01
       260.     24.964  9.853E-01  2.234E-01
       260.     27.959  7.498E-01  1.704E-01
       260.     30.474  4.567E-01  8.393E-02
       260.     33.038  4.456E-01  7.733E-02
       260.     35.685  1.357E-01  1.799E-02
       260.     38.311  5.640E-02  1.758E-02
       260.     40.585  3.087E-01  2.117E-02
       260.     43.097  6.189E-01  3.734E-02
       260.     45.592  5.010E-01  3.852E-02
       260.     48.184  3.277E-01  2.252E-02
       260.     50.795  5.260E-01  3.611E-02
       260.     53.093  6.641E-01  4.555E-02
       260.     55.754  5.282E-01  4.927E-02
       260.     58.180  3.516E-01  2.121E-02
       260.     60.738  3.684E-01  3.432E-02
       260.     63.202  4.610E-01  3.927E-02
       260.     65.862  3.700E-01  2.234E-02
       260.     68.292  2.314E-01  1.395E-02
       260.     70.692  2.238E-01  1.350E-02
       540.     32.686  3.029E-02  2.024E-02
       540.     37.676  1.348E-02  8.038E-03
       540.     40.123  3.626E-03  2.213E-03
       540.     45.170  2.692E-02  7.543E-03
       540.     47.573  2.259E-02  2.970E-03
       540.     49.878  3.363E-03  1.912E-03
       540.     52.528  2.473E-02  2.279E-03
       540.     54.994  3.554E-02  5.024E-03
       540.     57.485  2.613E-02  3.175E-03
       540.     60.086  9.401E-03  1.521E-03
       540.     62.555  1.237E-02  2.128E-03
       540.     65.090  2.487E-02  3.022E-03
       540.     67.669  1.587E-02  2.406E-03
       540.     69.986  1.494E-02  2.572E-03
      1118.     32.509  7.008E-02  1.616E-02
      1118.     35.019  2.266E-02  6.898E-03
      1118.     40.195  3.441E-02  5.562E-03
      1118.     42.795  9.822E-03  6.505E-03
      1118.     45.439  8.332E-03  5.376E-03
      1118.     47.712  1.620E-02  2.533E-03
      1118.     50.264  1.709E-02  3.295E-03
      1118.     55.290  1.498E-03  1.264E-03
      1118.     60.365  3.515E-03  9.012E-04
      1222.     33.042  1.906E-01  2.793E-02
      1222.     35.475  2.654E-01  2.754E-02
      1222.     38.199  1.694E-01  1.193E-02
      1222.     40.633  2.302E-01  1.880E-02
      1222.     43.090  1.680E-01  1.559E-02
      1222.     45.624  1.622E-01  1.861E-02
      1222.     48.167  1.259E-01  1.168E-02
      1222.     50.792  1.103E-01  7.767E-03
      1222.     53.067  9.780E-02  1.017E-02
      1222.     55.882  5.734E-02  5.954E-03
      1222.     58.157  5.147E-02  4.780E-03
      1222.     60.791  3.622E-02  3.361E-03
      1222.     63.232  4.000E-02  3.270E-03
      1222.     65.701  2.153E-02  3.154E-03
      1222.     68.348  1.051E-02  1.649E-03
      1222.     70.802  8.561E-03  9.824E-04
      1263.     14.483  1.614E-01  1.389E-01
      1263.     16.950  2.936E-01  1.084E-01
      1263.     29.750  2.775E-01  3.850E-02
      1263.     32.193  1.846E-01  2.560E-02
      1263.     34.800  1.531E-01  1.378E-02
      1263.     37.300  1.658E-01  1.727E-02
      1263.     42.329  1.253E-01  1.480E-02
      1263.     47.077  1.161E-01  7.920E-03
      1263.     49.770  1.009E-01  6.897E-03
      1263.     52.116  7.492E-02  5.122E-03
      1263.     54.816  5.834E-02  5.668E-03
      1263.     57.149  5.274E-02  4.746E-03
      1263.     59.482  4.767E-02  3.603E-03
      1263.     62.094  3.654E-02  3.030E-03
      1263.     64.541  2.247E-02  2.185E-03
      1263.     66.718  1.437E-02  2.282E-03
      1263.     69.313  1.439E-02  1.295E-03
      1466.     15.207  9.034E-01  1.781E-01
      1466.     17.838  9.375E-01  1.949E-01
      1466.     27.799  4.752E-01  9.364E-02
      1466.     30.344  5.158E-01  6.512E-02
      1466.     32.802  5.909E-01  7.330E-02
      1466.     35.185  5.031E-01  3.072E-02
      1466.     37.831  3.515E-01  2.439E-02
      1466.     40.294  3.518E-01  2.443E-02
      1466.     42.845  3.190E-01  1.679E-02
      1466.     47.957  2.076E-01  1.267E-02
      1466.     50.509  1.832E-01  1.876E-02
      1466.     53.154  1.327E-01  9.905E-03
      1466.     55.539  1.090E-01  8.471E-03
      1466.     58.353  7.964E-02  9.418E-03
      1466.     60.742  5.872E-02  4.381E-03
      1466.     63.120  5.877E-02  4.570E-03
      1466.     65.770  3.620E-02  2.815E-03
      1466.     68.595  1.966E-02  3.455E-03
      1466.     70.885  2.134E-02  2.183E-03
      1608.     15.684  6.115E-01  1.953E-01
      1608.     18.269  2.272E-01  1.208E-01
      1608.     30.884  6.438E-02  1.712E-02
      1608.     33.309  1.813E-01  2.005E-02
      1608.     35.859  1.703E-01  2.045E-02
      1608.     38.432  8.441E-02  1.093E-02
      1608.     40.807  9.205E-02  7.521E-03
      1608.     43.536  6.841E-02  7.569E-03
      1608.     45.932  4.107E-02  6.073E-03
      1608.     48.385  5.426E-02  6.003E-03
      1608.     51.034  3.510E-02  4.218E-03
      1608.     53.660  4.125E-02  4.955E-03
      1608.     55.879  3.064E-02  4.246E-03
      1608.     58.519  2.533E-02  3.044E-03
      1608.     60.988  2.162E-02  3.196E-03
      1608.     63.550  1.475E-02  2.576E-03
      1608.     66.192  1.144E-02  2.420E-03
      1608.     68.675  6.511E-03  1.832E-03
      1608.     71.116  1.197E-02  1.438E-03
      1710.     15.592  3.122E-01  1.507E-01
      1710.     18.065  1.490E-01  6.213E-02
      1710.     20.517  1.265E-01  6.978E-02
      1710.     32.999  1.516E-01  2.711E-02
      1710.     35.372  1.025E-01  1.959E-02
      1710.     38.179  7.596E-02  9.786E-03
      1710.     40.441  9.559E-02  9.608E-03
      1710.     43.154  8.240E-02  9.397E-03
      1710.     45.529  5.245E-02  4.991E-03
      1710.     48.159  4.005E-02  6.144E-03
      1710.     50.776  4.333E-02  3.761E-03
      1710.     53.136  4.215E-02  5.383E-03
      1710.     55.513  2.525E-02  3.219E-03
      1710.     58.222  2.458E-02  4.085E-03
      1710.     60.591  1.848E-02  3.302E-03
      1710.     63.050  1.288E-02  2.302E-03
      1710.     65.604  7.266E-03  1.735E-03
      1710.     68.071  4.160E-03  1.479E-03
      1710.     70.675  6.377E-03  8.969E-04
      1822.     15.664  5.560E-01  1.266E-01
      1822.     18.092  7.835E-01  1.405E-01
      1822.     20.670  3.223E-01  7.902E-02
      1822.     30.642  2.351E-01  2.693E-02
      1822.     33.167  2.740E-01  2.765E-02
      1822.     35.489  5.645E-01  2.923E-02
      1822.     38.201  5.158E-01  2.671E-02
      1822.     40.482  4.142E-01  2.442E-02
      1822.     43.109  3.616E-01  1.687E-02
      1822.     45.735  3.254E-01  1.918E-02
      1822.     47.922  3.019E-01  1.344E-02
      1822.     50.635  2.676E-01  1.771E-02
      1822.     53.266  2.165E-01  1.431E-02
      1822.     55.714  2.070E-01  1.221E-02
      1822.     58.258  1.637E-01  1.083E-02
      1822.     60.640  1.031E-01  5.338E-03
      1822.     63.186  7.910E-02  6.896E-03
      1822.     65.543  8.099E-02  5.079E-03
      1822.     68.089  6.214E-02  3.221E-03
      1822.     70.721  4.840E-02  2.856E-03
      2255.     33.012  6.819E-02  1.360E-02
      2255.     35.820  3.980E-02  7.670E-03
      2255.     38.306  1.924E-02  6.701E-03
      2255.     40.916  3.477E-02  6.457E-03
      2255.     43.552  2.669E-02  6.087E-03
      2255.     46.005  3.762E-02  8.270E-03
      2255.     50.964  1.337E-02  4.064E-03
      2255.     53.657  2.335E-02  3.163E-03
      2255.     56.042  2.073E-02  4.557E-03
      2255.     61.165  7.184E-03  1.791E-03
      2255.     63.476  4.933E-03  2.081E-03
      2255.     66.115  3.417E-03  1.491E-03
      2255.     71.289  3.365E-03  1.281E-03
      2367.     30.264  9.117E-02  2.550E-02
      2367.     35.222  5.905E-02  9.763E-03
      2367.     37.787  4.483E-02  7.735E-03
      2367.     40.321  5.270E-02  1.304E-02
      2367.     42.945  5.594E-02  8.977E-03
      2367.     45.231  6.770E-02  7.006E-03
      2367.     47.904  3.545E-02  6.754E-03
      2367.     50.455  3.300E-02  4.474E-03
      2367.     52.840  3.117E-02  3.633E-03
      2367.     55.399  2.602E-02  3.529E-03
      2367.     57.973  1.745E-02  3.640E-03
      2367.     60.537  1.345E-02  2.403E-03
      2367.     65.410  8.965E-03  1.865E-03
      2367.     70.679  7.494E-03  1.813E-03
      2738.     20.519  1.424E-01  5.433E-02
      2738.     22.812  2.018E-01  5.219E-02
      2738.     33.088  1.448E-01  2.377E-02
      2738.     35.709  1.684E-01  2.341E-02
      2738.     38.178  1.452E-01  1.638E-02
      2738.     40.546  1.460E-01  1.169E-02
      2738.     43.100  1.394E-01  1.017E-02
      2738.     45.554  1.396E-01  1.273E-02
      2738.     48.219  1.026E-01  5.476E-03
      2738.     53.264  4.259E-02  5.170E-03
      2738.     55.927  3.281E-02  4.184E-03
      2738.     58.516  3.608E-02  3.754E-03
      2738.     60.980  3.507E-02  4.873E-03
      2738.     63.496  2.629E-02  3.864E-03
      2738.     66.119  1.140E-02  3.279E-03
      2738.     71.127  5.095E-03  1.387E-03
ENDDATA            222
ENDSUBENT          230
ENDENTRY             3
