ENTRY            C2995   20241006   20241230   20241230       C244
SUBENT        C2995001   20241006   20241230   20241230       C244
BIB                 11         30
TITLE      Nuclear fragment production from 720-MeV
           alpha-induced reactions
AUTHOR     (T.C.Schweizer,R.R.Doering,S.T.Thornton,L.C.Dennis,
           K.R.Cordell,R.L.Parks)
INSTITUTE  (1USAVIR)
REFERENCE  (J,PR/C,19,1408,1979)
           #doi:10.1103/PhysRevC.19.1408
FACILITY   (SYNCH,1USASRE) The Space Radiation Effects Laboratory
           synchrocyclotron
DETECTOR   (TELES,IOCH,SIBAR) The particle-detection system was
           a three-element telescope Delta-E detector was a gas
           ionization chamber of the Frischgrid design and was
           operated with P-10 gas (90% argon, 10% methane) . The
           second element in the detector telescope, was a fully
           depleted, 100 mu-m-thick, 200-mm2, planar, silicon
           surface barrier detector. The third element was a
           nominally 1500-mu-m thick, partially depleted silicon
           surface barrier detector of 450 mm2 area.
SAMPLE     The targets used were 10-cm x 10-cm Al, Ag, and Ta
           foils with thicknesses of 3.42, 6.67, and 12.65
           mg/cm2, respectively.
METHOD     (EXTB)
CORRECTION All data were corrected for energy losses in the
           target and detector window.
ERR-ANALYS (ERR-1) Absolute cross sections were obtained by
           normalizing the helium data to data reported in
           C2993001,R.R.Doering+,J,PRL,40,1433,1978.
           This process introduced an estimated 20% uncertainty
           in the cross sections.
HISTORY    (20241006C) OG
ENDBIB              30
COMMON               2          3
EN         ERR-1
MEV        PER-CENT
720.       20.
ENDCOMMON            3
ENDSUBENT           37
SUBENT        C2995002   20241006   20241230   20241230       C244
BIB                  2          2
REACTION   (73-TA-0(A,X)ELEM,,DA/DE)
STATUS     (CURVE,,T.C.Schweizer+,J,PR/C,19,1408,1979) Figs.1,3,6.
ENDBIB               2
NOCOMMON             0          0
DATA                 4        245
ELEMENT    ANG        E          DATA
NO-DIM     ADEG       MEV        MB/SR/MEV
         3.        60.     12.000  2.165E-03
         3.        60.     15.310  1.676E-02
         3.        60.     18.827  4.305E-02
         3.        60.     22.758  6.431E-02
         3.        60.     25.655  6.561E-02
         3.        60.     29.379  4.665E-02
         3.        60.     33.103  3.452E-02
         3.        60.     36.206  2.311E-02
         3.        60.     39.517  1.817E-02
         3.        60.     43.034  1.318E-02
         3.        60.     46.344  9.752E-03
         3.        60.     49.655  7.074E-03
         3.        60.     53.379  6.272E-03
         3.        60.     57.103  4.642E-03
         3.        60.     60.206  3.367E-03
         3.        60.     63.723  2.811E-03
         3.        60.     67.034  2.080E-03
         3.        60.     70.551  1.635E-03
         3.        60.     74.068  1.260E-03
         3.        60.     77.378  9.511E-04
         3.        60.     81.102  7.475E-04
         3.        60.     84.413  5.209E-04
         3.        60.     87.723  4.262E-04
         3.        60.     90.826  3.630E-04
         3.        60.     94.550  2.581E-04
         3.        60.     98.068  1.988E-04
         3.        60.    101.378  1.025E-04
         3.        90.     13.645  2.246E-03
         3.        90.     17.533  1.805E-02
         3.        90.     21.889  4.694E-02
         3.        90.     26.250  6.880E-02
         3.        90.     30.154  6.750E-02
         3.        90.     33.831  5.067E-02
         3.        90.     38.428  3.524E-02
         3.        90.     42.105  2.498E-02
         3.        90.     46.241  1.911E-02
         3.        90.     50.148  1.355E-02
         3.        90.     54.055  9.978E-03
         3.        90.     57.732  7.635E-03
         3.        90.     61.867  6.679E-03
         3.        90.     66.234  4.825E-03
         3.        90.     70.141  3.356E-03
         3.        90.     74.046  2.935E-03
         3.        90.     77.953  2.204E-03
         3.        90.     81.859  1.719E-03
         3.        90.     86.455  1.341E-03
         3.        90.     90.362  1.006E-03
         3.        90.     94.038  7.849E-04
         3.        90.     98.175  5.564E-04
         3.        90.    102.081  4.423E-04
         3.        90.    106.217  3.724E-04
         3.        90.    109.894  2.640E-04
         3.        90.    114.260  2.099E-04
         3.        90.    117.710  1.075E-04
         4.        30.     13.722  6.622E-04
         4.        30.     18.418  7.137E-04
         4.        30.     22.310  1.384E-03
         4.        30.     25.921  4.717E-03
         4.        30.     30.324  1.258E-02
         4.        30.     33.694  2.440E-02
         4.        30.     37.601  3.121E-02
         4.        30.     42.299  3.126E-02
         4.        30.     46.478  2.908E-02
         4.        30.     49.883  2.066E-02
         4.        30.     54.589  1.660E-02
         4.        30.     58.250  1.366E-02
         4.        30.     61.646  1.240E-02
         4.        30.     65.831  9.715E-03
         4.        30.     70.532  9.040E-03
         4.        30.     73.932  7.259E-03
         4.        30.     78.114  6.123E-03
         4.        30.     82.029  6.282E-03
         4.        30.     85.688  5.430E-03
         4.        30.     90.130  4.694E-03
         4.        30.     93.532  3.678E-03
         4.        30.     97.975  3.103E-03
         4.        30.    101.897  2.554E-03
         4.        30.    105.555  2.262E-03
         4.        30.    109.734  2.104E-03
         4.        30.    114.173  2.006E-03
         4.        30.    117.828  1.960E-03
         4.        30.    121.753  1.463E-03
         4.        30.    125.677  1.146E-03
         4.        30.    129.598  9.668E-04
         4.        30.    133.511  1.017E-03
         4.        30.    136.903  1.069E-03
         4.        30.    140.816  1.124E-03
         4.        30.    144.993  1.098E-03
         4.        30.    149.438  8.819E-04
         4.        30.    153.356  8.006E-04
         4.        30.    157.284  5.551E-04
         4.        30.    161.473  3.849E-04
         4.        30.    165.138  2.872E-04
         4.        30.    169.597  1.521E-04
         4.        60.     13.859  6.637E-04
         4.        60.     18.284  1.309E-03
         4.        60.     21.804  4.449E-03
         4.        60.     26.080  9.110E-03
         4.        60.     29.875  1.818E-02
         4.        60.     33.994  2.584E-02
         4.        60.     38.065  3.142E-02
         4.        60.     41.861  2.916E-02
         4.        60.     46.148  2.546E-02
         4.        60.     50.342  1.847E-02
         4.        60.     54.524  1.316E-02
         4.        60.     58.106  1.083E-02
         4.        60.     62.035  8.956E-03
         4.        60.     66.282  6.529E-03
         4.        60.     69.677  5.929E-03
         4.        60.     74.639  4.887E-03
         4.        60.     78.560  3.656E-03
         4.        60.     82.481  2.543E-03
         4.        60.     85.958  2.214E-03
         4.        60.     90.057  1.770E-03
         4.        60.     93.973  1.647E-03
         4.        60.     98.412  1.496E-03
         4.        60.    101.810  1.119E-03
         4.        60.    106.251  9.002E-04
         4.        60.    110.170  7.242E-04
         4.        60.    113.830  5.418E-04
         4.        60.    117.221  5.972E-04
         4.        60.    121.855  5.246E-04
         4.        60.    125.608  5.104E-04
         4.        60.    130.071  3.891E-04
         4.        60.    134.177  3.007E-04
         4.        60.    138.104  2.292E-04
         4.        60.    141.258  1.506E-04
         4.        60.    145.439  1.154E-04
         4.        60.    149.356  1.023E-04
         4.        60.    154.052  1.184E-04
         4.        60.    158.226  1.370E-04
         4.        60.    160.837  1.306E-04
         4.        60.    165.801  9.770E-05
         4.        90.     18.271  5.555E-04
         4.        90.     22.186  5.421E-03
         4.        90.     25.840  9.522E-03
         4.        90.     30.277  1.409E-02
         4.        90.     33.670  1.554E-02
         4.        90.     38.368  1.517E-02
         4.        90.     42.023  1.158E-02
         4.        90.     46.460  8.220E-03
         4.        90.     50.636  5.693E-03
         4.        90.     54.290  3.754E-03
         4.        90.     58.466  2.415E-03
         4.        90.     62.381  1.937E-03
         4.        90.     66.819  1.342E-03
         4.        90.     70.473  1.050E-03
         4.        90.     74.127  6.279E-04
         4.        90.     78.303  3.488E-04
         4.        90.     82.479  3.403E-04
         4.        90.     86.133  2.867E-04
         4.        90.     89.787  2.475E-04
         4.        90.     93.703  1.891E-04
         4.        90.     97.618  9.758E-05
         4.        90.    102.055  9.291E-05
         4.        90.    105.970  7.453E-05
         4.        90.    109.363  8.220E-05
         4.        90.    114.583  5.979E-05
         4.        90.    118.238  4.243E-05
         4.        90.    122.153  1.673E-05
         4.       120.     25.436  1.201E-02
         4.       120.     29.865  1.394E-02
         4.       120.     33.522  1.330E-02
         4.       120.     37.713  1.019E-02
         4.       120.     41.390  6.914E-03
         4.       120.     46.379  4.055E-03
         4.       120.     49.805  2.263E-03
         4.       120.     53.752  1.295E-03
         4.       120.     57.700  7.229E-04
         4.       120.     61.896  5.150E-04
         4.       120.     65.832  3.581E-04
         4.       120.     69.777  2.099E-04
         4.       120.     73.471  1.037E-04
         4.       120.     77.921  8.349E-05
         4.       120.     82.362  7.777E-05
         4.       120.     86.017  7.604E-05
         4.       120.     89.672  7.617E-05
         4.       120.     93.860  6.130E-05
         4.       120.     97.518  5.708E-05
         5.        60.     19.034  2.298E-04
         5.        60.     22.758  3.178E-03
         5.        60.     25.862  6.284E-03
         5.        60.     28.965  9.575E-03
         5.        60.     32.896  1.037E-02
         5.        60.     36.000  9.385E-03
         5.        60.     39.931  6.809E-03
         5.        60.     43.241  5.247E-03
         5.        60.     46.551  4.293E-03
         5.        60.     50.068  3.115E-03
         5.        60.     53.379  2.400E-03
         5.        60.     56.896  1.425E-03
         5.        60.     60.206  8.461E-04
         5.        60.     63.930  4.279E-04
         5.        60.     67.240  2.441E-04
         5.        60.     70.551  1.997E-04
         5.        60.     74.275  2.079E-04
         5.        60.     77.585  1.997E-04
         5.        60.     80.482  1.051E-04
         5.        60.     84.413  1.073E-04
         6.        60.     22.486  2.632E-04
         6.        60.     26.049  3.397E-03
         6.        60.     29.163  6.309E-03
         6.        60.     32.893  8.681E-03
         6.        60.     36.615  7.695E-03
         6.        60.     39.715  6.425E-03
         6.        60.     43.019  4.481E-03
         6.        60.     46.943  2.943E-03
         6.        60.     49.833  2.137E-03
         6.        60.     53.344  1.520E-03
         6.        60.     57.272  1.295E-03
         6.        60.     60.162  8.676E-04
         6.        60.     63.670  5.261E-04
         6.        60.     67.170  2.014E-04
         6.        60.     70.474  1.405E-04
         6.        60.     73.981  7.864E-05
         6.        60.     77.492  5.824E-05
         6.        60.     80.984  1.436E-05
         6.        60.     84.311  3.529E-05
         6.        60.     87.629  5.586E-05
         7.        60.     22.507  1.440E-03
         7.        60.     26.236  1.758E-03
         7.        60.     29.759  2.277E-03
         7.        60.     32.866  2.617E-03
         7.        60.     36.178  2.890E-03
         7.        60.     39.697  3.191E-03
         7.        60.     43.628  3.189E-03
         7.        60.     47.142  2.716E-03
         7.        60.     50.033  2.136E-03
         7.        60.     53.545  1.646E-03
         7.        60.     56.225  1.103E-03
         7.        60.     60.351  6.426E-04
         7.        60.     64.063  3.744E-04
         7.        60.     67.132  8.035E-05
         8.        60.     29.237  9.452E-04
         8.        60.     33.011  2.187E-03
         8.        60.     36.554  3.323E-03
         8.        60.     39.653  3.124E-03
         8.        60.     43.584  3.117E-03
         8.        60.     46.880  2.447E-03
         8.        60.     50.170  1.738E-03
         8.        60.     53.667  1.234E-03
         8.        60.     56.960  9.306E-04
         8.        60.     60.254  7.018E-04
         8.        60.     63.758  5.620E-04
         8.        60.     67.428  2.278E-04
ENDDATA            247
ENDSUBENT          254
SUBENT        C2995003   20241006   20241230   20241230       C244
BIB                  2          2
REACTION   (13-AL-27(A,X)ELEM,,DA/DE)
STATUS     (CURVE,,T.C.Schweizer+,J,PR/C,19,1408,1979) Figs.2,3.
ENDBIB               2
NOCOMMON             0          0
DATA                 4        184
ELEMENT    ANG        E          DATA
NO-DIM     ADEG       MEV        MB/SR/MEV
         3.        30.      9.259  4.803E-02
         3.        30.     13.330  1.618E-01
         3.        30.     17.836  1.561E-01
         3.        30.     21.442  1.506E-01
         3.        30.     25.494  1.111E-01
         3.        30.     29.771  7.233E-02
         3.        30.     33.824  5.531E-02
         3.        30.     37.429  5.148E-02
         3.        30.     41.258  4.461E-02
         3.        30.     45.537  3.599E-02
         3.        30.     49.141  3.232E-02
         3.        30.     53.644  2.385E-02
         3.        30.     57.473  1.890E-02
         3.        30.     61.303  1.759E-02
         3.        30.     65.133  1.608E-02
         3.        30.     68.735  1.275E-02
         3.        30.     73.467  1.229E-02
         3.        30.     77.074  1.320E-02
         3.        30.     81.804  1.104E-02
         3.        30.     85.409  1.027E-02
         3.        30.     89.464  9.734E-03
         3.        30.     93.068  8.139E-03
         3.        30.     97.345  5.395E-03
         3.        30.    101.179  7.051E-03
         3.        30.    105.232  5.489E-03
         3.        30.    108.838  5.487E-03
         3.        30.    113.338  3.209E-03
         4.        30.     14.000  7.371E-02
         4.        30.     17.603  6.054E-02
         4.        30.     21.206  5.246E-02
         4.        30.     25.034  4.232E-02
         4.        30.     29.090  3.939E-02
         4.        30.     33.143  3.293E-02
         4.        30.     36.971  2.563E-02
         4.        30.     41.700  1.960E-02
         4.        30.     45.076  1.446E-02
         4.        30.     49.578  1.048E-02
         4.        30.     53.180  8.012E-03
         4.        30.     57.008  6.349E-03
         4.        30.     61.512  5.214E-03
         4.        30.     64.889  4.206E-03
         4.        30.     69.395  3.845E-03
         4.        30.     72.999  3.332E-03
         4.        30.     77.505  3.101E-03
         4.        30.     81.108  2.593E-03
         4.        30.     85.388  2.287E-03
         4.        30.     89.441  1.878E-03
         4.        30.     92.818  1.488E-03
         4.        30.     96.871  1.159E-03
         4.        30.    100.925  9.347E-04
         4.        30.    105.205  8.698E-04
         4.        30.    109.263  9.508E-04
         4.        30.    113.545  9.850E-04
         4.        30.    117.601  9.501E-04
         4.        30.    121.203  7.136E-04
         4.        30.    125.481  5.555E-04
         4.        30.    128.857  4.098E-04
         4.        30.    133.364  4.024E-04
         4.        30.    137.419  3.813E-04
         4.        30.    141.692  2.076E-04
         4.        60.     18.003      1.284
         4.        60.     21.922      1.603
         4.        60.     25.831      1.236
         4.        60.     29.740     0.9357
         4.        60.     33.561     0.7223
         4.        60.     37.963     0.5578
         4.        60.     41.362     0.4116
         4.        60.     45.562     0.2991
         4.        60.     49.763     0.2174
         4.        60.     54.165     0.1704
         4.        60.     57.966     0.1296
         4.        60.     61.568      0.108
         4.        60.     65.972    0.08997
         4.        60.     70.376    0.07609
         4.        60.     74.177    0.05966
         4.        60.     77.776    0.04336
         4.        60.     82.180    0.03668
         4.        60.     85.982    0.02964
         4.        60.     90.187    0.02664
         4.        60.     94.189    0.02153
         4.        60.     97.991    0.01714
         4.        60.    102.197    0.01637
         4.        60.    106.000    0.01449
         4.        60.    110.004    0.01245
         4.        60.    114.006    0.00976
         4.        60.    121.608    0.00591
         4.        60.    135.830    0.00564
         4.        60.    155.237     0.0016
         5.        30.     18.147  1.127E-01
         5.        30.     21.961  8.016E-02
         5.        30.     26.006  6.346E-02
         5.        30.     30.049  4.762E-02
         5.        30.     33.869  3.838E-02
         5.        30.     38.135  2.779E-02
         5.        30.     41.731  2.280E-02
         5.        30.     45.777  1.838E-02
         5.        30.     49.595  1.429E-02
         5.        30.     54.088  1.072E-02
         5.        30.     58.128  7.626E-03
         5.        30.     61.943  5.522E-03
         5.        30.     65.984  3.998E-03
         5.        30.     69.800  2.947E-03
         5.        30.     73.846  2.375E-03
         5.        30.     77.668  1.984E-03
         5.        30.     81.495  1.812E-03
         5.        30.     85.552  1.843E-03
         5.        30.     89.824  1.512E-03
         5.        30.     93.422  1.286E-03
         5.        30.     97.920  1.074E-03
         5.        30.    101.517  8.970E-04
         5.        30.    105.341  7.906E-04
         5.        30.    110.289  6.370E-04
         5.        30.    113.431  4.955E-04
         5.        30.    117.479  4.139E-04
         5.        30.    121.749  3.277E-04
         5.        30.    125.793  2.548E-04
         5.        30.    129.161  1.982E-04
         5.        30.    133.435  1.685E-04
         5.        30.    137.475  1.199E-04
         5.        30.    141.741  8.677E-05
         5.        30.    145.959  2.393E-05
         5.        30.    149.774  1.702E-05
         5.        30.    153.181  2.959E-05
         5.        30.    157.234  2.751E-05
         5.        30.    161.025  1.208E-05
         5.        30.    165.519  9.391E-06
         5.        30.    169.161  1.952E-05
         6.        30.     18.142  1.858E-01
         6.        30.     22.633  1.232E-01
         6.        30.     26.225  8.616E-02
         6.        30.     30.042  6.027E-02
         6.        30.     33.861  4.369E-02
         6.        30.     38.129  3.111E-02
         6.        30.     41.494  2.100E-02
         6.        30.     45.992  1.694E-02
         6.        30.     49.810  1.185E-02
         6.        30.     53.856  9.223E-03
         6.        30.     57.674  6.686E-03
         6.        30.     61.718  4.846E-03
         6.        30.     65.535  3.330E-03
         6.        30.     69.803  2.371E-03
         6.        30.     73.390  1.490E-03
         6.        30.     76.984  1.100E-03
         6.        30.     81.483  8.872E-04
         6.        30.     85.079  7.031E-04
         6.        30.     90.034  6.424E-04
         6.        30.     93.630  5.091E-04
         6.        30.     97.676  3.893E-04
         6.        30.    101.729  3.557E-04
         6.        30.    105.561  3.683E-04
         6.        30.    109.156  2.816E-04
         6.        30.    113.667  3.076E-04
         6.        30.    118.175  3.184E-04
         6.        30.    122.001  2.758E-04
         6.        30.    124.917  1.964E-04
         7.        30.     22.009  7.711E-02
         7.        30.     26.275  6.212E-02
         7.        30.     30.081  4.418E-02
         7.        30.     33.433  2.978E-02
         7.        30.     37.461  2.043E-02
         7.        30.     41.488  1.353E-02
         7.        30.     45.744  9.619E-03
         7.        30.     49.324  6.720E-03
         7.        30.     53.810  5.040E-03
         7.        30.     57.841  3.584E-03
         7.        30.     61.872  2.548E-03
         7.        30.     65.229  1.845E-03
         7.        30.     69.272  1.541E-03
         7.        30.     73.517  9.329E-04
         7.        30.     77.550  6.753E-04
         7.        30.     81.960  1.799E-04
         8.        30.     22.151  7.754E-02
         8.        30.     25.748  5.823E-02
         8.        30.     29.341  4.000E-02
         8.        30.     32.706  2.513E-02
         8.        30.     37.422  1.496E-02
         8.        30.     41.239  9.741E-03
         8.        30.     44.829  6.011E-03
         8.        30.     49.775  4.202E-03
         8.        30.     53.590  2.640E-03
         8.        30.     57.187  1.983E-03
         8.        30.     61.240  1.780E-03
         8.        30.     65.740  1.435E-03
         8.        30.     69.316  5.875E-04
ENDDATA            186
ENDSUBENT          193
SUBENT        C2995004   20241006   20241230   20241230       C244
BIB                  2          2
REACTION   (47-AG-0(A,X)ELEM,,DA/DE)
STATUS     (CURVE,,T.C.Schweizer+,J,PR/C,19,1408,1979) Figs.1,4,5.
ENDBIB               2
NOCOMMON             0          0
DATA                 4        126
ELEMENT    ANG        E          DATA
NO-DIM     ADEG       MEV        MB/SR/MEV
         4.        60.      9.761    0.05209
         4.        60.     13.975    0.07161
         4.        60.     18.195     0.1354
         4.        60.     22.409     0.2008
         4.        60.     25.818     0.2301
         4.        60.     30.026     0.2481
         4.        60.     34.030     0.2163
         4.        60.     38.032     0.1722
         4.        60.     42.031     0.1214
         4.        60.     45.630     0.0856
         4.        60.     50.233    0.06918
         4.        60.     54.036    0.05677
         4.        60.     57.838     0.0473
         4.        60.     61.842    0.04062
         4.        60.     66.043    0.03089
         4.        60.     70.447    0.02574
         4.        60.     73.848    0.02049
         4.        60.     78.050    0.01656
         4.        60.     81.853    0.01422
         4.        60.     86.056    0.01132
         4.        60.     89.858    0.00915
         4.        60.     93.859    0.00706
         4.        60.     97.663    0.00625
         4.        60.    101.870    0.00654
         4.        60.    105.675    0.00597
         4.        60.    109.676    0.00468
         4.        60.    113.075    0.00325
         4.        60.    117.879    0.00275
         4.        60.    121.887    0.00288
         4.        60.    125.692    0.00279
         4.        60.    130.298    0.00258
         4.        60.    133.901    0.00218
         4.        60.    138.102    0.00164
         4.        60.    142.097    0.00095
         4.        60.    145.892    0.00052
         4.        60.    153.488    0.00024
         4.        90.     15.989  1.410E-02
         4.        90.     21.787  1.689E-02
         4.        90.     25.722  1.574E-02
         4.        90.     29.192  1.327E-02
         4.        90.     34.048  1.042E-02
         4.        90.     42.593  4.760E-03
         4.        90.     49.982  2.263E-03
         4.        90.     57.612  1.454E-03
         4.        90.     66.399  9.158E-04
         4.        90.     73.793  5.217E-04
         4.        90.     81.877  2.556E-04
         4.        90.     90.655  1.203E-04
         4.        90.     98.974  6.453E-05
         6.        30.     21.806  7.485E-03
         6.        30.     25.769  9.208E-03
         6.        30.     29.914  1.069E-02
         6.        30.     33.869  1.218E-02
         6.        30.     38.004  1.261E-02
         6.        30.     41.761  1.281E-02
         6.        30.     45.689  1.074E-02
         6.        30.     49.801  8.660E-03
         6.        30.     53.540  7.260E-03
         6.        30.     57.662  6.570E-03
         6.        30.     61.788  6.178E-03
         6.        30.     65.893  4.615E-03
         6.        30.     69.452  4.178E-03
         6.        30.     73.921  2.781E-03
         6.        30.     77.840  2.118E-03
         6.        30.     81.745  1.383E-03
         6.        30.     85.855  1.095E-03
         6.        30.     89.963  8.496E-04
         6.        30.     93.883  6.595E-04
         6.        30.     98.181  5.217E-04
         6.        30.    102.098  3.898E-04
         6.        30.    106.008  2.697E-04
         6.        30.    111.978  1.758E-04
         6.        30.    121.965  2.556E-04
         6.        30.    137.238  6.451E-05
         6.        60.     16.740  4.761E-03
         6.        60.     20.689  1.039E-02
         6.        60.     24.827  1.233E-02
         6.        60.     28.965  1.281E-02
         6.        60.     32.539  1.257E-02
         6.        60.     36.865  1.121E-02
         6.        60.     44.576  7.958E-03
         6.        60.     48.714  5.869E-03
         6.        60.     52.476  4.671E-03
         6.        60.     56.990  3.511E-03
         6.        60.     60.564  2.493E-03
         6.        60.     64.513  1.491E-03
         6.        60.     68.651  1.039E-03
         6.        60.     72.977  7.958E-04
         6.        60.     76.927  5.869E-04
         6.        60.     80.501  4.011E-04
         6.        60.     85.015  1.736E-04
         6.        60.     88.965  1.257E-04
         6.        60.     92.726  9.627E-05
         6.        60.     97.428  1.874E-05
         6.        60.    101.754  4.247E-05
         6.        90.     21.864  5.590E-03
         6.        90.     26.015  7.422E-03
         6.        90.     29.784  8.626E-03
         6.        90.     33.915  7.536E-03
         6.        90.     38.040  5.654E-03
         6.        90.     41.784  3.858E-03
         6.        90.     46.088  2.439E-03
         6.        90.     49.642  1.572E-03
         6.        90.     53.757  9.750E-04
         6.        90.     57.866  5.194E-04
         6.        90.     61.969  2.469E-04
         6.       120.     17.823  4.852E-03
         6.       120.     21.961  4.839E-03
         6.       120.     26.093  4.384E-03
         6.       120.     30.024  3.214E-03
         6.       120.     33.765  2.312E-03
         6.       120.     37.876  1.481E-03
         6.       120.     41.774  6.336E-04
         6.       120.     45.870  3.222E-04
         6.       120.     49.571  1.182E-04
         6.       120.     53.673  6.618E-05
         6.       120.     57.462  4.822E-06
         7.        90.     25.287  5.438E-03
         7.        90.     29.425  3.640E-03
         7.        90.     33.563  2.803E-03
         7.        90.     37.356  2.203E-03
         7.        90.     41.494  1.566E-03
         7.        90.     45.977  9.768E-04
         7.        90.     49.885  5.138E-04
         7.        90.     53.908  4.203E-04
         7.        90.     57.931  5.402E-04
ENDDATA            128
ENDSUBENT          135
ENDENTRY             4
