ENTRY            13972   20050228   20050610                  1332
SUBENT        13972001   20050228   20050610                  1332
BIB                  9         10
INSTITUTE  (1USALAS,1USAORL)
REFERENCE  (J,NIM/A,361,270,1995)
AUTHOR     (P.E.Koehler,J.A.Harvey,N.W.Hill)
TITLE      Two Detectors for (n,p) and (n,alpha) measurements
            at white neutron sources
FACILITY   (ACCEL,1USALAS) LANSCE accelerator
DETECTOR   (IOCH) Compensated fission chamber
METHOD     (TOF)
SAMPLE     Enriched target in 33S
HISTORY    (20050228C) DR
ENDBIB              10
NOCOMMON             0          0
ENDSUBENT           13
SUBENT        13972002   20050228   20050610                  1332
BIB                  3          3
REACTION   (16-S-33(N,A)14-SI-30,,SIG)
ERR-ANALYS (DATA-ERR) No information given
STATUS     (CURVE) Data taken from Fig. 5 of the article
ENDBIB               3
NOCOMMON             0          0
DATA                 3        108
EN         DATA       DATA-ERR
KEV        B          B
   1.04E+01  1.832E-02  6.733E-03
   1.06E+01  2.804E-02  1.205E-02
   1.10E+01  2.100E-02  6.462E-03
   1.12E+01  2.748E-02  1.094E-02
   1.14E+01  4.301E-02  1.580E-02
   1.17E+01  3.851E-02  1.184E-02
   1.18E+01  1.077E-01  2.400E-02
   1.22E+01  2.205E-01  5.524E-02
   1.22E+01  3.016E-01  8.409E-02
   1.24E+01  4.936E-01  1.376E-01
   1.25E+01  6.904E-01  2.124E-01
   1.27E+01  1.208E+00  4.073E-01
   1.28E+01  2.471E+00  6.888E-01
   1.29E+01  4.834E+00  1.630E+00
   1.32E+01  3.869E+00  9.692E-01
   1.36E+01  4.953E+00  1.523E+00
   1.37E+01  2.770E+00  7.723E-01
   1.40E+01  1.696E+00  6.757E-01
   1.43E+01  9.077E-01  3.335E-01
   1.44E+01  4.541E-01  1.012E-01
   1.47E+01  2.971E-01  7.444E-02
   1.48E+01  2.431E-01  1.045E-01
   1.51E+01  1.819E-01  6.136E-02
   1.59E+01  2.039E-01  5.107E-02
   1.61E+01  1.459E-01  5.361E-02
   1.65E+01  2.442E-01  9.729E-02
   1.69E+01  1.598E-01  5.391E-02
   1.75E+01  9.573E-02  3.813E-02
   1.77E+01  5.856E-02  1.975E-02
   1.79E+01  8.763E-02  2.696E-02
   1.83E+01  4.587E-02  1.411E-02
   1.88E+01  3.283E-02  1.107E-02
   1.94E+01  3.845E-02  1.412E-02
   1.98E+01  2.814E-02  8.658E-03
   2.04E+01  3.767E-02  9.437E-03
   2.08E+01  2.637E-02  3.784E-03
   2.14E+01  3.018E-02  1.297E-02
   2.14E+01  2.064E-02  9.543E-03
   2.21E+01  4.042E-02  1.485E-02
   2.25E+01  5.915E-02  1.481E-02
   2.28E+01  7.238E-02  2.227E-02
   2.36E+01  1.239E-01  3.104E-02
   2.36E+01  9.911E-02  2.208E-02
   2.41E+01  2.028E-01  3.971E-02
   2.45E+01  1.327E-01  4.083E-02
   2.50E+01  8.496E-02  2.368E-02
   2.57E+01  4.548E-02  1.533E-02
   2.61E+01  2.327E-02  9.272E-03
   2.67E+01  1.781E-02  5.481E-03
   2.74E+01  1.275E-02  5.080E-03
   2.77E+01  2.040E-02  8.772E-03
   2.86E+01  1.397E-02  6.007E-03
   2.92E+01  9.778E-03  5.858E-03
   2.95E+01  2.392E-02  7.359E-03
   3.01E+01  4.094E-02  2.027E-02
   3.60E+01  5.275E-03  2.101E-03
   4.33E+01  6.950E-03  4.672E-03
   4.40E+01  1.163E-02  8.257E-03
   4.64E+01  1.666E-02  7.705E-03
   4.75E+01  5.335E-02  2.642E-02
   4.88E+01  1.067E-01  3.285E-02
   4.98E+01  1.747E-01  5.894E-02
   5.06E+01  2.445E-01  1.051E-01
   5.19E+01  2.993E-01  1.100E-01
   5.36E+01  3.278E-01  1.008E-01
   5.56E+01  2.745E-01  7.653E-02
   5.65E+01  2.009E-01  6.775E-02
   5.80E+01  1.345E-01  3.749E-02
   6.02E+01  8.424E-02  2.348E-02
   6.12E+01  6.304E-02  1.757E-02
   6.28E+01  6.748E-02  2.479E-02
   6.49E+01  6.608E-02  2.632E-02
   6.62E+01  6.613E-02  2.230E-02
   6.83E+01  1.294E-01  4.758E-02
   6.98E+01  1.772E-01  3.949E-02
   7.28E+01  1.518E-01  7.018E-02
   7.55E+01  2.780E-01  1.471E-01
   7.78E+01  4.353E-01  2.454E-01
   7.99E+01  5.329E-01  5.327E-01
   8.25E+01  3.902E-01  3.900E-01
   8.51E+01  3.907E-01  3.905E-01
   8.76E+01  3.658E-02  2.883E-02
   9.19E+01  4.584E-02  3.081E-02
   9.24E+01  2.507E-02  1.592E-02
   9.80E+01  1.643E-02  9.846E-03
   1.00E+02  3.440E-02  1.590E-02
   1.03E+02  2.816E-02  1.587E-02
   1.09E+02  3.376E-02  8.457E-03
   1.12E+02  6.609E-02  2.428E-02
   1.16E+02  9.049E-02  2.266E-02
   1.20E+02  1.549E-01  4.768E-02
   1.26E+02  2.270E-01  5.687E-02
   1.31E+02  2.601E-01  8.771E-02
   1.37E+02  1.863E-01  6.847E-02
   1.43E+02  1.825E-01  9.041E-02
   1.47E+02  1.143E-01  4.553E-02
   1.52E+02  6.844E-02  1.907E-02
   1.62E+02  6.710E-02  3.550E-02
   1.74E+02  8.049E-03  3.206E-03
   1.85E+02  1.973E-02  7.860E-03
   1.95E+02  3.697E-02  1.358E-02
   2.06E+02  4.531E-02  1.394E-02
   2.15E+02  6.070E-02  1.352E-02
   2.26E+02  7.439E-02  1.456E-02
   2.40E+02  8.154E-02  1.170E-02
   2.53E+02  4.370E-02  1.344E-02
   2.69E+02  4.285E-02  7.257E-03
   2.85E+02  2.872E-02  5.624E-03
ENDDATA            110
ENDSUBENT          118
ENDENTRY             2
