ENTRY            13994   20050505   20050707                  1335
SUBENT        13994001   20050505   20050707                  1335
BIB                 10         16
INSTITUTE  (1USALRL)
REFERENCE  (C,82ANTWER,,218,1982)
AUTHOR     (R.M.White,J.C.Browne)
TITLE      Neutron-Induced Fission Cross Section Measurements and
            Calculations of Selected Transplutonic Isotopes
FACILITY   (LINAC,1USALRL)
DETECTOR   (IOCH) Hemispherical ionization chamber for fission
            fragments from 245Cm
           (GLASD) Neutron flux measured with NE905 Li glass
            scintillators
METHOD     (TOF)
SAMPLE     Sample isotopically enriched to > 99 % 245Cm
COMMENT    Article refers to C,79KNOX,,496,1979 (13993) for the
            data but these data are not presented in the refered
            proceedings.
HISTORY    (20050505C) DR
ENDBIB              16
NOCOMMON             0          0
ENDSUBENT           19
SUBENT        13994002   20050505   20050707                  1335
BIB                  3          3
REACTION   (96-CM-245(N,F),,SIG)
ERR-ANALYS (DATA-ERR) No information
STATUS     (CURVE) Data taken from Fig. 2
ENDBIB               3
NOCOMMON             0          0
DATA                 3         66
EN         DATA       DATA-ERR
EV         B          B
  1.096E+04   4.04E+00   2.37E-01
  1.364E+04   3.62E+00   1.73E-01
  1.736E+04   3.08E+00   1.44E-01
  2.335E+04   2.90E+00   1.04E-01
  3.188E+04   2.65E+00   9.24E-02
  4.610E+04   2.44E+00   6.94E-02
  5.740E+04   2.46E+00   7.52E-02
  6.463E+04   2.30E+00   5.78E-02
  7.435E+04   2.42E+00   6.37E-02
  8.445E+04   2.30E+00   6.94E-02
  9.601E+04   2.23E+00   6.35E-02
  1.081E+05   2.11E+00   6.37E-02
  1.173E+05   2.14E+00   4.04E-02
  1.272E+05   2.12E+00
  1.379E+05   2.10E+00
  1.531E+05   2.07E+00
  1.687E+05   2.03E+00
  1.859E+05   2.04E+00
  2.063E+05   1.98E+00
  2.188E+05   2.07E+00
  2.387E+05   1.97E+00
  2.590E+05   1.99E+00
  2.856E+05   2.01E+00
  3.093E+05   1.95E+00
  3.403E+05   1.86E+00
  3.780E+05   1.84E+00
  4.162E+05   1.79E+00
  4.618E+05   1.71E+00
  5.254E+05   1.67E+00
  5.880E+05   1.62E+00
  6.745E+05   1.60E+00
  7.796E+05   1.54E+00
  8.948E+05   1.54E+00
  9.787E+05   1.56E+00
  1.035E+06   1.52E+00
  1.087E+06   1.56E+00
  1.161E+06   1.59E+00
  1.251E+06   1.70E+00
  1.315E+06   1.75E+00
  1.416E+06   1.81E+00
  1.524E+06   1.84E+00
  1.616E+06   1.91E+00
  1.778E+06   1.84E+00
  1.883E+06   1.86E+00
  2.055E+06   1.78E+00
  2.192E+06   1.75E+00
  2.356E+06   1.71E+00
  2.535E+06   1.72E+00
  2.702E+06   1.67E+00
  2.885E+06   1.71E+00
  3.051E+06   1.67E+00
  3.311E+06   1.69E+00
  3.588E+06   1.66E+00
  3.923E+06   1.66E+00
  4.250E+06   1.61E+00
  4.646E+06   1.61E+00
  5.073E+06   1.54E+00
  5.591E+06   1.54E+00
  6.122E+06   1.62E+00
  6.899E+06   1.92E+00
  7.425E+06   1.95E+00
  7.762E+06   2.14E+00
  8.096E+06   2.22E+00
  8.578E+06   2.27E+00
  9.159E+06   2.31E+00
  9.788E+06   2.39E+00
ENDDATA             68
ENDSUBENT           76
ENDENTRY             2
