ENTRY            20698   19840127              20050926       0000
SUBENT        20698001   19840127              20050926       0000
BIB                 13         26
INSTITUTE  (2ZZZGEL)
REFERENCE  (J,NP/A,233,(1),185,7411)
AUTHOR     (F.CORVI,M.STEFANON)
TITLE      -GAMMA RAYS FROM RESONANCE NEUTRON CAPTURE IN IN-115-
FACILITY   (LINAC)  RESONANCE NEUTRON CAPTURE GAMMA-RAY
            FACILITY AT THE GEEL LINAC.
SAMPLE     .2-MM THICK INDIUM METAL PLATE OF NATURAL ISOTOPIC
            COMPOSITION.
METHOD     (TOF  )   TIME OF FLIGHT ANALYSIS OF NEUTRON CAPTURE
            GAMMA RAYS SPECTRUM AND INTENSITY MEASUREMENT.
DETECTOR   (GELI ) A 50 CM3 COAXIAL GE(LI) CRYSTAL DETECTOR WAS
            USED. RESOLUTION  2.7 KEV AT 1.33 MEV
                              7.0 KEV AT 6.1  MEV.
ANALYSIS   .SPIN ASSIGNMENT DONE BY THE LOW-LEVEL POPULATION
            METHOD, SEE K.J.WETZEL PHYS.REV. C1(1970) 1501
                    AND W.P.PEONITZ NUCL.PHYS. A151 (1970) 569.
MONITOR    .ENERGY CALIBRATION PERFORMED AT THERMAL NEUTRON
            ENERGY BY COMPARISON WITH THE SPECTRUM OF THE
            HG(N,GAMMA) TRANSITIONS.
           .GAMMA-RAY INTENSITIES OF THERMAL NEUTRON CAPTURE
            IN CL AND HG WERE TAKEN AS INTENSITY STANDARDS.
ERR-ANALYS .COUNT STATISTICS AND UNCERTAINTY OF STANDARD
            VALUES ACCOUNTED.
STATUS     .DATA TAKEN FROM TABLE 1 OF REFERENCE.
HISTORY    (770607C)   JG.
           (771109E)
ENDBIB              26
NOCOMMON             0          0
ENDSUBENT           29
SUBENT        20698002   19840127              20050926       0000
BIB                  1          2
REACTION  1(49-IN-115(N,0),,EN)
          2(49-IN-115(N,0),,J)
ENDBIB               2
NOCOMMON             0          0
DATA                 2         32
DATA      1DATA      2
EV         NO-DIM
 1.4500E+00 5.0000E+00
 3.8600E+00 4.0000E+00
 9.1200E+00 5.0000E+00
 1.2100E+01 4.0000E+00
 2.2770E+01 5.0000E+00
 3.9630E+01 5.0000E+00
 4.6410E+01 4.0000E+00
 4.8170E+01 5.0000E+00
 6.2990E+01 4.0000E+00
 8.0910E+01 4.0000E+00
 8.3340E+01 5.0000E+00
 9.4400E+01 5.0000E+00
 1.2603E+02 4.0000E+00
 1.3298E+02 5.0000E+00
 1.5034E+02 5.0000E+00
 1.6475E+02 4.0000E+00
 1.6823E+02 5.0000E+00
 1.7800E+02 4.0000E+00
 1.8691E+02 4.0000E+00
 2.0565E+02 5.0000E+00
 2.2412E+02 5.0000E+00
 2.5020E+02
 2.6707E+02 5.0000E+00
 2.8910E+02 4.0000E+00
 2.9475E+02 4.0000E+00
 3.1960E+02 4.0000E+00
 3.5405E+02 5.0000E+00
 3.6250E+02 4.0000E+00
 3.7130E+02 5.0000E+00
 4.0260E+02 5.0000E+00
 4.1190E+02 4.0000E+00
 4.2290E+02 5.0000E+00
ENDDATA             34
ENDSUBENT           41
ENDENTRY             2
