ENTRY            M0330     910607              20050926       0000
SUBENT        M0330001     910607              20050926       0000
BIB                 13         19
TITLE      DECAY OF O-16 GIANT DIPOLE STATES TO EXCITED STATES OF
           O-15.
AUTHOR     (P.F.YERGIN,R.H.AUGUSTSON,N.N.KAUSHAL,H.A.MEDICUS,
           W.R.MOYER,E.J.WINHOLD)
INSTITUTE  (1USARPI)
REFERENCE  (J,PRL,12,(26),733,64)
FACILITY   (LINAC).THE ONE-AMPERE ELECTRON-BEAM PULSE WAS 10 NSEC
           LONG, AND THE OVER-ALL TIME RESOLUTION WAS 16 NSEC.
INC-SOURCE (BRST)
METHOD     (TOF).FLIGHT PATH=100M.
DETECTOR   (SCIN).THE NEUTRON DETECTOR CONSISTS OF 5 INCHES THICK
           BY 20 INCHES DIAMETER LIQUID SCINTILLATOR.
CORRECTION THE DATA WERE CORRECTED FOR THE DETECTOR EFFICIENCY.
ERR-ANALYS (DATA-ERR) STATISTICAL ERRORS ARE PRESENTED.
PART-DET   (N) ENERGY RESOLUTION FOR 1.5 MEV NEUTRONS IS 8.5 KEV.
STATUS     (CURVE)
HISTORY    (881004C).DATA WERE COMPILED IN SCJAD OF SARATOV STATE
           UNIVERSITY.
           (910202A) CORRECTED BY V.VARLAMOV, V.MCLANE
ENDBIB              19
COMMON               3          3
EN-MAX     ANG        E-RSL
MEV        ADEG       KEV
35.        90.        8.5
ENDCOMMON            3
ENDSUBENT           26
SUBENT        M0330002     881004              20050926       0000
BIB                  2          4
REACTION   (8-O-16(G,N)8-O-15,,DA/DE,,BRS/REL)
ADD-RES    THE BRANCHING RATIOS FOR THE NEUTRON DECAYS AT 90
            DEGREES FROM 22.2 AND 24.3 MEV LEVELS TO THE GROUND
            STATE AND THE TWO LOWERST EXCITED STATES WERE OBTAINED
ENDBIB               4
NOCOMMON             0          0
DATA                 3        136
E          DATA       DATA-ERR
MEV        ARB-UNITS  ARB-UNITS
1.03       16.29
1.10       16.82
1.16       17.72
1.19       18.77
1.21       19.15
1.24       19.60
1.25       20.75
1.27       22.76
1.31       16.95
1.33       20.12
1.36       17.59
1.39       24.21
1.41       21.55
1.43       19.68
1.44       17.95
1.47       23.51
1.50       28.46
1.54       29.21
1.61       17.14
1.62       15.79
1.64       18.03
1.67       14.87
1.71       14.12
1.79       15.49      0.5
1.80       12.17
1.82       13.97
1.85       13.14
1.88       12.17
1.91        8.42
1.96        9.62
2.00       11.72
2.06       10.82      0.9
2.13       12.31
2.17       11.72
2.21       14.40
2.24       13.25
2.30       13.06
2.36       14.70
2.41       14.20
2.46       14.12
2.51       12.32
2.54       13.52
2.60       12.32
2.69       12.54
2.72       13.52
2.81       12.69
2.86       11.42
2.90       13.74
2.96       14.35      0.9
3.01       14.27
3.04       14.49
3.13       16.29
3.19       17.05
3.23       18.47
3.25       16.65
3.28       14.72
3.34       13.07
3.39       13.67
3.44       13.07
3.49       14.57
3.56       13.55
3.63       13.44      0.6
3.69       12.39
3.77       10.59
3.89        8.64
4.00        7.06
4.05        7.96
4.12        8.49
4.20        8.41
4.32       10.59
4.42        9.01
4.50       10.29      0.7
4.57       10.97
4.66       12.17
4.75       14.27
4.81       15.47
4.88       15.54
4.92       16.22
4.98       16.44
5.02       16.82
5.08       15.62
5.14       15.69
5.19       13.67
5.22       11.87
5.28       11.87
5.34       12.24
5.39       12.39
5.41       14.04
5.46       14.04
5.51       15.54
5.56       16.89
5.62       18.03
5.69       21.03
5.75       20.27
5.79       20.15
5.82       24.63
5.89       24.03
5.92       27.41
5.96       29.89
6.01       31.92
6.06       34.10
6.08       34.92      0.5
6.14       35.01
6.21       34.47
6.27       33.04
6.33       30.79
6.39       26.59
6.48       19.83
6.57       15.02
6.63       10.22
6.69       10.07
6.77       12.32
6.84       14.42
6.92       16.82      0.9
7.00       14.95
7.07       13.97
7.15       11.79
7.24       10.07
7.31        9.01
7.43        9.38      0.6
7.50        8.93
7.59        9.83
7.67       12.02
7.77       13.89
7.86       16.59
7.94       21.25
8.06       21.33      0.9
8.13       22.38
8.23       21.55
8.34       17.79
8.44       15.02
8.53       12.77
8.64       12.39
8.75       12.09
8.85       13.52
8.95       13.07      0.6
ENDDATA            138
ENDSUBENT          147
ENDENTRY             2
