ENTRY            M0398   20161007   20170302   20170221       M086
SUBENT        M0398001   20161007   20170302   20170221       M086
BIB                 12         18
TITLE      The photoneutron cross sections of La-139 and Pr-141.
AUTHOR     (T.K.Deague,R.J.J.Stewart)
INSTITUTE  (3AULAML)
REFERENCE  (J,NP/A,191,305,1972)
FACILITY   (BETAT,3AULAML)
INC-SOURCE (BRST)
DETECTOR   (BF3) 4PI Halpern-type neutron detector.
METHOD     (EXTB)
SAMPLE     Natural (virtually mono-isotopic: Pr-141 abundance is
            near 100 percents,  that of La-139  (99.9 percents)
            targets of La and Pr metals were used.
ANALYSIS   (UNFLD,PLA) The  variable-bin Penfold-Leiss unfolding
            method was used for  obtaining  cross  section  data
            from experimental yield curve.
ERR-ANALYS (DATA-ERR) Mean root-square errors are given.
HISTORY    (19930421C)
           (20161007A) Corrected by V.Varlamov: dates, ANALYSIS,
            ERR-ANALYS, STATUS, DATA, lowercase.
ENDBIB              18
NOCOMMON             0          0
ENDSUBENT           21
SUBENT        M0398002   20161007   20170302   20170221       M086
BIB                  4          6
REACTION   (59-PR-141(G,X)0-NN-1,,SIG,,BRS)
COMMENT    The (g,xn) = ((g,n) + (g,np) + 2(g,2n) +... ) reaction
            cross section was obtained.  The threshold  of (g,np)
            reaction is 14.4 MeV, that for (g,2n) - 17.3 MeV.
STATUS     (CURVE) Data from Fig. 1.
HISTORY    (20161007A) Corrected by V.Varlamov: STATUS.
ENDBIB               6
COMMON               1          3
ANAL-STEP
MEV
  0.1
ENDCOMMON            3
DATA                 3        119
EN         DATA       DATA-ERR
MEV        MB         MB
     9.305     5.839     1.000
     9.423     5.810     1.234
     9.542     7.832     1.470
     9.662    11.910     1.708
     9.841    20.070     2.064
    10.020    34.380     2.419
    10.080    36.420     2.538
    10.260    38.430     2.895
    10.320    34.310     3.014
    10.440    38.390     3.252
    10.500    38.370     3.371
    10.620    40.390     3.609
    10.730    40.370     3.828
    10.850    44.440     4.066
    10.860    44.440     4.086
    11.030    50.550     4.423
    11.090    56.690     4.542
    11.210    52.560     4.780
    11.270    54.590     4.899
    11.390    58.670     5.137
    11.450    58.650     5.256
    11.510    58.640     5.375
    11.570    56.570     5.494
    11.630    66.820     5.614
    11.810    66.770     5.971
    11.870    72.910     6.090
    12.050    79.020     6.447
    12.170    87.200     6.685
    12.220    83.080     6.784
    12.280    87.170     6.903
    12.350    95.360     7.042
    12.520    97.370     7.380
    12.640    97.340     7.618
    12.760   111.700     7.856
    12.890   128.100     8.114
    12.940   126.000     8.213
    13.060   128.000     8.451
    13.180   125.900     8.689
    13.240   138.200     8.808
    13.360   152.600     9.046
    13.430   171.000     9.185
    13.670   197.600     9.661
    13.850   211.900    10.019
    14.030   203.700    10.376
    14.040   257.000    10.396
    14.220   259.000    10.753
    14.330   263.100    10.971
    14.400   285.600    11.110
    14.520   279.500    11.348
    14.630   279.400    11.566
    14.760   299.900    11.824
    14.820   322.500    11.943
    14.880   332.700    12.062
    15.060   328.600    12.420
    15.120   334.700    12.539
    15.250   377.700    12.797
    15.370   402.300    13.035
    15.490   404.300    13.273
    15.540   361.300    13.372
    15.600   363.300    13.491
    15.710   346.900    13.709
    15.770   330.400    13.828
    15.890   314.000    14.067
    16.000   309.900    14.285
    16.120   324.200    14.523
    16.180   311.900    14.642
    16.300   320.000    14.880
    16.420   318.000    15.118
    16.430   281.000    15.138
    16.530   287.200    15.337
    16.590   272.800    15.456
    16.770   268.700    15.813
    16.880   229.700    16.031
    16.990   225.500    16.249
    17.050   207.000    16.368
    17.170   209.100    16.606
    17.220   174.200    16.706
    17.340   182.400    16.944
    17.460   176.200    17.182
    17.510   157.700    17.281
    17.570   139.200    17.400
    17.630   133.100    17.519
    17.740   128.900    17.738
    17.800   124.800    17.857
    17.920   124.800    18.095
    18.040   112.400    18.333
    18.160   112.400    18.571
    18.210   102.100    18.670
    18.330   116.500    18.908
    18.450   116.400    19.146
    18.460   116.400    19.166
    18.570   100.000    19.385
    18.690    99.980    19.623
    18.750    97.920    19.742
    18.860    91.730    19.960
    18.920    91.720    20.079
    19.100    95.780    20.436
    19.160    83.460    20.555
    19.390    77.250    21.012
    19.450    77.230    21.131
    19.570    81.310    21.369
    19.750    75.110    21.726
    19.810    73.040    21.845
    19.930    73.020    22.083
    20.040    72.990    22.301
    20.160    77.060    22.540
    20.170    70.910    22.559
    20.340    62.660    22.897
    20.400    70.850    23.016
    20.520    72.870    23.254
    20.570    58.500    23.353
    20.640    66.690    23.492
    20.750    68.710    23.710
    20.810    64.600    23.829
    20.990    66.600    24.186
    21.050    60.440    24.306
    21.170    62.460    24.544
    21.230    62.450    24.663
    21.400    60.350    25.000
ENDDATA            121
ENDSUBENT          136
SUBENT        M0398003   20161007   20170302   20170221       M086
BIB                  4          7
REACTION   (59-PR-141(G,X)0-NN-1,,SIG,,BRS)
COMMENT    The (g,xn) = ((g,n) + (g,np) + 2(g,2n) + ...) reaction
            cross section was obtained.  The threshold  of (g,np)
            reaction is 14.4 MeV, that for (g,2n) - 17.3 MeV.
STATUS     (CURVE) Data from Fig. 2.
HISTORY    (20161007A) Corrected by V.Varlamov: STATUS,
            DATA substituted.
ENDBIB               7
COMMON               1          3
ANAL-STEP
MEV
  0.05
ENDCOMMON            3
DATA                 3        157
EN         DATA       DATA-ERR
MEV        MB         MB
     9.260     2.80     2.80
     9.273     2.80     2.80
     9.301    13.12     0.70
     9.342    12.46     0.77
     9.383    16.85     0.85
     9.424    16.85     0.92
     9.465    16.85     0.91
     9.493    20.60     0.92
     9.520    22.53     0.92
     9.547    20.66     0.93
     9.575    24.56     0.94
     9.643    24.39     0.93
     9.712    28.16     0.95
     9.793    35.65     0.95
     9.862    40.49     0.94
     9.943    45.05     0.94
    10.010    46.95     1.13
    10.080    49.90     1.86
    10.140    48.77     2.08
    10.200    50.53     1.67
    10.230    50.73     1.60
    10.290    48.77     2.79
    10.330    51.55     2.23
    10.370    48.82     2.72
    10.400    52.59     2.54
    10.450    48.87     2.60
    10.510    52.09     2.98
    10.570    52.58     3.92
    10.630    60.25     3.31
    10.670    56.17     2.21
    10.730    56.33     2.43
    10.750    56.36     2.29
    10.820    59.91     2.42
    10.880    56.37     2.76
    10.890    60.09     2.98
    11.000    60.69     3.57
    11.030    63.85     3.58
    11.080    67.65     3.46
    11.140    68.28     2.63
    11.190    73.56     3.33
    11.230    72.82     3.19
    11.290    70.68     3.27
    11.340    67.65     3.56
    11.360    71.36     2.06
    11.410    70.67     2.44
    11.450    67.63     3.79
    11.510    69.48     2.42
    11.550    78.87     2.82
    11.630    76.99     3.19
    11.640    75.88     2.63
    11.730    84.21     4.64
    11.810    90.14     3.68
    11.890    90.15     3.79
    11.920   106.89     5.63
    11.970    97.64     4.19
    12.010    90.15     5.63
    12.050    88.29     3.81
    12.100    86.35     4.17
    12.140   107.89     5.63
    12.230    99.38     6.00
    12.230   106.87     4.54
    12.290    96.34     4.16
    12.330   105.16     4.88
    12.380   107.34     4.53
    12.440   105.16     5.23
    12.480   112.68     6.39
    12.600   108.93     6.19
    12.620   116.43     6.38
    12.660   119.44     6.40
    12.710   119.90     6.57
    12.740   126.69     6.38
    12.750   123.64     7.57
    12.830   137.58     6.38
    12.920   131.46     5.64
    12.940   137.31     7.53
    13.000   135.21     7.88
    13.050   138.53     6.00
    13.090   137.58     6.76
    13.150   162.78     9.43
    13.220   153.99     8.34
    13.270   169.01     8.63
    13.340   161.50     8.33
    13.380   197.79     9.31
    13.410   165.25     9.35
    13.470   184.04     9.20
    13.520   169.01     9.09
    13.570   184.04     9.39
    13.610   195.31     9.39
    13.650   206.59    11.00
    13.710   195.31     9.46
    13.730   189.67    10.14
    13.830   214.08    12.02
    13.870   213.93    11.27
    13.920   215.96    11.25
    13.980   229.11    11.27
    14.000   268.88    12.39
    14.060   229.11    11.83
    14.110   244.13    12.50
    14.160   237.98    12.50
    14.210   259.15    13.15
    14.250   258.63    14.06
    14.300   266.67    13.89
    14.360   276.06    13.89
    14.400   281.69    14.27
    14.450   285.45    15.00
    14.490   275.57    15.02
    14.570   315.50    15.40
    14.630   285.45    15.55
    14.670   319.25    17.65
    14.720   307.98    16.15
    14.750   330.05    16.90
    14.810   309.86    17.05
    14.860   341.78    15.02
    14.900   315.49    19.91
    14.940   338.03    18.78
    15.000   326.77    20.66
    15.050   341.78    19.53
    15.100   349.41    15.02
    15.170   349.30    28.17
    15.200   364.31    21.78
    15.220   394.36    21.78
    15.290   371.42    22.54
    15.330   392.11    20.66
    15.370   404.54    23.29
    15.440   392.15    23.10
    15.490   349.30    25.54
    15.520   350.76    19.72
    15.570   401.87    19.53
    15.630   347.50    26.29
    15.650   356.80    20.85
    15.710   335.15    22.54
    15.750   336.15    22.33
    15.810   353.05    22.35
    15.880   304.23    22.54
    15.910   313.60    18.78
    16.000   281.70    18.78
    16.060   313.16    19.72
    16.100   321.43    19.92
    16.140   342.49    20.66
    16.190   319.25    19.15
    16.260   317.30    21.41
    16.310   349.30    20.85
    16.340   349.00    21.78
    16.390   333.82    22.54
    16.440   313.16    23.29
    16.470   277.93    22.35
    16.510   281.69    18.55
    16.550   283.56    18.96
    16.610   287.32    20.85
    16.670   274.18    18.78
    16.740   255.40    19.91
    16.750   223.50    20.85
    16.810   232.86    16.90
    16.860   223.47    16.90
    16.920   235.18    16.68
    16.960   234.74    17.28
    16.98    225.35    16.87
ENDDATA            159
ENDSUBENT          175
SUBENT        M0398004   20161007   20170302   20170221       M086
BIB                  4          7
REACTION   (57-LA-139(G,X)0-NN-1,,SIG,,BRS)
COMMENT    The (g,xn) = ((g,n) + (g,np) + 2(g,2n) + ...) reaction
            cross section was obtained.  The threshold  of (g,np)
            reaction is 14.8 MeV, that for (g,2n) - 15.2 MeV.
STATUS     (CURVE) Data from Fig. 1.
HISTORY    (20161007A) Corrected by V.Varlamov: STATUS, DATA-ERR
            added.
ENDBIB               7
COMMON               1          3
ANAL-STEP
MEV
  0.1
ENDCOMMON            3
DATA                 3        171
EN         DATA       DATA-ERR
MEV        MB         MB
     8.044     8.11     0.96
     8.126     4.81     1.00
     8.127     -.05     1.00
     8.252     1.50     1.00
     8.336     1.47     1.12
     8.422     6.30     1.12
     8.506     7.89     1.19
     8.632     7.83     1.37
     8.718    12.68     1.37
     8.888    19.10     1.37
     9.058    27.15     1.37
     9.145    35.24     1.37
     9.229    35.20     1.92
     9.313    36.79     2.19
     9.355    35.15     1.64
     9.525    41.57     2.74
     9.565    35.05     1.37
     9.651    41.51     3.01
     9.735    43.10     4.11
     9.861    43.04     2.61
     9.946    46.25     2.74
    10.030    51.09     4.11
    10.120    54.31     3.28
    10.200    52.64     4.10
    10.280    54.23     3.01
    10.410    54.17     3.56
    10.540    63.87     4.38
    10.620    62.20     4.14
    10.700    54.03     4.25
    10.750    58.89     4.93
    10.920    62.07     2.73
    11.000    65.28     4.14
    11.050    70.14     5.03
    11.170    68.45     4.38
    11.340    83.01     3.29
    11.430    86.22     4.93
    11.510    74.80     5.48
    11.600    99.15     5.75
    11.770    94.19     4.93
    11.810   105.60     5.23
    11.940   108.70     5.48
    12.020   110.30     5.48
    12.070   121.70     8.22
    12.200   136.30     6.85
    12.320   126.50     8.77
    12.450   132.90     6.90
    12.540   145.90    10.96
    12.580   145.90    10.96
    12.620   139.30     8.22
    12.710   155.50     9.59
    12.840   175.00     9.58
    13.010   178.20    12.16
    13.060   192.80    12.33
    13.190   210.60    11.51
    13.270   218.70    11.07
    13.360   210.50    11.51
    13.440   215.40    15.07
    13.620   254.30    12.33
    13.780   229.80    13.69
    13.880   259.10    16.44
    14.010   273.60    17.81
    14.090   289.90    19.18
    14.210   255.70    15.21
    14.330   362.90    17.81
    14.490   335.20    24.66
    14.530   336.80    19.19
    14.580   361.20    19.18
    14.660   359.50    19.19
    14.800   403.40    21.91
    14.860   326.90    20.55
    14.920   385.40    17.97
    15.050   395.10    24.66
    15.160   354.40    22.14
    15.220   399.90    23.29
    15.370   420.90    19.18
    15.480   333.20    26.03
    15.550   377.00    24.90
    15.660   334.70    24.66
    15.670   367.20    21.92
    15.830   337.80    27.42
    15.870   316.70    24.66
    16.010   368.70    21.92
    16.130   354.00    21.92
    16.210   337.70    23.51
    16.290   313.20    24.66
    16.360   274.20    21.92
    16.440   279.00    17.97
    16.530   298.50    17.81
    16.630   331.00    19.19
    16.800   225.20    13.70
    16.880   207.30    14.24
    16.890   225.20    20.55
    17.020   252.70    16.44
    17.180   231.50    16.16
    17.260   218.50    16.44
    17.350   224.90    19.18
    17.460   187.50    16.44
    17.520   215.10    16.60
    17.680   211.80    16.60
    17.730   229.60    15.21
    17.800   195.50    15.75
    17.920   177.50    17.84
    18.050   180.70    17.81
    18.090   182.30    16.71
    18.170   161.20    14.93
    18.250   141.60    12.47
    18.420   156.20    12.47
    18.550   164.20    10.96
    18.630   160.90    11.78
    18.710   141.40    13.69
    18.930   164.10    13.70
    19.050   165.60    11.78
    19.130   154.20    13.69
    19.210   129.80    12.44
    19.250   129.80    16.44
    19.340   129.70    13.69
    19.420   139.40    12.33
    19.590   134.50    13.69
    19.680   147.40    13.70
    19.750   123.00    12.33
    19.840   152.20    12.15
    19.930   129.50    15.21
    20.050   119.60    13.68
    20.090   114.70    12.33
    20.170   118.00    10.41
    20.260   113.00    15.21
    20.380   116.20    12.16
    20.430   124.30    11.89
    20.600   129.10    10.96
    20.650   155.10    13.84
    20.840   104.60    13.69
    20.970   101.30    12.33
    20.970   114.30    14.25
    21.050   115.90    12.33
    21.180   114.20    12.16
    21.260   102.80    12.36
    21.390   101.10    12.33
    21.470   110.80     9.59
    21.640   112.40     9.58
    21.760    96.08     9.57
    21.850   105.80    12.33
    21.890    91.14    11.78
    21.930   102.50     9.86
    22.090    60.15     9.58
    22.170    68.24     8.77
    22.170    69.87     9.04
    22.300    61.68     8.22
    22.340    69.79     8.00
    22.430    97.39     7.81
    22.560    98.96     5.48
    22.770   100.50     8.22
    22.900    93.93     9.40
    22.940   103.70     9.12
    23.020    84.11    10.96
    23.060    97.10    10.14
    23.230    97.02    10.96
    23.320   103.50     8.77
    23.440    98.55    10.96
    23.520    80.63     9.67
    23.530    96.89    13.70
    23.740    98.42     9.12
    23.770    75.64     20.0
    23.800    71.40     9.59
    23.848    79.45     6.85
    23.919    79.45     7.12
    24.050   106.84     8.49
    24.195    95.89     8.30
    24.319    68.49    10.14
    24.391    75.95     9.12
    24.426    76.36     8.49
    24.462    71.23     8.22
ENDDATA            173
ENDSUBENT          189
ENDENTRY             4
