ENTRY            21324     801103
SUBENT        21324001     801103              20050926       0000
BIB                 13         18
INSTITUTE  (2GERKFK)
REFERENCE  (J,NUK,6,371,6412) GRAPHS.
           (P,EANDC(E)-57U,,6502) ABSTRACT.
AUTHOR     (F.MITZEL,H.S.PLENDL)
TITLE      -MEASUREMENTS OF (N,GAMMA) CROSS SECTIONS AND
            RESONANCE INTEGRALS WITH A SLOWING DOWN SPECTROMETER-
FACILITY   (CCW  ) COCKCROFT-WALTON ACCELERATOR.
INC-SOURCE (D-T  ) DEUTERIUM BEAM ON TRITIUM TARGET.
SAMPLE     .NATURAL ABUNDANCE MATERIALS.
METHOD     (SLODT) SLOWING DOWN SPECTROMETER.
DETECTOR   (PROPC) GAMMA PROPORTIONAL COUNTER, NEUTRON FLUX
            MONITORED BY B-F3 PROPORTIONAL COUNTER.
STATUS     .DIFFERENTIAL CROSS SECTIONS FROM NEUDADA, RESONANCE
            PARAMETERS FROM ORIGINAL TEXT.
HISTORY    (800204C)
           (800213E)
CORRECTION .CORRECTED FOR NEUTRON SCATTERING AND CAPTURE IN LEAD.
ERR-ANALYS .ONE STANDARD DEVIATION, NO DETAILS.
ENDBIB              18
NOCOMMON             0          0
ENDSUBENT           21
SUBENT        21324002     800213              20050926       0000
BIB                  4          6
REACTION   (26-FE-0(N,G),,SIG) CAPTURE CROSS SECTION.
COMMENT    .EXTRAPOLATED TO ZERO SAMPLE THICKNESS, RESONANCES
            BELOW 600EV PROBABLY DUE TO IMPURITIES OF CO,MO AND
            MN.
STATUS     (NDD  )
HISTORY    (800204T)
ENDBIB               6
COMMON               2          3
EN-RSL     DATA-ERR
PER-CENT   PER-CENT
 2.0000E+01 1.0000E+01
ENDCOMMON            3
DATA                 2         34
EN         DATA
MEV        B
 8.0000E-05 5.0000E-02
 9.0000E-05 4.7000E-02
 1.0000E-04 4.7000E-02
 1.1000E-04 5.0000E-02
 1.2000E-04 5.5000E-02
 1.4000E-04 6.4000E-02
 1.6000E-04 6.9000E-02
 1.8000E-04 4.9000E-02
 2.2000E-04 2.8000E-02
 2.8000E-04 4.6000E-02
 3.0000E-04 8.9000E-02
 3.3000E-04 1.0500E-01
 3.5000E-04 1.0500E-01
 4.0000E-04 6.1000E-02
 5.0000E-04 2.5800E-02
 6.0000E-04 2.1700E-02
 7.0000E-04 2.1900E-02
 8.0000E-04 3.6700E-02
 9.0000E-04 6.3000E-02
 1.0000E-03 1.2600E-01
 1.2000E-03 2.3000E-01
 1.6000E-03 5.0000E-02
 2.0000E-03 9.4000E-03
 3.0000E-03 5.7000E-03
 4.0000E-03 8.0000E-03
 5.0000E-03 1.2400E-02
 6.0000E-03 1.2600E-02
 6.6000E-03 1.2700E-02
 7.0000E-03 1.3300E-02
 8.0000E-03 8.9000E-03
 9.0000E-03 6.6000E-03
 1.0000E-02 5.3000E-03
 1.4000E-02 4.5000E-03
 2.0000E-02 4.1000E-03
ENDDATA             36
ENDSUBENT           51
SUBENT        21324003     800213              20050926       0000
BIB                  4          4
REACTION   (42-MO-0(N,G),,SIG) CAPTURE CROSS SECTION.
COMMENT    .EXTRAPOLATED TO ZERO FOIL THICKNESS.
STATUS     (NDD  )
HISTORY    (800204T)
ENDBIB               4
COMMON               2          3
EN-RSL     DATA-ERR
PER-CENT   PER-CENT
 2.0000E+01 1.0000E+01
ENDCOMMON            3
DATA                 2         47
EN         DATA
MEV        B
 8.0000E-05 8.6000E-01
 9.0000E-05 1.0200E+00
 1.0000E-04 1.3400E+00
 1.0000E-04 1.4800E+00
 1.1500E-04 1.9000E+00
 1.2300E-04 2.3600E+00
 1.3000E-04 2.0500E+00
 1.3400E-04 2.6800E+00
 1.6000E-04 1.6600E+00
 1.6700E-04 1.7500E+00
 2.0000E-04 1.0000E+00
 2.0000E-04 1.0300E+00
 2.2500E-04 7.9000E-01
 2.4000E-04 8.7000E-01
 2.4500E-04 8.3000E-01
 2.6000E-04 9.2000E-01
 2.8000E-04 1.0700E+00
 3.0000E-04 1.1400E+00
 3.1000E-04 1.4000E+00
 3.5000E-04 1.8800E+00
 3.5000E-04 3.3600E+00
 4.0000E-04 2.1600E+00
 4.0000E-04 8.9000E+00
 4.4000E-04 1.5000E+01
 4.4500E-04 2.1900E+00
 5.0000E-04 2.0800E+00
 5.0000E-04 1.2900E+01
 5.2000E-04 1.0300E+01
 6.0000E-04 1.7000E+00
 6.0000E-04 5.9000E+00
 7.0000E-04 1.4500E+00
 7.0000E-04 3.4000E+00
 8.0000E-04 1.2400E+00
 8.0000E-04 2.4000E+00
 9.0000E-04 1.0700E+00
 9.0000E-04 1.9000E+00
 1.0000E-03 9.4000E-01
 1.1000E-03 8.3000E-01
 1.3700E-03 7.1000E-01
 1.6400E-03 6.6000E-01
 2.0000E-03 5.9000E-01
 3.0000E-03 5.2000E-01
 4.2500E-03 4.9000E-01
 6.0000E-03 4.1000E-01
 8.7000E-03 3.0300E-01
 1.4500E-02 1.7600E-01
 2.8600E-02 1.2600E-01
ENDDATA             49
ENDSUBENT           62
SUBENT        21324004     800213              20050926       0000
BIB                  6          7
REACTION  1(42-MO-0(N,EL),,WID,,2G)
          2(42-MO-0(N,EL),,WID/RED,,2G)
ANALYSIS   (AREA ) AREA ANALYSIS.
ASSUMED    (ASSUM,42-MO-0(N,G),,WID) ASSUMED VALUE 0.26 EV.
COMMENT    .VALUE FOR 1 MM THICK SAMPLE.
STATUS     (NDD  )
HISTORY    (800204T)
ENDBIB               7
COMMON               1          3
ASSUM
EV
 2.6000E-01
ENDCOMMON            3
DATA                 3          1
EN-RES     DATA      1DATA      2
EV         MILLI-EV   MILLI-EV
 1.2000E+01 2.5400E-03 7.4000E-04
ENDDATA              3
ENDSUBENT           19
SUBENT        21324005     800213              20050926       0000
BIB                  4          4
REACTION   (47-AG-0(N,G),,SIG) CAPTURE CROSS SECTION.
COMMENT    .EXTRAPOLATED TO ZERO SAMPLE THICKNESS.
STATUS     (NDD  )
HISTORY    (800204T)
ENDBIB               4
COMMON               2          3
EN-RSL     DATA-ERR
PER-CENT   PER-CENT
 2.0000E+01 1.0000E+01
ENDCOMMON            3
DATA                 2         54
EN         DATA
MEV        B
 2.5000E-05 2.6300E+01
 3.0000E-05 3.5500E+01
 3.3000E-05 4.4500E+01
 3.6000E-05 3.9500E+01
 3.8000E-05 4.0000E+01
 4.0000E-05 4.4000E+01
 4.3000E-05 5.3000E+01
 4.5000E-05 5.9800E+01
 4.9000E-05 6.1000E+01
 5.5000E-05 5.6000E+01
 5.7000E-05 5.2500E+01
 6.0000E-05 5.1000E+01
 6.5000E-05 4.0000E+01
 7.0000E-05 3.2500E+01
 7.5000E-05 2.9700E+01
 8.5000E-05 2.5000E+01
 8.5000E-05 2.8500E+01
 9.0000E-05 1.5400E+01
 9.4000E-05 1.1000E+01
 1.0000E-04 9.3000E+00
 1.1000E-04 1.1400E+01
 1.2000E-04 1.5300E+01
 1.2500E-04 1.6900E+01
 1.3500E-04 1.8500E+01
 1.4000E-04 1.8400E+01
 1.5000E-04 1.3600E+01
 1.6000E-04 1.7500E+01
 1.8000E-04 1.6000E+01
 2.0000E-04 1.1600E+01
 2.2000E-04 8.9000E+00
 2.3500E-04 9.2000E+00
 2.5000E-04 1.0000E+01
 2.6000E-04 1.0500E+01
 3.0000E-04 1.0900E+01
 3.2000E-04 1.0400E+01
 3.4000E-04 1.0200E+01
 3.6500E-04 9.7000E+00
 4.0000E-04 1.0000E+01
 4.6000E-04 1.0200E+01
 5.1000E-04 1.0400E+01
 6.3000E-04 7.9000E+00
 7.2000E-04 6.6000E+00
 8.2000E-04 5.9000E+00
 9.4000E-04 5.5000E+00
 1.0800E-03 5.1000E+00
 1.2500E-03 4.6000E+00
 1.5000E-03 4.2000E+00
 1.8400E-03 3.8000E+00
 2.2800E-03 3.5000E+00
 2.8500E-03 3.1000E+00
 3.7500E-03 2.7500E+00
 5.0000E-03 2.5000E+00
 7.2000E-03 2.2000E+00
 2.0000E-02 1.6750E+00
ENDDATA             56
ENDSUBENT           69
ENDENTRY             5
