ENTRY            21229   19800908              20050926       0000
SUBENT        21229001   19800908              20050926       0000
BIB                 11         12
INSTITUTE  (2GERBER)
REFERENCE  (J,AKE,14,370,6910) SHORT LETTER ONLY, GRAPH.
AUTHOR     (P.VORDERWISCH,K.WASERROTH)
TITLE      -TOTAL (N,P) CROSS SECTION OF YTTRIUM HYDRIDE-.
FACILITY   (VDG  ) VAN DER GRAAFF.
INC-SOURCE (D-D  ) DEUTERIUM BEAM ON DEUTERIUM TARGET.
METHOD     (TOF  ) TIME OF FLIGHT.
DETECTOR   .NO DETAILS.
STATUS     (NDD  )
HISTORY    (800110T)
           (800118E)
ERR-ANALYS .NO DETAILS.
ENDBIB              12
NOCOMMON             0          0
ENDSUBENT           15
SUBENT        21229002   19800118              20050926       0000
BIB                  3          4
REACTION   (1-H-1(N,EL)1-H-1,,SIG) TOTAL (N,P) SCATTERING CROS
            SECTION IN YTTRIUM HYDRIDE.
SAMPLE     .YTTRIUM HYDRIDE WITH COMPOSITION RATIO 1 TO 2.80
STATUS     (NDD  )
ENDBIB               4
COMMON               1          3
EN-RSL
PER-CENT
 6.0000E+00
ENDCOMMON            3
DATA                 2         72
EN         DATA
MEV        B
 5.0100E-08 4.0090E+01
 5.1100E-08 3.9700E+01
 5.2000E-08 3.9300E+01
 5.3100E-08 3.9080E+01
 5.4100E-08 3.8500E+01
 5.5200E-08 3.8040E+01
 5.6300E-08 3.7730E+01
 5.7500E-08 3.7450E+01
 5.8600E-08 3.6990E+01
 5.9900E-08 3.6800E+01
 6.1100E-08 3.6310E+01
 6.2400E-08 3.6060E+01
 6.3800E-08 3.5830E+01
 6.5100E-08 3.5270E+01
 6.6600E-08 3.4740E+01
 6.8000E-08 3.4540E+01
 6.9600E-08 3.4130E+01
 7.1200E-08 3.3520E+01
 7.2800E-08 3.3200E+01
 7.4500E-08 3.3000E+01
 7.6200E-08 3.2510E+01
 7.8000E-08 3.1990E+01
 7.9900E-08 3.1570E+01
 8.1900E-08 3.1200E+01
 8.3900E-08 3.0900E+01
 8.6000E-08 3.0740E+01
 8.8200E-08 3.0170E+01
 9.0400E-08 3.0130E+01
 9.2800E-08 2.9590E+01
 9.5200E-08 2.9290E+01
 9.7700E-08 2.9040E+01
 1.0040E-07 2.8650E+01
 1.0310E-07 2.8470E+01
 1.0600E-07 2.8140E+01
 1.0890E-07 2.7860E+01
 1.1200E-07 2.7460E+01
 1.1500E-07 2.7370E+01
 1.1900E-07 2.7020E+01
 1.2200E-07 2.6790E+01
 1.2600E-07 2.6740E+01
 1.3000E-07 2.6330E+01
 1.3400E-07 2.6440E+01
 1.3800E-07 2.6090E+01
 1.4300E-07 2.5910E+01
 1.4700E-07 2.5950E+01
 1.5200E-07 2.5890E+01
 1.5700E-07 2.5830E+01
 1.6300E-07 2.5890E+01
 1.6800E-07 2.5750E+01
 1.7400E-07 2.5680E+01
 1.8100E-07 2.5470E+01
 1.8700E-07 2.5310E+01
 1.9400E-07 2.5330E+01
 2.0200E-07 2.5210E+01
 2.1000E-07 2.4860E+01
 2.1800E-07 2.4960E+01
 2.2700E-07 2.4430E+01
 2.3600E-07 2.4580E+01
 2.4600E-07 2.3910E+01
 2.5700E-07 2.3670E+01
 2.6800E-07 2.3480E+01
 2.8100E-07 2.3590E+01
 2.9400E-07 2.3210E+01
 3.0800E-07 2.3170E+01
 3.2300E-07 2.2990E+01
 3.3900E-07 2.2770E+01
 3.5600E-07 2.3160E+01
 3.7500E-07 2.2820E+01
 3.9500E-07 2.2510E+01
 4.1700E-07 2.2640E+01
 4.4000E-07 2.2400E+01
 4.6600E-07 2.2460E+01
ENDDATA             74
ENDSUBENT           87
ENDENTRY             2
