ENTRY            21279     860915
SUBENT        21279001     860915              20050926       0000
BIB                 12         16
INSTITUTE  (2UK HAR)
REFERENCE  (W,FIRK,58) NUMERICAL VALUES.
AUTHOR     (F.W.K.FIRK)
TITLE      -THE TOTAL CROSS SECTION AND RESONANCE PARAMETERS OF
            MN-55 AND RH-103 -.
FACILITY   (LINAC) LINEAR ACCELERATOR.
INC-SOURCE (PHOTO) ELECTRON BEAM ON TA TARGET.
METHOD     (TOF  ) TIME OF FLIGHT.
DETECTOR   (SCIN ) SCINTILLATOR, NO DETAILS.
STATUS     (NDD  )
HISTORY    (800121T) CONVERTED FROM NEUDADA.
           (800129E)
           (860310U)N.CH
           (860416E)
CORRECTION .BACKGROUND AND SELF SHIELDING EFFECTS.
ERR-ANALYS .ONE STANDARD DEVIATION STATISTICAL ERRORS.
ENDBIB              16
NOCOMMON             0          0
ENDSUBENT           19
SUBENT        21279002     800129              20050926       0000
BIB                  4          4
REACTION   (25-MN-55(N,TOT),,SIG) TOTAL CROSS SECTION.
SAMPLE     .MN POWDERED METAL.
STATUS     (NDD  )
HISTORY    (800121T)
ENDBIB               4
COMMON               2          3
EN-RSL     DATA-ERR
MICROSEC/M PER-CENT
 1.0000E-01 2.0000E+01
ENDCOMMON            3
DATA                 2         96
EN         DATA
MEV        B
 8.3900E-04 9.1000E+00
 8.5200E-04 1.8100E+01
 8.6400E-04 1.0500E+01
 8.7700E-04 1.6500E+01
 8.9000E-04 1.6300E+01
 9.0300E-04 1.7900E+01
 9.1700E-04 1.6300E+01
 9.3100E-04 2.1200E+01
 9.4500E-04 1.8900E+01
 9.6000E-04 2.1100E+01
 9.7500E-04 2.2500E+01
 9.9000E-04 2.4200E+01
 1.0100E-03 2.9700E+01
 1.0200E-03 3.5200E+01
 1.0400E-03 6.5400E+01
 1.0500E-03 7.3600E+01
 1.0700E-03 9.3700E+01
 1.1300E-03 1.0990E+02
 1.1500E-03 3.3400E+01
 1.1700E-03 1.2600E+01
 1.1900E-03 4.1000E+00
 1.2100E-03 4.0000E+00
 1.2300E-03 4.7000E+00
 1.2500E-03 3.7000E+00
 1.2700E-03 5.6000E+00
 1.3000E-03 8.8000E+00
 1.3200E-03 5.4000E+00
 1.3400E-03 9.4000E+00
 1.3700E-03 7.3000E+00
 1.3900E-03 1.3100E+01
 1.4200E-03 1.5200E+01
 1.4500E-03 1.4300E+01
 1.4700E-03 1.3100E+01
 1.5000E-03 1.6800E+01
 1.5300E-03 1.6200E+01
 1.5600E-03 2.3800E+01
 1.5900E-03 2.5900E+01
 1.6400E-03 2.8400E+01
 1.6600E-03 2.8300E+01
 1.6900E-03 3.3700E+01
 1.7300E-03 3.8300E+01
 1.7600E-03 4.3500E+01
 1.8000E-03 5.5200E+01
 1.8400E-03 4.9400E+01
 1.8800E-03 6.7900E+01
 1.9200E-03 7.2500E+01
 1.9600E-03 9.4600E+01
 2.0000E-03 1.0080E+02
 2.0500E-03 1.4080E+02
 2.1000E-03 1.4620E+02
 2.1400E-03 1.5750E+02
 2.1900E-03 2.5460E+02
 2.2500E-03 1.6320E+02
 2.3000E-03 1.5040E+02
 2.3600E-03 1.5750E+02
 2.4100E-03 3.6900E+02
 2.4700E-03 1.6990E+02
 2.5400E-03 1.6030E+02
 2.6000E-03 1.3760E+02
 2.6700E-03 1.6030E+02
 2.7400E-03 1.7380E+02
 2.8100E-03 1.9560E+02
 2.8900E-03 9.6600E+01
 2.9600E-03 9.1800E+01
 3.0500E-03 7.9500E+01
 3.1300E-03 6.1100E+01
 3.2200E-03 4.5800E+01
 3.3100E-03 4.6500E+01
 3.4100E-03 3.8000E+01
 3.5100E-03 3.5500E+01
 3.6200E-03 3.1600E+01
 3.7300E-03 2.6200E+01
 3.8400E-03 2.4200E+01
 3.9600E-03 1.9800E+01
 4.0900E-03 1.6900E+01
 4.2200E-03 1.7300E+01
 4.3600E-03 1.4100E+01
 4.5100E-03 1.6900E+01
 4.6600E-03 1.1800E+01
 4.8200E-03 1.1600E+01
 5.0000E-03 1.1700E+01
 5.1800E-03 8.7000E+00
 5.3700E-03 8.6000E+00
 5.7800E-03 2.8000E+00
 6.0000E-03 1.7000E+01
 6.2400E-03 8.4000E+00
 6.4900E-03 7.2000E+00
 6.7600E-03 1.5900E+01
 7.0400E-03 4.2100E+01
 7.3500E-03 8.4800E+01
 7.6700E-03 5.8900E+01
 8.0100E-03 2.6300E+01
 8.3800E-03 2.0700E+01
 8.7800E-03 3.9900E+01
 9.2000E-03 8.1500E+01
 9.6600E-03 4.0100E+01
ENDDATA             98
ENDSUBENT          111
SUBENT        21279003     800129              20050926       0000
BIB                  4          4
REACTION   (45-RH-103(N,TOT),,SIG) TOTAL CROSS SECTION.
SAMPLE     .POWDERED METAL.
STATUS     (NDD  )
HISTORY    (800121T)
ENDBIB               4
COMMON               2          3
EN-RSL     DATA-ERR
MICROSEC/M PER-CENT
 1.0000E-01 2.0000E+01
ENDCOMMON            3
DATA                 2         95
EN         DATA
MEV        B
 2.9540E-05 5.3700E+00
 2.9970E-05 4.8800E+00
 3.0400E-05 5.0900E+00
 3.0870E-05 4.9600E+00
 3.1330E-05 4.7200E+00
 3.1800E-05 4.7300E+00
 3.2280E-05 4.9200E+00
 3.2780E-05 6.2100E+00
 3.3280E-05 5.8600E+00
 3.3800E-05 5.4800E+00
 3.4330E-05 6.6600E+00
 3.4880E-05 5.6600E+00
 3.5430E-05 4.6000E+00
 3.6000E-05 5.3700E+00
 3.6580E-05 4.6500E+00
 3.7180E-05 4.7700E+00
 3.7790E-05 4.8100E+00
 3.8420E-05 4.1100E+00
 3.9060E-05 4.4300E+00
 3.9720E-05 4.5900E+00
 4.0400E-05 4.7000E+00
 4.1090E-05 4.7000E+00
 4.1800E-05 4.4900E+00
 4.2550E-05 4.8000E+00
 4.3280E-05 4.7700E+00
 4.4040E-05 4.6200E+00
 4.4850E-05 4.9700E+00
 4.5660E-05 6.2400E+00
 4.6510E-05 1.6370E+01
 4.7360E-05 1.0630E+01
 4.8250E-05 5.2500E+00
 4.9140E-05 4.8000E+00
 5.0080E-05 4.4000E+00
 5.1010E-05 4.5700E+00
 5.1990E-05 4.5200E+00
 5.3010E-05 4.5200E+00
 5.4070E-05 4.5300E+00
 5.5140E-05 4.3700E+00
 5.6240E-05 4.4900E+00
 5.7390E-05 4.4900E+00
 5.8580E-05 4.2400E+00
 5.9770E-05 4.4100E+00
 6.1040E-05 4.3400E+00
 6.2320E-05 4.5200E+00
 6.3680E-05 4.5900E+00
 6.5040E-05 4.8100E+00
 6.6440E-05 4.8000E+00
 6.7930E-05 8.1600E+00
 6.9460E-05 5.5200E+00
 7.1030E-05 4.8000E+00
 7.2650E-05 4.3600E+00
 7.4310E-05 4.4700E+00
 7.6050E-05 4.4300E+00
 7.7880E-05 4.5000E+00
 7.9710E-05 4.6000E+00
 8.1660E-05 4.4000E+00
 8.3660E-05 4.4100E+00
 8.5740E-05 4.4100E+00
 8.7910E-05 4.1600E+00
 9.0120E-05 4.9300E+00
 9.2500E-05 4.7300E+00
 9.4900E-05 1.1500E+01
 9.7400E-05 7.2400E+00
 1.0000E-04 4.7800E+00
 1.0270E-04 4.6800E+00
 1.0560E-04 4.4100E+00
 1.0850E-04 4.7500E+00
 1.1180E-04 5.6100E+00
 1.1480E-04 4.9300E+00
 1.1810E-04 4.1600E+00
 1.2170E-04 4.5200E+00
 1.2530E-04 1.2120E+01
 1.2910E-04 5.4100E+00
 1.3310E-04 4.4800E+00
 1.3730E-04 4.0000E+00
 1.4170E-04 3.9300E+00
 1.4630E-04 4.5000E+00
 1.5120E-04 1.2720E+01
 1.5630E-04 1.8370E+01
 1.6160E-04 8.0200E+00
 1.6720E-04 5.8300E+00
 1.7310E-04 5.2100E+00
 1.7940E-04 5.4800E+00
 1.8600E-04 1.2610E+01
 1.9290E-04 7.1300E+00
 2.0030E-04 5.5500E+00
 2.0800E-04 4.9200E+00
 2.1630E-04 4.8700E+00
 2.2500E-04 4.8800E+00
 2.3430E-04 4.4700E+00
 2.4410E-04 4.3500E+00
 2.5460E-04 9.1200E+00
 2.6580E-04 8.0000E+00
 2.7780E-04 8.2300E+00
 2.9060E-04 7.6000E+00
ENDDATA             97
ENDSUBENT          110
SUBENT        21279004     800129              20050926       0000
BIB                  5          6
REACTION  1(45-RH-103(N,TOT),,SIG,,RES) CROSS SECTION.
          2(45-RH-103(N,TOT),,WID,,SQ/S0) TOT WIDTH * SIG**2.
SAMPLE     .METAL POWDER.
ANALYSIS   (AREA ) AREA ANALYSIS.
STATUS     (NDD  )
HISTORY    (800121T)
ENDBIB               6
NOCOMMON             0          0
DATA                 6          6
EN-RES     EN-RES-ERR DATA      1DATA-ERR  1DATA      2DATA-ERR  2
EV         EV         B          B          B*EV-SQ    B*EV-SQ
 4.6500E+01 1.0000E-01 2.2000E+01 1.5000E+00
 6.8000E+01 2.0000E+00 5.0000E+00 1.0000E+00
 9.5000E+01 2.0000E+00 5.8000E+01 1.0000E+01
 1.2500E+02 3.0000E+00                       1.0500E+02 2.5000E+01
 1.5400E+02 4.0000E+00                       3.7000E+02 3.0000E+01
 1.8600E+02 5.0000E+00                       1.4500E+02 2.5000E+01
ENDDATA              8
ENDSUBENT           19
ENDENTRY             4
