ENTRY            23597   20210323   20210625   20210603       2299
SUBENT        23597001   20210323   20210625   20210603       2299
BIB                  9         17
TITLE       A method of nondestructive measurement of the absolute
           cumulative barium-140 yield of uranium irradiated in
           thermal and fast neutron spectra
AUTHOR     (W.Krappel,H.Seufert,D.Stegemann)
REFERENCE  (J,NT,12,226,1971)
INSTITUTE  (2GERKFK)
FACILITY   (REAC,2GERKFK) STARK zero power reactor.
SAMPLE      U foils of different isotopic content.
           Diameter 1 inch.
DETECTOR   (GELI) Calibrated by irradiation of La(2)O(3) foil
            (La-139 isotopic abundance 99.911 %) and 2PI beta
            measurement. To measure gamma spectra.
           (FISCH) Parallel plate chamber to measure fission rate.
METHOD     (ACTIV) 5 hr irradiation in thermal column, 130 hr
           cooling.
           (GSPEC)
HISTORY    (20210323C)  M.M.
ENDBIB              17
NOCOMMON             0          0
ENDSUBENT           20
SUBENT        23597002   20210323   20210625   20210603       2299
BIB                  7         10
REACTION   (92-U-235(N,F)56-BA-140,CUM,FY,,MXW)
INC-SOURCE (THCOL)
SAMPLE      19.86% enriched in U-235 sample of 0.2 g/cm2 for .
INC-SPECT   Cd ratio 10000.
DECAY-DATA (56-BA-140,12.8D,DG,1596.5)
ERR-ANALYS (DATA-ERR) Relative error (2.3%) is mainly due to the
           inaccuracy of the absolute U-235 fission rate
           determination.
STATUS     (TABLE) Table 3 of
           J. Nuclear Technology,v.12,p.226,1971
ENDBIB              10
COMMON               1          3
EN-DUMMY
EV
 0.0253
ENDCOMMON            3
DATA                 3          1
DATA       DATA-ERR   DATA-ERR
PC/FIS     PC/FIS     PER-CENT
 6.29       0.14       2.3
ENDDATA              3
ENDSUBENT           22
SUBENT        23597003   20210323   20210625   20210603       2299
BIB                  7         11
REACTION   (92-U-235(N,F)56-BA-140,CUM,FY,,SPA)
INC-SOURCE (REAC)  Center of core, charge 5.
INC-SPECT   Fast reactor spectrum is presented on Fig.7 - measured
           by H2 and CH(4) counters and calculated .
DECAY-DATA (56-BA-140,12.8D,DG,1596.5)
SAMPLE     19.86 % and 0.4% enrichment in U-235. Three U foils.
ERR-ANALYS (DATA-ERR) Depends on uncertainties of absolute fission
           rates, response probability of gamma detector.
STATUS     (TABLE) Table 3 of
           J. Nuclear Technology,v.12,p.226,1971
           (SUPPL,23597005) Fast neutron spectrum
ENDBIB              11
COMMON               1          3
EN-DUMMY
MEV
 0.5
ENDCOMMON            3
DATA                 3          1
DATA       DATA-ERR   DATA-ERR
PC/FIS     PC/FIS     PER-CENT
 6.10       0.25       4.1
ENDDATA              3
ENDSUBENT           23
SUBENT        23597004   20210323   20210625   20210603       2299
BIB                  7         11
REACTION   (92-U-238(N,F)56-BA-140,CUM,FY,,SPA)
INC-SOURCE (REAC)  Center of core, charge 5.
INC-SPECT   Fast reactor spectrum is presented on Fig.7 - measured
           by H2 and CH(4) counters and calculated .
DECAY-DATA (56-BA-140,12.8D,DG,1596.5)
SAMPLE     19.86 % and 0.4% enrichment in U-235. Three U foils.
ERR-ANALYS (DATA-ERR) Depends on uncertainties of absolute fission
           rates, response probability of gamma detector.
STATUS     (TABLE) Table 3 of
           J. Nuclear Technology,v.12,p.226,1971
           (SUPPL,23597005) Fast neutron spectrum
ENDBIB              11
COMMON               1          3
EN-DUMMY
MEV
 0.5
ENDCOMMON            3
DATA                 3          1
DATA       DATA-ERR   DATA-ERR
PC/FIS     PC/FIS     PER-CENT
 6.34       0.41        6.5
ENDDATA              3
ENDSUBENT           23
SUBENT        23597005   20210323   20210625   20210603       2299
BIB                  2        238
SUPPL-INF  (INCSP) STARK reactor, center of core, loading 5,
            position 19.
            Fast reactor neutron spectrum (neutrons per energy
           interval) is presented on Fig.7 -
            measured (points) by H2 and CH(4) counters.
            En(keV)        Spectrum(neutrons per energy interval)
            3.2888E+01      188.70
            3.4088E+01      185.53
            3.4832E+01      169.63
            3.5590E+01      161.68
            3.6106E+01      148.96
            3.7158E+01      141.01
            3.7697E+01      129.88
            3.9069E+01      139.43
            3.9354E+01      120.34
            4.0491E+01      147.40
            4.1969E+01      142.64
            4.2266E+01      158.55
            4.3496E+01      152.20
            4.4438E+01      163.34
            4.6046E+01      206.31
            4.7386E+01      199.96
            4.7719E+01      223.82
            4.9109E+01      214.29
            4.9458E+01      227.02
            5.1260E+01      233.39
            5.1997E+01      239.76
            5.3130E+01      230.22
            5.5061E+01      246.14
            5.5066E+01      231.82
            5.6264E+01      227.06
            5.6657E+01      258.88
            5.8307E+01      249.34
            5.9143E+01      265.26
            5.9994E+01      270.04
            6.1294E+01      278.00
            6.2169E+01      301.87
            6.3072E+01      287.56
            6.4434E+01      306.65
            6.5357E+01      322.57
            6.6297E+01      328.94
            6.7252E+01      333.72
            6.9208E+01      328.95
            6.9709E+01      321.00
            7.0708E+01      336.91
            7.0717E+01      316.23
            7.1732E+01      328.96
            7.2241E+01      343.29
            7.3280E+01      349.65
            7.4341E+01      341.70
            7.4870E+01      354.43
            7.5939E+01      376.71
            7.5944E+01      367.17
            7.7583E+01      387.86
            7.8706E+01      379.91
            7.9835E+01      394.23
            8.1577E+01      378.33
            8.2756E+01      373.56
            8.3356E+01      364.01
            8.3363E+01      351.29
            8.4570E+01      343.34
            8.5182E+01      336.97
            8.6426E+01      309.93
            8.7035E+01      330.62
            8.7680E+01      297.21
            8.9585E+01      295.62
            8.9594E+01      279.71
            9.2855E+01      289.27
            9.2864E+01      274.95
            9.4200E+01      281.32
            9.4884E+01      270.18
            9.5560E+01      279.73
            9.6943E+01      273.37
            9.7627E+01      294.06
            9.9754E+01      282.93
            1.0046E+02      297.25
            1.0117E+02      325.89
            1.0191E+02      292.48
            1.0337E+02      314.76
            1.0338E+02      305.21
            1.0485E+02      332.27
            1.0560E+02      341.81
            1.0561E+02      321.13
            1.0635E+02      352.95
            1.0864E+02      383.19
            1.0865E+02      359.33
            1.1020E+02      389.56
            1.1179E+02      394.34
            1.1260E+02      381.61
            1.1339E+02      407.07
            1.1423E+02      368.89
            1.1503E+02      399.12
            1.1584E+02      424.58
            1.1585E+02      407.08
            1.1836E+02      419.81
            1.1920E+02      430.95
            1.2092E+02      435.73
            1.2094E+02      403.91
            1.2266E+02      442.10
            1.2532E+02      451.65
            1.2623E+02      440.52
            1.2804E+02      446.89
            1.2896E+02      453.25
            1.3081E+02      465.99
            1.3081E+02      458.03
            1.3363E+02      481.90
            1.3364E+02      473.95
            1.3652E+02      496.23
            1.3653E+02      486.68
            1.3851E+02      478.73
            1.3949E+02      496.24
            1.3950E+02      485.10
            1.4052E+02      470.78
            1.4356E+02      478.74
            1.4458E+02      493.07
            1.4460E+02      469.20
            1.4670E+02      458.07
            1.4773E+02      477.16
            1.4777E+02      434.20
            1.4882E+02      448.52
            1.5100E+02      416.71
            1.5206E+02      445.35
            1.5207E+02      438.98
            1.5317E+02      423.08
            1.5320E+02      400.80
            1.5762E+02      424.68
            1.5991E+02      415.13
            1.5992E+02      404.00
            1.6340E+02      394.46
            1.6572E+02      435.83
            1.6573E+02      423.10
            1.6690E+02      442.20
            1.6809E+02      454.93
            1.6811E+02      432.65
            1.7052E+02      448.57
            1.7423E+02      439.03
            1.7545E+02      474.03
            1.7673E+02      451.76
            1.7799E+02      467.67
            1.7924E+02      493.13
            1.8054E+02      483.59
            1.8312E+02      499.50
            1.8313E+02      493.14
            1.8315E+02      475.64
            1.8709E+02      507.47
            1.8840E+02      534.52
            1.8842E+02      515.42
            1.9114E+02      518.61
            1.9387E+02      540.89
            1.9669E+02      524.98
            1.9807E+02      547.26
            2.0097E+02      518.63
            2.0237E+02      550.45
            2.0827E+02      540.91
            2.1128E+02      536.14
            2.1897E+02      540.93
            2.1898E+02      534.56
            2.2212E+02      550.48
            2.2531E+02      560.03
            2.3018E+02      577.54
            2.3348E+02      588.68
            2.3853E+02      604.60
            2.4023E+02      614.15
            2.4368E+02      625.29
            2.4540E+02      642.79
            2.5008E+02      653.95
            2.5250E+02      661.90
            2.5435E+02      645.99
            2.5792E+02      703.27
            2.6919E+02      738.29
            2.7302E+02      766.93
            2.7896E+02      760.57
            2.8912E+02      766.95
            2.9122E+02      754.22
            3.0183E+02      759.01
            3.0622E+02      743.10
            3.1738E+02      747.89
            3.2892E+02      759.03
            3.4335E+02      767.00
            3.5331E+02      776.56
            3.6097E+02      782.93
            3.6355E+02      787.71
            3.7145E+02      786.12
            3.8500E+02      782.95
            4.0197E+02      760.69
            4.1667E+02      744.79
            4.1969E+02      735.25
            4.2273E+02      725.70
            4.3193E+02      719.34
            4.4129E+02      727.31
            4.5089E+02      720.95
            4.6734E+02      719.37
            4.6737E+02      706.64
            4.7749E+02      719.38
            4.8089E+02      728.92
            4.8780E+02      738.47
            4.9487E+02      728.93
            4.9837E+02      746.44
            5.0192E+02      757.58
            5.1649E+02      762.36
            5.2397E+02      752.82
            5.3917E+02      760.78
            5.4697E+02      754.42
            5.4700E+02      748.06
            5.5490E+02      744.88
            5.5893E+02      732.15
            5.6692E+02      752.84
            5.6703E+02      724.20
            5.8346E+02      736.94
            6.0047E+02      724.22
            6.2239E+02      716.28
            6.4975E+02      709.93
            6.6868E+02      700.39
            6.8325E+02      689.26
            6.9815E+02      676.54
            7.3426E+02      630.41
            7.6114E+02      608.15
            7.7781E+02      581.11
            8.0063E+02      539.75
            8.2398E+02      523.84
            8.4199E+02      503.17
            8.5426E+02      480.90
            8.7291E+02      463.40
            8.8561E+02      444.31
            9.0491E+02      433.18
            9.3797E+02      423.65
            9.4476E+02      415.69
            9.7227E+02      406.16
           Calculated (dash line):
           En-min/max(keV)  Spectrum(neutrons per energy interval)
             22.       47.           176.00
             47.      100.           312.32
            100.      200.           463.75
            200.      400.           644.59
            400.      800.           657.57
            800.     1400.           435.06
STATUS     (CURVE) Fig.7 of
           J. Nuclear Technology,v.12,p.226,1971
ENDBIB             238
NOCOMMON             0          0
NODATA               0          0
ENDSUBENT          242
ENDENTRY             5
