ENTRY            23591   20210228   20210625   20210603       2299
SUBENT        23591001   20210228   20210625   20210603       2299
BIB                 13        445
TITLE       235U(n,f) fragment mass-, kinetic energy- and angular
           distributions for incident neutron energies between
           thermal and 6 MeV
AUTHOR     (Ch.Straede,C.Budtz-Jorgensen,H.-H.Knitter)
REFERENCE  (J,NP/A,462,85,1987)
INSTITUTE  (2ZZZGEL)
FACILITY   (VDG,2ZZZGEL) 7MV Van de Graaff
INC-SOURCE  Thermal neutrons were produced by thermalization in
           paraffin block.
           (P-LI7)
           (P-T)
           (D-D)
            En, MeV                          Energy spread, keV
            En < or = 3.5MeV and En=6.MeN       40. - 100.
            En 4.0 - 5.5 Mev                   150. - 250.
SAMPLE      235UF(4) sample, placed at 6.7 cm distance from
           neutron source.
           Sample backing - polyamide layer of ~33 ug/cm2 covered
           with Au layer of ~25 ug/cm2.
           Prepared by vacuum evaporation.
           2.8 cm diameter, 45+-2 ug/cm2 thickness.
           Isotopic abundances:
           U-235 - 97.66%, U-234 - 1.67%, U-238 - 0.52%,
           U-236 - 0.15%.
            Energy loss in sample ~1.5 meV, in backing ~2.5 MeV.
DETECTOR   (IOCH)  Twin gridded ionization chamber.
           Flowing working gas -
           0.1 l/min CH(4) or 90% Ar and 10% CH(4)
           at 10**5 Pa pressure.
           Distance cathode - grid 2.3 cm, gird - anode 0.7 cm.
           ND-6660 data acquisition and handling system.
           Absolute calibration and stability checking was done
           by thermal neutrons.
METHOD      Pulse-height mass defect was measure with uncertainty
           +-0.75 MeV for 90% Ar and 10% CH(4) working gas to be
           2.5 - 3.5 MeV for light fragment,
           5. - 6. MeV for heavy fragment.
           Fragment emission angle was determined by grid and
           anode signals.
           Mass,kinetic energy and emission angle for each
           fragment were measured.
           ~1.5E+7 events for thermal neutron induced fission,
           ~1.E+5 events for each of the higher neutron energies.
           Only events with COS(angle) > or = were used for mass
           and energy distributions.
CORRECTION  Small correction for the angle dependent grid
            inefficiency.
ADD-RES    . Table 1 of Nucl.Phys.Sect.A,v.462,p.85,1987 -
           parameters for description of the mass distributions.
           . Fig.6 of Nucl.Phys.Sect.A,v.462,p.85,1987
             En,MeV      <TKE(En)>-<TKE(Ethermal)>, MeV
                      CH(4)               90%Ar+10%CH(4)
             0.5      0.2318 +- 0.0477
             1.0      0.1797 +- 0.0534
             1.5      0.2373 +- 0.0618
             2.0      0.0758 +- 0.0534
             2.5      0.0015 +- 0.0534
             3.0      0.0168 +- 0.0449
             3.5     -0.0981 +- 0.0604
             4.0      0.0250 +- 0.0534
             4.5     -0.4051 +- 0.0632
             5.0     -0.7541 +- 0.0575
             5.5     -0.6519 +- 0.0518
             6.0     -0.8687 +- 0.0459     -0.8055 +- 0.0546
           . Fig.8 of Nucl.Phys.Sect.A,v.462,p.85,1987
             En,MeV  Mass,amu    <TKE(En)>-<TKE(Ethermal)>,MeV
              0.5       109.            1.2959 +- 0.9079
              0.5       108.            1.9132 +- 0.5548
              0.5       107.            0.5128 +- 0.4035
              0.5       106.            0.3736 +- 0.3279
              0.5       105.            0.6378 +- 0.2522
              0.5       104.           -0.1951 +- 0.2271
              0.5       103.            0.2834 +- 0.1891
              0.5       102.            0.2576 +- 0.1639
              0.5       101.           -0.0330 +- 0.1892
              0.5       100.            0.0294 +- 0.1638
              0.5        99.            0.3818 +- 0.1513
              0.5        98.            0.3182 +- 0.1261
              0.5        97.           -0.0355 +- 0.1261
              0.5        96.            0.2665 +- 0.1261
              0.5        95.            0.5433 +- 0.1513
              0.5        94.            0.2527 +- 0.1262
              0.5        93.            0.1259 +- 0.1261
              0.5        92.            0.3398 +- 0.1261
              0.5        91.            0.2130 +- 0.1639
              0.5        90.            0.3889 +- 0.1514
              0.5        89.            0.5523 +- 0.1639
              0.5        88.            0.6525 +- 0.1764
              0.5        87.            0.7276 +- 0.2144
              0.5        86.            0.7900 +- 0.2522
              0.5        85.            0.8777 +- 0.3026
              0.5        84.            0.0448 +- 0.3657
              0.5        83.            0.3468 +- 0.4539
              0.5        82.            0.0563 +- 0.5295
              0.5        81.            0.1690 +- 0.7315
              1.0       109.            1.9940 +- 0.7044
              1.0       108.            1.0877 +- 0.5408
              1.0       107.            0.8986 +- 0.3772
              1.0       106.            0.2564 +- 0.2893
              1.0       105.            0.8847 +- 0.2389
              1.0       104.            0.2676 +- 0.1887
              1.0       103.           -0.0349 +- 0.1887
              1.0       102.           -0.0354 +- 0.1635
              1.0       101.           -0.1870 +- 0.1761
              1.0       100.           -0.0114 +- 0.1508
              1.0        99.            0.3652 +- 0.1384
              1.0        98.            0.3395 +- 0.1384
              1.0        97.            0.3389 +- 0.1132
              1.0        96.            0.1370 +- 0.1384
              1.0        95.            0.2748 +- 0.1132
              1.0        94.            0.1610 +- 0.1384
              1.0        93.            0.4371 +- 0.1132
              1.0        92.            0.2981 +- 0.1006
              1.0        91.            0.0835 +- 0.1259
              1.0        90.            0.6868 +- 0.1384
              1.0        89.            0.6860 +- 0.1636
              1.0        88.            0.9246 +- 0.1886
              1.0        87.            0.6976 +- 0.2138
              1.0        86.            0.8856 +- 0.2390
              1.0        85.            0.7467 +- 0.2893
              1.0        84.            0.4442 +- 0.3648
              1.0        83.            0.4560 +- 0.3773
              1.0        82.            0.4555 +- 0.5032
              1.0        81.            1.6121 +- 0.6038
              1.5       109.            1.0731 +- 0.8176
              1.5       108.            1.8647 +- 0.5031
              1.5       107.            1.4238 +- 0.3522
              1.5       106.            0.5173 +- 0.3019
              1.5       105.            0.4788 +- 0.2641
              1.5       104.            0.5536 +- 0.2014
              1.5       103.            0.0247 +- 0.1887
              1.5       102.            0.0868 +- 0.1887
              1.5       101.            0.0861 +- 0.1634
              1.5       100.            0.1105 +- 0.1384
              1.5        99.            0.4619 +- 0.1509
              1.5        98.            0.5492 +- 0.1384
              1.5        97.            0.2340 +- 0.1385
              1.5        96.            0.2458 +- 0.1258
              1.5        95.            0.1446 +- 0.1258
              1.5        94.            0.5086 +- 0.1385
              1.5        93.            0.5958 +- 0.1259
              1.5        92.            0.2304 +- 0.1384
              1.5        91.            0.3679 +- 0.1511
              1.5        90.            0.6314 +- 0.1635
              1.5        89.            0.8318 +- 0.1762
              1.5        88.            0.9066 +- 0.2012
              1.5        87.            0.5788 +- 0.2391
              1.5        86.            0.2133 +- 0.2517
              1.5        85.            0.4767 +- 0.3144
              1.5        84.            0.7277 +- 0.3396
              1.5        83.            0.5257 +- 0.4151
              1.5        82.            1.6695 +- 0.5661
              1.5        81.            0.2725 +- 0.6416
              1.5        80.            0.9260 +- 0.9056
              2.0       109.            1.4959 +- 0.6836
              2.0       108.            0.9385 +- 0.4937
              2.0       107.           -0.2138 +- 0.3797
              2.0       106.           -0.2775 +- 0.3038
              2.0       105.           -0.4425 +- 0.2279
              2.0       104.           -0.1138 +- 0.2152
              2.0       103.           -0.3548 +- 0.1772
              2.0       102.           -0.1147 +- 0.1520
              2.0       101.           -0.3431 +- 0.1520
              2.0       100.           -0.1915 +- 0.1392
              2.0        99.            0.3144 +- 0.1519
              2.0        98.            0.0734 +- 0.1393
              2.0        97.            0.2123 +- 0.1266
              2.0        96.            0.0473 +- 0.1139
              2.0        95.            0.0595 +- 0.1266
              2.0        94.            0.4896 +- 0.1139
              2.0        93.            0.4258 +- 0.1265
              2.0        92.            0.1848 +- 0.1266
              2.0        91.            0.2224 +- 0.1267
              2.0        90.            0.0828 +- 0.1519
              2.0        89.            0.5761 +- 0.1645
              2.0        88.            0.7908 +- 0.1646
              2.0        87.            0.8536 +- 0.2152
              2.0        86.            0.9671 +- 0.2658
              2.0        85.            0.8274 +- 0.2785
              2.0        84.            0.7511 +- 0.3291
              2.0        83.            1.2444 +- 0.4177
              2.0        82.            1.5224 +- 0.5569
              2.0        81.            1.2688 +- 0.6455
              2.5       109.            0.9329 +- 0.6835
              2.5       108.            0.1603 +- 0.5063
              2.5       107.            1.4763 +- 0.3924
              2.5       106.           -0.1190 +- 0.3164
              2.5       105.           -0.2081 +- 0.2532
              2.5       104.            0.1713 +- 0.2278
              2.5       103.           -0.2216 +- 0.1899
              2.5       102.           -0.4752 +- 0.1646
              2.5       101.           -0.4504 +- 0.1646
              2.5       100.            0.0050 +- 0.1645
              2.5        99.            0.0805 +- 0.1392
              2.5        98.            0.1687 +- 0.1392
              2.5        97.            0.0543 +- 0.1139
              2.5        96.            0.0539 +- 0.1140
              2.5        95.            0.0409 +- 0.1265
              2.5        94.            0.2429 +- 0.1267
              2.5        93.            0.2804 +- 0.1266
              2.5        92.            0.1661 +- 0.1266
              2.5        91.            0.0897 +- 0.1392
              2.5        90.            0.4817 +- 0.1518
              2.5        89.            0.7217 +- 0.1772
              2.5        88.            1.0757 +- 0.2153
              2.5        87.            0.7969 +- 0.2532
              2.5        86.            1.1509 +- 0.2532
              2.5        85.            0.8719 +- 0.3039
              2.5        84.            0.6690 +- 0.3797
              2.5        83.            0.8332 +- 0.4177
              2.5        82.            1.1238 +- 0.4683
              2.5        81.            1.4398 +- 0.6709
              2.5        80.            1.0471 +- 0.8101
              3.0       109.           -0.7257 +- 0.7215
              3.0       108.            0.2484 +- 0.4684
              3.0       107.            0.4379 +- 0.4051
              3.0       106.            0.0324 +- 0.2912
              3.0       105.            0.5510 +- 0.2404
              3.0       104.           -0.1078 +- 0.2405
              3.0       103.           -0.8045 +- 0.2152
              3.0       102.           -0.9568 +- 0.1899
              3.0       101.           -0.1852 +- 0.1772
              3.0       100.            0.1056 +- 0.1519
              3.0        99.            0.1557 +- 0.1393
              3.0        99.            0.1807 +- 0.1646
              3.0        97.            0.0157 +- 0.1392
              3.0        96.           -0.0735 +- 0.1519
              3.0        95.           -0.0866 +- 0.1645
              3.0        94.            0.6472 +- 0.1266
              3.0        93.            0.3049 +- 0.1266
              3.0        92.            0.0766 +- 0.1519
              3.0        91.            0.3420 +- 0.1646
              3.0        90.            0.5694 +- 0.1646
              3.0        89.            0.6828 +- 0.1773
              3.0        88.            1.0115 +- 0.2026
              3.0        87.            0.8718 +- 0.2279
              3.0        86.            0.9472 +- 0.2532
              3.0        85.            0.2759 +- 0.3038
              3.0        84.            0.7059 +- 0.3798
              3.0        83.            1.3256 +- 0.4430
              3.0        82.            1.9961 +- 0.4429
              3.0        81.            0.8943 +- 0.9241
              3.0        80.           -0.2960 +- 0.8355
              3.5       126.            1.3372 +- 0.8592
              3.5       127.            0.9286 +- 0.6620
              3.5       128.            0.9144 +- 0.4366
              3.5       129.            0.4636 +- 0.3521
              3.5       130.            0.1536 +- 0.3099
              3.5       131.           -0.1282 +- 0.2817
              3.5       132.           -0.0156 +- 0.2113
              3.5       133.           -0.6918 +- 0.1972
              3.5       134.           -1.2834 +- 0.1831
              3.5       135.           -0.8469 +- 0.1549
              3.5       136.           -0.5654 +- 0.1549
              3.5       137.           -0.1993 +- 0.1550
              3.5       138.           -0.2416 +- 0.1408
              3.5       139.            0.1808 +- 0.1267
              3.5       140.           -0.0869 +- 0.1549
              3.5       141.           -0.0730 +- 0.1409
              3.5       142.            0.2086 +- 0.1127
              3.5       143.            0.0536 +- 0.1549
              3.5       144.           -0.1296 +- 0.1549
              3.5       145.            0.0393 +- 0.1409
              3.5       146.            0.3631 +- 0.1831
              3.5       147.            0.6025 +- 0.1690
              3.5       148.            0.9685 +- 0.1831
              3.5       149.            1.0952 +- 0.2395
              3.5       150.            0.9261 +- 0.2817
              3.5       151.            1.0950 +- 0.3099
              3.5       152.            0.4329 +- 0.3662
              3.5       153.            2.2215 +- 0.4507
              3.5       154.            1.4890 +- 0.5634
              3.5       155.            1.2636 +- 0.6056
              4.0       126.            0.6677 +- 0.9437
              4.0       127.            1.9492 +- 0.6338
              4.0       128.            0.3998 +- 0.4648
              4.0       129.            0.8925 +- 0.3662
              4.0       130.           -0.0654 +- 0.3380
              4.0       131.           -0.0373 +- 0.2676
              4.0       132.           -0.9671 +- 0.2254
              4.0       133.           -0.5165 +- 0.1972
              4.0       134.           -0.9251 +- 0.1831
              4.0       135.           -1.0802 +- 0.1690
              4.0       136.           -0.3621 +- 0.1549
              4.0       137.           -0.2355 +- 0.1549
              4.0       138.            0.2010 +- 0.1549
              4.0       139.           -0.2499 +- 0.1550
              4.0       140.           -0.1655 +- 0.1550
              4.0       141.            0.0878 +- 0.1408
              4.0       142.            0.3130 +- 0.1550
              4.0       143.            0.3410 +- 0.1408
              4.0       144.            0.2845 +- 0.1408
              4.0       145.           -0.1100 +- 0.1690
              4.0       146.            0.3969 +- 0.1690
              4.0       147.            0.6080 +- 0.1831
              4.0       148.            1.1994 +- 0.2113
              4.0       149.            1.0584 +- 0.2817
              4.0       150.            1.3822 +- 0.3099
              4.0       151.            1.1144 +- 0.3380
              4.0       152.            1.8185 +- 0.3803
              4.0       153.            1.4662 +- 0.5352
              4.0       154.            2.7759 +- 0.5493
              4.0       155.            0.6349 +- 0.7887
              4.0       156.            0.3108 +- 0.9437
              4.5       124.            0.4481 +- 0.9436
              4.5       126.            0.5741 +- 0.8310
              4.5       128.            0.8553 +- 0.7043
              4.5       128.           -0.4549 +- 0.4789
              4.5       129.           -0.5118 +- 0.4084
              4.5       130.           -1.3149 +- 0.3099
              4.5       131.           -1.0477 +- 0.3099
              4.5       132.           -1.4143 +- 0.2676
              4.5       133.           -1.5557 +- 0.2253
              4.5       134.           -1.2603 +- 0.2113
              4.5       135.           -1.1480 +- 0.2113
              4.5       136.           -0.9795 +- 0.1972
              4.5       137.           -0.5151 +- 0.1972
              4.5       138.           -0.3606 +- 0.1549
              4.5       139.           -0.3469 +- 0.1690
              4.5       140.           -0.3614 +- 0.1549
              4.5       141.            0.0466 +- 0.1409
              4.5       143.            0.1165 +- 0.1550
              4.5       144.            0.1584 +- 0.1550
              4.5       144.            0.1721 +- 0.1549
              4.5       145.           -0.4199 +- 0.1690
              4.5       146.            0.1853 +- 0.1972
              4.5       147.            1.1004 +- 0.2394
              4.5       149.            1.2548 +- 0.2536
              4.5       149.            0.9728 +- 0.2958
              4.5       150.            1.5216 +- 0.2958
              4.5       151.            1.4086 +- 0.3521
              4.5       152.            1.1405 +- 0.4789
              4.5       153.            1.5767 +- 0.4648
              4.5       155.            0.3650 +- 0.5916
              4.5       155.            1.7872 +- 0.6479
              4.5       156.            1.0261 +- 0.8310
              5.0       125.            2.0539 +- 0.9078
              5.0       126.            2.3942 +- 0.6099
              5.0       127.            0.7062 +- 0.6099
              5.0       128.           -0.8116 +- 0.4823
              5.0       129.           -1.2230 +- 0.3830
              5.0       130.           -1.3365 +- 0.3121
              5.0       131.           -2.0600 +- 0.2411
              5.0       132.           -1.2657 +- 0.2411
              5.0       133.           -2.0885 +- 0.2128
              5.0       134.           -1.9325 +- 0.1844
              5.0       135.           -2.0886 +- 0.1844
              5.0       136.           -1.2944 +- 0.1702
              5.0       137.           -0.7980 +- 0.1844
              5.0       138.           -0.6704 +- 0.1560
              5.0       139.           -0.4294 +- 0.1560
              5.0       140.           -1.0677 +- 0.1560
              5.0       141.           -0.4153 +- 0.1418
              5.0       142.           -0.0040 +- 0.1277
              5.0       143.            0.0101 +- 0.1418
              5.0       144.           -0.1318 +- 0.1702
              5.0       145.           -0.2170 +- 0.1986
              5.0       146.            0.1092 +- 0.1702
              5.0       147.            0.6481 +- 0.2128
              5.0       148.            0.9033 +- 0.2128
              5.0       149.            1.2437 +- 0.2411
              5.0       150.            1.0592 +- 0.2695
              5.0       151.            0.8039 +- 0.3404
              5.0       152.            0.9598 +- 0.3830
              5.0       153.            1.8817 +- 0.4539
              5.0       154.            1.8533 +- 0.5532
              5.0       155.            1.6404 +- 0.7376
              5.0*      156.            2.4773 +- 0.8085
              5.0*      156.            2.7326 +- 0.9503
              5.5       124.            2.2166 +- 0.7606
              5.5       125.            0.7939 +- 0.8028
              5.5       126.            1.7374 +- 0.8028
              5.5       127.           -0.0655 +- 0.6338
              5.5       128.           -0.5868 +- 0.5071
              5.5       129.           -0.9249 +- 0.4085
              5.5       130.           -1.4744 +- 0.3099
              5.5       131.           -1.3337 +- 0.2958
              5.5       132.           -1.2634 +- 0.2535
              5.5       133.           -1.9818 +- 0.2254
              5.5       134.           -2.0946 +- 0.1831
              5.5       135.           -1.5878 +- 0.2113
              5.5       136.           -1.3767 +- 0.1972
              5.5       137.           -0.7571 +- 0.1550
              5.5       138.           -0.4332 +- 0.1408
              5.5       139.           -0.5038 +- 0.1690
              5.5       140.           -0.0392 +- 0.1408
              5.5       141.           -0.3210 +- 0.1690
              5.5       142.            0.2704 +- 0.1690
              5.5       143.           -0.1664 +- 0.1831
              5.5       144.           -0.3637 +- 0.1831
              5.5       145.           -0.1807 +- 0.1831
              5.5       146.            0.1853 +- 0.1831
              5.5       147.            0.6641 +- 0.1972
              5.5       148.            0.8048 +- 0.2394
              5.5       149.            1.0582 +- 0.2676
              5.5       150.            1.3960 +- 0.2817
              5.5       151.            1.3818 +- 0.3099
              5.5       152.            1.3535 +- 0.4507
              5.5       153.            2.0153 +- 0.4648
              5.5       154.            1.7335 +- 0.5775
              5.5       155.            2.7615 +- 0.6057
              6.0       122.            1.1396 +- 0.7887
              6.0       123.            0.1534 +- 0.7042
              6.0       124.            1.9700 +- 0.7183
              6.0       125.            1.9556 +- 0.5915
              6.0       126.            0.9835 +- 0.5351
              6.0       127.            0.3775 +- 0.4225
              6.0       128.           -0.8341 +- 0.3803
              6.0       129.           -1.2005 +- 0.2958
              6.0       130.           -1.8769 +- 0.2536
              6.0       131.           -1.8490 +- 0.2113
              6.0       132.           -2.1169 +- 0.1831
              6.0       133.           -2.1876 +- 0.1690
              6.0       134.           -2.7513 +- 0.1549
              6.0       135.           -2.0052 +- 0.1408
              6.0       136.           -1.5266 +- 0.1408
              6.0       137.           -1.0481 +- 0.1549
              6.0       138.           -0.9356 +- 0.1267
              6.0       139.           -0.6261 +- 0.1127
              6.0       140.           -0.5983 +- 0.1408
              6.0       141.           -0.5141 +- 0.1268
              6.0       142.           -0.2328 +- 0.1408
              6.0       143.           -0.1204 +- 0.1268
              6.0       144.           -0.3601 +- 0.1549
              6.0       145.           -0.2759 +- 0.1408
              6.0       146.            0.0900 +- 0.1408
              6.0       147.            0.5263 +- 0.1690
              6.0       148.            0.9344 +- 0.1831
              6.0       149.            0.7792 +- 0.2394
              6.0       150.            1.4690 +- 0.2254
              6.0       151.            1.4124 +- 0.2253
              6.0       152.            1.3417 +- 0.2957
              6.0       153.            1.3131 +- 0.3944
              6.0       154.            1.6509 +- 0.4788
              6.0       155.            1.4252 +- 0.6197
              6.0       156.            2.0306 +- 0.6479
              6.0       157.            2.1288 +- 0.8732
              6.0       158.            2.8750 +- 1.0000
            * - for En=5.0 MeV and mass=156 two points are given
           on Fig.8, both were digitized.
COMMENT    Of compiler M.M. In the article the mass is mentioned
           pre-neutron mass, but mass distributions are not
           symmetrical on Figs.2,3,4 (Subents 002,003,004,
           respectively).
HISTORY    (20210228C)  M.M.
ENDBIB             445
NOCOMMON             0          0
ENDSUBENT          448
SUBENT        23591002   20210228   20210625   20210603       2299
BIB                  3          4
REACTION   (92-U-235(N,F)MASS,PRE,FY,,SPA)
STATUS     (CURVE) Fig.2 left of Nucl.Phys.Sect.A,v.462,p.85,1987
COMMENT     Of compiler. Data for 6.MeV (Fig.2 right) are given
            also on Fig.4 (see Subent 004)
ENDBIB               4
COMMON               2          3
EN-DUMMY   ERR-DIG
EV         PER-CENT
 0.0253      0.54
ENDCOMMON            3
DATA                 2         85
MASS       DATA
NO-DIM     PC/FIS
        71.  1.046E-02
        72.  1.034E-02
        74.  1.048E-02
        75.  1.050E-02
        77.  1.038E-02
        78.  1.669E-02
        79.  3.172E-02
        80.  5.235E-02
        81.  9.211E-02
        82.  1.706E-01
        83.  2.780E-01
        84.  4.705E-01
        85.  6.832E-01
        86.  1.030E+00
        87.  1.496E+00
        88.  2.036E+00
        89.  2.669E+00
        90.  3.728E+00
        91.  4.883E+00
        92.  5.557E+00
        93.  6.242E+00
        94.  6.580E+00
        96.  7.024E+00
        97.  6.596E+00
        99.  6.358E+00
       100.  5.894E+00
       102.  5.609E+00
       103.  4.234E+00
       104.  3.238E+00
       105.  2.476E+00
       106.  1.503E+00
       107.  7.722E-01
       108.  3.820E-01
       109.  1.771E-01
       110.  7.226E-02
       111.  3.351E-02
       112.  1.636E-02
       114.  1.598E-02
       115.  1.462E-02
       116.  1.338E-02
       117.  1.193E-02
       118.  1.164E-02
       119.  1.226E-02
       120.  1.586E-02
       121.  1.781E-02
       122.  2.133E-02
       123.  1.952E-02
       124.  2.138E-02
       125.  4.501E-02
       126.  1.091E-01
       127.  2.820E-01
       128.  5.569E-01
       129.  1.031E+00
       130.  1.862E+00
       131.  2.881E+00
       132.  3.587E+00
       133.  4.700E+00
       134.  5.557E+00
       135.  5.782E+00
       136.  5.938E+00
       138.  6.259E+00
       140.  6.686E+00
       142.  6.361E+00
       143.  5.823E+00
       144.  5.262E+00
       145.  4.752E+00
       146.  3.634E+00
       147.  2.605E+00
       148.  1.917E+00
       149.  1.429E+00
       150.  1.065E+00
       151.  6.892E-01
       152.  4.757E-01
       153.  3.040E-01
       154.  1.894E-01
       155.  1.078E-01
       156.  6.138E-02
       157.  4.023E-02
       158.  2.321E-02
       159.  1.036E-02
       161.  1.037E-02
       163.  1.026E-02
       165.  1.028E-02
       167.  1.017E-02
       169.  1.019E-02
ENDDATA             87
ENDSUBENT          100
SUBENT        23591003   20210228   20210625   20210603       2299
BIB                  3          3
REACTION   (92-U-235(N,F)MASS,PRE,FY)
ERR-ANALYS Quantization error (1/2 pixel) for scale Y 0.0090 %/fis
STATUS     (CURVE) Fig.3 of Nucl.Phys.Sect.A,v.462,p.85,1987
ENDBIB               3
COMMON               1          3
ERR-DIG
PC/FIS
 0.0068
ENDCOMMON            3
DATA                 3        491
EN         MASS       DATA
MEV        NO-DIM     PC/FIS
       0.5        74.     0.0513
       0.5        76.     0.0636
       0.5        77.     0.0774
       0.5        79.     0.0737
       0.5        80.     0.1596
       0.5        81.     0.2099
       0.5        82.     0.3159
       0.5        83.     0.4213
       0.5        84.     0.6712
       0.5        85.     0.9201
       0.5        86.     1.2591
       0.5        87.     1.7616
       0.5        88.     2.2085
       0.5        89.     3.1426
       0.5        90.     3.8067
       0.5        91.     4.7757
       0.5        92.     5.4757
       0.5        93.     5.7077
       0.5        94.     6.3352
       0.5        95.     6.0075
       0.5        96.     6.7255
       0.5        98.     6.6493
       0.5        99.     6.1601
       0.5        99.     5.9955
       0.5       101.     6.0808
       0.5       102.     5.3210
       0.5       103.     4.3811
       0.5       104.     3.6219
       0.5       105.     2.4835
       0.5       106.     1.7062
       0.5       107.     0.9469
       0.5       108.     0.4937
       0.5       109.     0.2390
       0.5       110.     0.0901
       0.5       111.     0.0718
       0.5       112.     0.0445
       0.5       112.     0.0137
       0.5       113.     0.0080
       0.5       115.     0.0364
       0.5       116.     0.0073
       0.5       118.     0.0338
       0.5       119.     0.0100
       0.5       120.     0.0169
       0.5       122.     0.0164
       0.5       124.     0.0267
       0.5       125.     0.0750
       0.5       126.     0.1251
       0.5       127.     0.3298
       0.5       128.     0.7958
       0.5       129.     1.2427
       0.5       130.     1.9422
       0.5       131.     3.2194
       0.5       132.     3.8464
       0.5       133.     4.8160
       0.5       134.     5.7135
       0.5       135.     5.9455
       0.5       136.     6.2669
       0.5       137.     6.0112
       0.5       138.     6.2061
       0.5       139.     6.5651
       0.5       140.     6.4889
       0.5       141.     6.2883
       0.5       142.     5.9066
       0.5       143.     5.7959
       0.5       144.     5.0922
       0.5       145.     4.3314
       0.5       146.     3.7696
       0.5       147.     2.8123
       0.5       148.     2.0700
       0.5       149.     1.7433
       0.5       150.     1.1275
       0.5       151.     0.8364
       0.5       152.     0.5992
       0.5       153.     0.4340
       0.5       154.     0.2334
       0.5       155.     0.1397
       0.5       157.     0.1159
       0.5       158.     0.0757
       0.5       160.     0.0710
       0.5       161.     0.0669
       0.5       163.     0.0622
       0.5       166.     0.0543
       1.0        73.     0.0686
       1.0        75.     0.0820
       1.0        76.     0.0779
       1.0        78.     0.0738
       1.0        79.     0.0883
       1.0        80.     0.1032
       1.0        81.     0.1912
       1.0        82.     0.3141
       1.0        83.     0.4376
       1.0        84.     0.6871
       1.0        85.     0.9546
       1.0        86.     1.2946
       1.0        87.     1.6882
       1.0        88.     2.2617
       1.0        89.     3.0874
       1.0        90.     3.7154
       1.0        91.     4.5951
       1.0        92.     5.5647
       1.0        93.     5.8322
       1.0        94.     6.2258
       1.0        95.     6.5293
       1.0        96.     6.4177
       1.0        97.     6.8482
       1.0        98.     6.3050
       1.0        99.     5.9964
       1.0       100.     6.1009
       1.0       101.     5.4497
       1.0       102.     5.2851
       1.0       103.     4.5969
       1.0       104.     3.2790
       1.0       105.     2.4118
       1.0       106.     1.5980
       1.0       107.     0.9103
       1.0       108.     0.4937
       1.0       109.     0.2926
       1.0       110.     0.0649
       1.0       111.     0.0520
       1.0       112.     0.0355
       1.0       114.     0.0314
       1.0       115.     0.0167
       1.0       116.     0.0163
       1.0       117.     0.0213
       1.0       119.     0.0191
       1.0       121.     0.0185
       1.0       122.     0.0199
       1.0       123.     0.0359
       1.0       125.     0.0409
       1.0       125.     0.0588
       1.0       126.     0.1144
       1.0       127.     0.2765
       1.0       128.     0.8141
       1.0       129.     1.2981
       1.0       130.     2.0522
       1.0       131.     2.9859
       1.0       132.     3.9020
       1.0       133.     4.7637
       1.0       134.     5.4993
       1.0       135.     6.0018
       1.0       136.     6.1423
       1.0       138.     6.2642
       1.0       139.     6.3867
       1.0       140.     6.7262
       1.0       141.     6.3276
       1.0       141.     6.1455
       1.0       143.     6.0339
       1.0       143.     5.5102
       1.0       144.     5.2016
       1.0       145.     4.4949
       1.0       146.     3.6637
       1.0       147.     2.8684
       1.0       148.     2.2172
       1.0       149.     1.6015
       1.0       150.     1.2204
       1.0       151.     0.8392
       1.0       152.     0.5481
       1.0       153.     0.4355
       1.0       154.     0.2889
       1.0       155.     0.1784
       1.0       156.     0.1213
       1.0       157.     0.0822
       1.0       159.     0.0596
       1.0       161.     0.0540
       1.0       163.     0.0674
       1.0       165.     0.0798
       1.0       166.     0.0747
       1.5        74.     0.0204
       1.5        75.     0.0643
       1.5        77.     0.0597
       1.5        79.     0.0537
       1.5        80.     0.1213
       1.5        81.     0.2139
       1.5        82.     0.2335
       1.5        83.     0.4444
       1.5        84.     0.6073
       1.5        85.     0.9114
       1.5        86.     1.1932
       1.5        87.     1.6398
       1.5        88.     2.1811
       1.5        89.     2.8412
       1.5        90.     3.7142
       1.5        91.     4.6102
       1.5        92.     5.3886
       1.5        93.     6.0718
       1.5        95.     6.0908
       1.5        96.     6.8692
       1.5        97.     6.3226
       1.5        98.     6.7922
       1.5        99.     6.1261
       1.5       100.     5.9106
       1.5       101.     5.5762
       1.5       102.     5.3370
       1.5       103.     4.3404
       1.5       104.     3.5324
       1.5       105.     2.7014
       1.5       106.     1.8703
       1.5       107.     1.2285
       1.5       108.     0.6339
       1.5       109.     0.1813
       1.5       110.     0.1173
       1.5       111.     0.0648
       1.5       112.     0.0386
       1.5       113.     0.0263
       1.5       115.     0.0283
       1.5       116.     0.0278
       1.5       118.     0.0155
       1.5       121.     0.0241
       1.5       123.     0.0496
       1.5       124.     0.0659
       1.5       125.     0.0515
       1.5       126.     0.1577
       1.5       127.     0.3199
       1.5       128.     0.7429
       1.5       129.     1.2612
       1.5       130.     2.1098
       1.5       131.     2.6038
       1.5       132.     3.7606
       1.5       133.     4.3255
       1.5       134.     5.2694
       1.5       135.     5.7641
       1.5       136.     5.9020
       1.5       138.     6.7493
       1.5       139.     6.1784
       1.5       140.     6.6724
       1.5       141.     5.9359
       1.5       142.     6.0981
       1.5       143.     5.7880
       1.5       144.     5.2901
       1.5       145.     4.3868
       1.5       146.     3.6970
       1.5       147.     3.1504
       1.5       148.     2.2714
       1.5       149.     1.8431
       1.5       150.     1.2485
       1.5       151.     0.9141
       1.5       152.     0.6750
       1.5       153.     0.5304
       1.5       154.     0.2906
       1.5       155.     0.1217
       1.5       157.     0.0698
       1.5       158.     0.0651
       1.5       160.     0.0598
       1.5       163.     0.0531
       1.5       164.     0.0478
       1.5       166.     0.0195
       2.0        74.     0.0202
       2.0        76.     0.0384
       2.0        78.     0.0566
       2.0        80.     0.0978
       2.0        81.     0.2133
       2.0        82.     0.1383
       2.0        83.     0.3971
       2.0        84.     0.6538
       2.0        85.     0.8875
       2.0        86.     1.2402
       2.0        87.     1.6632
       2.0        88.     2.2753
       2.0        89.     2.6509
       2.0        90.     3.6185
       2.0        91.     4.3259
       2.0        92.     5.0806
       2.0        93.     5.7636
       2.0        94.     6.0920
       2.0        95.     5.9703
       2.0        96.     6.9149
       2.0        97.     6.3669
       2.0        98.     6.6480
       2.0        99.     6.1486
       2.0       100.     6.0040
       2.0       101.     5.7641
       2.0       102.     5.3830
       2.0       103.     4.5749
       2.0       104.     3.3175
       2.0       105.     2.9364
       2.0       106.     1.7499
       2.0       107.     1.3208
       2.0       108.     0.7742
       2.0       109.     0.3688
       2.0       110.     0.1832
       2.0       111.     0.0480
       2.0       112.     0.0643
       2.0       113.     0.0521
       2.0       114.     0.0377
       2.0       115.     0.0397
       2.0       117.     0.0274
       2.0       118.     0.0198
       2.0       120.     0.0242
       2.0       121.     0.0452
       2.0       122.     0.0283
       2.0       123.     0.0659
       2.0       124.     0.0467
       2.0       125.     0.0819
       2.0       126.     0.1619
       2.0       127.     0.3163
       2.0       128.     0.7866
       2.0       129.     1.2325
       2.0       130.     2.0588
       2.0       131.     2.8128
       2.0       132.     3.9222
       2.0       133.     4.4398
       2.0       134.     5.3843
       2.0       135.     5.8546
       2.0       137.     6.0147
       2.0       138.     6.6031
       2.0       139.     6.3869
       2.0       140.     6.0301
       2.0       141.     6.2869
       2.0       142.     5.8821
       2.0       143.     5.7361
       2.0       144.     4.8111
       2.0       145.     4.2875
       2.0       146.     3.6692
       2.0       147.     3.0030
       2.0       148.     2.2908
       2.0       149.     1.7428
       2.0       150.     1.1725
       2.0       151.     0.9563
       2.0       152.     0.6698
       2.0       153.     0.5252
       2.0       154.     0.2616
       2.0       156.     0.1386
       2.0       158.     0.0616
       2.0       160.     0.0318
       2.0       162.     0.0263
       2.0       164.     0.0209
       2.0       166.     0.0377
       2.5        74.     0.0603
       2.5        75.     0.0557
       2.5        77.     0.0967
       2.5        79.     0.1163
       2.5        80.     0.1835
       2.5        82.     0.3441
       2.5        83.     0.4583
       2.5        84.     0.5961
       2.5        85.     0.9226
       2.5        86.     1.3431
       2.5        87.     1.6232
       2.5        88.     2.6321
       2.5        89.     2.9351
       2.5        90.     3.5202
       2.5        91.     4.4109
       2.5        92.     5.0914
       2.5        93.     5.6295
       2.5        94.     5.8848
       2.5        95.     6.1179
       2.5        96.     6.7735
       2.5        97.     6.2772
       2.5        98.     6.6272
       2.5        99.     6.3424
       2.5       100.     5.5861
       2.5       101.     6.1960
       2.5       102.     5.0159
       2.5       103.     4.7076
       2.5       104.     3.3159
       2.5       105.     2.8672
       2.5       106.     1.8517
       2.5       107.     1.1907
       2.5       108.     0.7642
       2.5       109.     0.4318
       2.5       110.     0.2099
       2.5       111.     0.1178
       2.5       112.     0.0634
       2.5       113.     0.0513
       2.5       114.     0.0462
       2.5       116.     0.0295
       2.5       117.     0.0456
       2.5       118.     0.0451
       2.5       119.     0.0424
       2.5       120.     0.0234
       2.5       121.     0.0490
       2.5       122.     0.0629
       2.5       123.     0.0791
       2.5       124.     0.0977
       2.5       125.     0.0881
       2.5       126.     0.1959
       2.5       127.     0.4271
       2.5       128.     0.8255
       2.5       129.     1.1976
       2.5       130.     2.0649
       2.5       131.     3.0509
       2.5       132.     3.4480
       2.5       133.     4.7403
       2.5       134.     5.4658
       2.5       136.     5.4377
       2.5       137.     6.3996
       2.5       138.     6.7261
       2.5       139.     6.2297
       2.5       140.     6.4374
       2.5       141.     6.1526
       2.5       142.     5.7966
       2.5       143.     5.6059
       2.5       144.     5.1089
       2.5       145.     4.2834
       2.5       146.     3.5741
       2.5       147.     3.1006
       2.5       148.     2.2973
       2.5       149.     1.7069
       2.5       150.     1.4221
       2.5       151.     0.9244
       2.5       152.     0.6632
       2.5       153.     0.4959
       2.5       154.     0.3281
       2.5       155.     0.1830
       2.5       157.     0.0850
       2.5       158.     0.0804
       2.5       160.     0.0516
       2.5       162.     0.0456
       2.5       164.     0.0161
       2.5       166.     0.0343
       3.0        74.     0.0122
       3.0        76.     0.0167
       3.0        78.     0.0249
       3.0        79.     0.0913
       3.0        81.     0.2041
       3.0        82.     0.3190
       3.0        83.     0.4573
       3.0        84.     0.7602
       3.0        85.     0.9926
       3.0        86.     1.4366
       3.0        87.     1.7630
       3.0        88.     2.3957
       3.0        89.     3.0513
       3.0        90.     3.6605
       3.0        91.     4.5276
       3.0        92.     4.9716
       3.0        93.     5.3222
       3.0        94.     5.8844
       3.0        95.     6.3982
       3.0        96.     6.6306
       3.0        97.     6.4633
       3.0        98.     5.9434
       3.0        99.     6.1281
       3.0       100.     5.8668
       3.0       101.     5.2750
       3.0       102.     4.9902
       3.0       103.     4.4461
       3.0       104.     3.5016
       3.0       105.     2.6989
       3.0       106.     2.1071
       3.0       107.     1.1882
       3.0       108.     0.7139
       3.0       108.     0.4540
       3.0       109.     0.2867
       3.0       110.     0.2590
       3.0       111.     0.1340
       3.0       112.     0.0772
       3.0       113.     0.0887
       3.0       114.     0.0460
       3.0       116.     0.0621
       3.0       118.     0.0451
       3.0       119.     0.0541
       3.0       120.     0.0631
       3.0       121.     0.0534
       3.0       123.     0.0717
       3.0       124.     0.1467
       3.0       125.     0.1770
       3.0       126.     0.3061
       3.0       127.     0.4938
       3.0       128.     0.9619
       3.0       129.     1.6175
       3.0       130.     2.3678
       3.0       131.     3.2349
       3.0       132.     3.7024
       3.0       134.     5.0162
       3.0       135.     5.6241
       3.0       136.     5.7382
       3.0       137.     6.1359
       3.0       138.     6.4381
       3.0       140.     6.5502
       3.0       141.     5.8886
       3.0       142.     5.7448
       3.0       143.     5.4123
       3.0       144.     4.8446
       3.0       145.     4.1595
       3.0       146.     3.5449
       3.0       147.     2.8362
       3.0       148.     2.2222
       3.0       149.     1.7016
       3.0       150.     1.3926
       3.0       151.     0.9190
       3.0       152.     0.7282
       3.0       153.     0.5381
       3.0       154.     0.3937
       3.0       155.     0.1545
       3.0       157.     0.1256
       3.0       158.     0.0745
       3.0       160.     0.0463
       3.0       162.     0.0395
       3.0       164.     0.0119
       3.0       166.     0.0051
ENDDATA            493
ENDSUBENT          505
SUBENT        23591004   20210228   20210625   20210603       2299
BIB                  3          5
REACTION   (92-U-235(N,F)MASS,PRE,FY)
ERR-ANALYS Quantization error (1/2 pixel) for scale Y 0.014 %/fis
           (DATA-ERR) Type of uncertainty is not explained in the
           article.
STATUS     (CURVE) Fig.4 of Nucl.Phys.Sect.A,v.462,p.85,1987
ENDBIB               5
COMMON               1          3
ERR-DIG
PC/FIS
 0.0073
ENDCOMMON            3
DATA                 4        513
EN         MASS       DATA       DATA-ERR
MEV        NO-DIM     PC/FIS     PC/FIS
       3.5        74.     0.0164
       3.5        76.     0.0360
       3.5        78.     0.0190
       3.5        79.     0.0742
       3.5        80.     0.1475
       3.5        81.     0.3114
       3.5        83.     0.4753
       3.5        84.     0.6027
       3.5        85.     0.9653
       3.5        86.     1.4367
       3.5        87.     1.5823
       3.5        88.     2.3431
       3.5        89.     2.7420
       3.5        90.     3.2496
       3.5        91.     4.3723
       3.5        92.     4.8436
       3.5        93.     5.3149
       3.5        94.     5.8224
       3.5        95.     6.2031
       3.5        96.     6.6926
       3.5        97.     6.4941
       3.5        99.     6.1696
       3.5       100.     5.6457
       3.5       101.     5.5196
       3.5       102.     5.1584
       3.5       103.     4.4894
       3.5       104.     3.4042
       3.5       105.     2.7714
       3.5       106.     2.1206
       3.5       107.     1.3789
       3.5       108.     0.8549
       3.5       109.     0.4576
       3.5       110.     0.2177
       3.5       111.     0.2033
       3.5       112.     0.1111     0.0235
       3.5       113.     0.1075     0.0162
       3.5       114.     0.0551
       3.5       115.     0.0751     0.0162
       3.5       116.     0.0553
       3.5       117.     0.0391
       3.5       118.     0.0608
       3.5       120.     0.0609
       3.5       121.     0.0701     0.0181
       3.5       122.     0.0720     0.0162
       3.5       123.     0.1100     0.0181
       3.5       124.     0.1626     0.0235
       3.5       125.     0.1573     0.0235
       3.5       126.     0.3057     0.0344
       3.5       127.     0.4883
       3.5       128.     0.9417
       3.5       129.     1.5758
       3.5       130.     2.1920
       3.5       131.     3.1156
       3.5       132.     4.0937
       3.5       133.     4.5648
       3.5       134.     5.5610
       3.5       135.     5.5077
       3.5       136.     5.7075
       3.5       137.     6.1062
       3.5       138.     6.5955
       3.5       139.     6.4516
       3.5       140.     5.8007
       3.5       142.     6.0915
       3.5       143.     5.1331
       3.5       144.     4.7357
       3.5       145.     4.0667
       3.5       146.     3.4702
       3.5       147.     2.9098
       3.5       148.     2.1322
       3.5       149.     1.5720
       3.5       150.     1.2468
       3.5       151.     0.8854
       3.5       152.     0.7777
       3.5       153.     0.3984
       3.5       154.     0.2180
       3.5       155.     0.1287
       3.5       157.     0.0392
       3.5       159.     0.0042
       3.5       160.     0.0234
       3.5       162.     0.0245
       3.5       163.     0.0076
       3.5       165.     0.0088
       3.5       166.     0.0076
       4.0        74.     0.0143
       4.0        75.     0.0333
       4.0        77.     0.0160
       4.0        78.     0.0349
       4.0        79.     0.0536
       4.0        80.     0.1628
       4.0        81.     0.2356
       4.0        82.     0.2906
       4.0        83.     0.4178
       4.0        84.     0.6717
       4.0        85.     0.9800
       4.0        86.     1.1978
       4.0        87.     1.5422
       4.0        88.     2.1038
       4.0        89.     2.8645
       4.0        90.     3.5710
       4.0        91.     3.7705
       4.0        92.     4.8753
       4.0        93.     5.4911
       4.0        95.     5.4559
       4.0        95.     6.3610
       4.0        96.     6.0903
       4.0        97.     6.6519     0.1629
       4.0        98.     6.3991
       4.0        99.     6.3092
       4.0       100.     5.6943
       4.0       101.     5.6770
       4.0       102.     5.3697
       4.0       103.     4.6463
       4.0       104.     3.7961
       4.0       105.     2.8919
       4.0       106.     2.3313
       4.0       107.     1.4450
       4.0       108.     0.9569
       4.0       109.     0.5411
       4.0       110.     0.3202
       4.0       111.     0.2298
       4.0       112.     0.1466
       4.0       113.     0.1303
       4.0       114.     0.0942     0.0163
       4.0       115.     0.0906     0.0144
       4.0       117.     0.0853     0.0216
       4.0       117.     0.0871     0.0180
       4.0       118.     0.0799
       4.0       119.     0.0909     0.0199
       4.0       120.     0.0674     0.0199
       4.0       121.     0.0729
       4.0       122.     0.0548
       4.0       123.     0.1508
       4.0       124.     0.1798
       4.0       125.     0.2776
       4.0       126.     0.2922     0.0362
       4.0       127.     0.5517
       4.0       128.     1.0228
       4.0       129.     1.5844
       4.0       130.     2.2185
       4.0       131.     3.1422
       4.0       132.     4.0114
       4.0       133.     4.6997
       4.0       134.     5.1528
       4.0       135.     5.6239
       4.0       136.     6.1312
       4.0       137.     5.8785
       4.0       138.     6.2048
       4.0       139.     6.5673     0.1448
       4.0       140.     6.1517
       4.0       141.     5.6817
       4.0       142.     5.3564
       4.0       143.     5.4295
       4.0       144.     4.7060
       4.0       145.     4.1273
       4.0       146.     3.3315
       4.0       147.     2.8253
       4.0       148.     2.3190
       4.0       149.     1.6681
       4.0       150.     1.2525
       4.0       151.     0.9452
       4.0       152.     0.7829
       4.0       153.     0.5301
       4.0       154.     0.2955
       4.0       155.     0.1877
       4.0       156.     0.0978
       4.0       158.     0.0625
       4.0       159.     0.0271
       4.0       161.     0.0282
       4.0       163.     0.0291
       4.0       164.     0.0298
       4.0       165.     0.0306
       4.0       166.     0.0132
       4.5        74.     0.0136
       4.5        76.     0.0147
       4.5        77.     0.0140
       4.5        79.     0.0697
       4.5        81.     0.1795
       4.5        82.     0.2886
       4.5        83.     0.4251
       4.5        84.     0.6422
       4.5        85.     0.9946
       4.5        86.     1.3473
       4.5        87.     1.5913
       4.5        88.     2.0519
       4.5        89.     2.7016
       4.5        90.     3.4053
       4.5        91.     4.0277
       4.5        92.     5.0020
       4.5        92.     5.3539
       4.5        94.     5.5174
       4.5        95.     5.6804
       4.5        96.     6.2493     0.1349
       4.5        97.     6.0339
       4.5        98.     6.5214     0.1622
       4.5        99.     6.3333     0.1895
       4.5        99.     5.0907
       4.5       101.     5.6864
       4.5       102.     5.4443
       4.5       103.     4.4724
       4.5       104.     3.7166
       4.5       105.     2.8529
       4.5       106.     2.3672
       4.5       107.     1.5032
       4.5       108.     1.0990
       4.5       109.     0.5325
       4.5       110.     0.4344     0.0486
       4.5       111.     0.2912
       4.5       112.     0.3184     0.0351
       4.5       113.     0.0860     0.0243
       4.5       114.     0.1186
       4.5       115.     0.1349     0.0215
       4.5       116.     0.1377     0.0243
       4.5       117.     0.0972     0.0243
       4.5       118.     0.1298     0.0189
       4.5       119.     0.0650
       4.5       120.     0.0975
       4.5       121.     0.1301     0.0243
       4.5       122.     0.1302     0.0270
       4.5       123.     0.1763     0.0243
       4.5       124.     0.2196
       4.5       125.     0.2738
       4.5       126.     0.4441     0.0459
       4.5       127.     0.6590
       4.5       128.     1.0655
       4.5       129.     1.4987
       4.5       130.     2.5540
       4.5       131.     3.0143
       4.5       132.     3.7451
       4.5       133.     4.5029
       4.5       134.     4.9634
       4.5       135.     5.3699
       4.5       136.     5.5331
       4.5       137.     5.9663     0.1622
       4.5       138.     6.4269     0.1622
       4.5       139.     6.2118
       4.5       140.     6.1048
       4.5       140.     5.7269
       4.5       142.     5.7286
       4.5       143.     4.9995
       4.5       144.     4.8381
       4.5       145.     3.9747
       4.5       146.     3.4620
       4.5       147.     3.0578
       4.5       148.     2.0854
       4.5       149.     1.7625
       4.5       150.     1.3579
       4.5       151.     0.9536
       4.5       152.     0.6302
       4.5       153.     0.5234
       4.5       154.     0.2810
       4.5       155.     0.1743
       4.5       157.     0.0946
       4.5       158.     0.0419
       4.5       160.     0.0168
       4.5       162.     0.0086
       4.5       164.     0.0209
       4.5       166.     0.0045
       5.0        74.     0.0061
       5.0        76.     0.0014
       5.0        78.     0.0290
       5.0        79.     0.0835
       5.0        81.     0.1919
       5.0        82.     0.2463
       5.0        83.     0.4898
       5.0        84.     0.7333
       5.0        85.     0.9498
       5.0        86.     1.1933
       5.0        87.     1.6530
       5.0        88.     2.3559
       5.0        89.     2.6535
       5.0        90.     3.5727
       5.0        91.     4.1406
       5.0        92.     4.3570
       5.0        93.     5.1951
       5.0        94.     5.3305
       5.0        95.     5.8172
       5.0        96.     6.3310
       5.0        97.     5.9258
       5.0        98.     6.1423
       5.0        99.     6.3588
       5.0       100.     5.5482
       5.0       101.     5.2782
       5.0       102.     5.4136
       5.0       103.     4.4409
       5.0       104.     4.0087
       5.0       105.     3.5765
       5.0       106.     2.6038
       5.0       107.     1.6312
       5.0       108.     1.2530
       5.0       109.     0.8208
       5.0       110.     0.6334     0.0486
       5.0       111.     0.3551     0.0351
       5.0       112.     0.2794     0.0297
       5.0       113.     0.2551     0.0324
       5.0       114.     0.1822
       5.0       115.     0.2119     0.0270
       5.0       116.     0.1525     0.0243
       5.0       117.     0.0958     0.0216
       5.0       118.     0.1336     0.0189
       5.0       119.     0.0877     0.0216
       5.0       120.     0.1175     0.0189
       5.0       121.     0.1689     0.0270
       5.0       122.     0.1959     0.0270
       5.0       123.     0.1338     0.0243
       5.0       124.     0.2770     0.0297
       5.0       125.     0.3311     0.0351
       5.0       126.     0.4419     0.0378
       5.0       127.     0.6094
       5.0       128.     1.1772
       5.0       129.     1.5288
       5.0       130.     2.2047
       5.0       131.     2.9347
       5.0       132.     3.7188
       5.0       133.     4.6649
       5.0       134.     4.7192
       5.0       135.     5.3141
       5.0       137.     5.4226
       5.0       138.     5.8823
       5.0       138.     6.1797
       5.0       140.     5.9639
       5.0       141.     6.2345
       5.0       141.     5.6129
       5.0       142.     5.4781
       5.0       143.     5.1270
       5.0       144.     4.4245
       5.0       145.     4.1004
       5.0       146.     3.5872
       5.0       147.     2.9928
       5.0       148.     2.3174
       5.0       149.     1.8313
       5.0       150.     1.4532
       5.0       151.     1.1290
       5.0       152.     0.8321
       5.0       153.     0.4810
       5.0       154.     0.2920
       5.0       155.     0.1842
       5.0       157.     0.1305
       5.0       158.     0.0498
       5.0       160.     0.0233
       5.0       162.     0.0238
       5.0       164.     0.0243
       5.0       165.     0.0247
       5.0       166.     0.0021
       5.5        74.     0.0127
       5.5        76.     0.0237
       5.5        78.     0.0325
       5.5        80.     0.0884
       5.5        81.     0.2529
       5.5        82.     0.2814
       5.5        83.     0.5270
       5.5        84.     0.7457
       5.5        85.     1.0460
       5.5        86.     1.4007
       5.5        87.     1.6735
       5.5        88.     2.1371
       5.5        89.     3.0634
       5.5        90.     3.4448
       5.5        91.     4.2623
       5.5        92.     4.5352
       5.5        93.     4.9987
       5.5        94.     5.2990
       5.5        95.     5.7626
       5.5        96.     6.2805
       5.5        97.     6.0908
       5.5        98.     5.9014
       5.5        99.     6.0928
       5.5       100.     5.4131
       5.5       100.     5.2234
       5.5       102.     5.0344
       5.5       103.     4.2187
       5.5       104.     3.7843
       5.5       105.     2.8602
       5.5       106.     2.2354
       5.5       107.     1.4744
       5.5       108.     1.0942
       5.5       109.     0.7417
       5.5       110.     0.5096     0.0408
       5.5       111.     0.4117
       5.5       112.     0.3846     0.0381
       5.5       113.     0.2242     0.0326
       5.5       114.     0.1862     0.0299
       5.5       115.     0.2270     0.0272
       5.5       116.     0.1455     0.0217
       5.5       117.     0.1456     0.0244
       5.5       118.     0.1485     0.0326
       5.5       119.     0.1594     0.0217
       5.5       120.     0.1377     0.0244
       5.5       121.     0.2086     0.0299
       5.5       122.     0.2196     0.0271
       5.5       123.     0.3040     0.0326
       5.5       124.     0.3232     0.0353
       5.5       125.     0.4756     0.0408
       5.5       126.     0.4947     0.0462
       5.5       127.     0.7041
       5.5       128.     1.1674
       5.5       129.     1.9030
       5.5       130.     2.5570
       5.5       131.     3.2924
       5.5       132.     3.9464
       5.5       133.     4.9000
       5.5       134.     5.1184
       5.5       135.     5.4731
       5.5       136.     5.4741
       5.5       137.     6.0467
       5.5       139.     6.3475
       5.5       140.     5.9946
       5.5       141.     5.8595
       5.5       142.     5.0443
       5.5       143.     5.2085
       5.5       144.     4.2570
       5.5       145.     3.9315
       5.5       146.     3.2522
       5.5       147.     2.7088
       5.5       148.     2.1656
       5.5       149.     1.7038
       5.5       151.     1.2970
       5.5       151.     1.0528
       5.5       153.     0.6729
       5.5       153.     0.4560
       5.5       155.     0.3212
       5.5       156.     0.1859
       5.5       157.     0.0781
       5.5       158.     0.0252
       5.5       160.     0.0256
       5.5       161.     0.0263
       5.5       163.     0.0250
       5.5       164.     0.0238
       5.5       166.     0.0220
       6.0        74.     0.0147
       6.0        75.     0.0172
       6.0        77.     0.0169
       6.0        78.     0.0378
       6.0        80.     0.0924
       6.0        81.     0.2014
       6.0        82.     0.2832
       6.0        83.     0.5283
       6.0        84.     0.6373
       6.0        85.     0.8551
       6.0        86.     1.3451
       6.0        87.     1.6173
       6.0        88.     2.2161
       6.0        89.     2.7605
       6.0        90.     3.3321
       6.0        91.     3.8764
       6.0        92.     4.3664
       6.0        93.     5.0196
       6.0        94.     5.3735
       6.0        95.     5.6729
       6.0        96.     5.5915
       6.0        97.     6.0271
       6.0        98.     5.9184
       6.0        99.     6.0818
       6.0       100.     5.5650
       6.0       101.     5.1841
       6.0       102.     5.2932
       6.0       103.     4.3410
       6.0       104.     4.1506
       6.0       105.     3.2257
       6.0       106.     2.5728
       6.0       107.     2.0288
       6.0       108.     1.2670
       6.0       109.     0.8590
       6.0       110.     0.6845
       6.0       111.     0.5376
       6.0       112.     0.3825
       6.0       113.     0.3526
       6.0       114.     0.3145
       6.0       115.     0.2683     0.0272
       6.0       116.     0.1894     0.0244
       6.0       117.     0.1431     0.0190
       6.0       118.     0.1568
       6.0       119.     0.1840
       6.0       120.     0.2058     0.0217
       6.0       121.     0.2629     0.0217
       6.0       122.     0.2330     0.0272
       6.0       123.     0.3555     0.0272
       6.0       124.     0.4262     0.0326
       6.0       125.     0.5269     0.0353
       6.0       126.     0.5626
       6.0       127.     0.9164
       6.0       128.     1.1615
       6.0       129.     1.9236
       6.0       130.     2.6040
       6.0       131.     3.2844
       6.0       132.     3.6655
       6.0       133.     4.8085
       6.0       134.     5.3801
       6.0       136.     5.3259
       6.0       137.     5.5165
       6.0       137.     5.9792
       6.0       139.     5.8163
       6.0       141.     5.8165
       6.0       141.     5.5989
       6.0       142.     5.4358
       6.0       143.     4.8374
       6.0       144.     4.5654
       6.0       145.     3.8309
       6.0       146.     3.1508
       6.0       147.     2.5795
       6.0       148.     2.1716
       6.0       149.     1.6547
       6.0       150.     1.3012
       6.0       151.     0.9748
       6.0       152.     0.7029
       6.0       153.     0.4582
       6.0       154.     0.2951
       6.0       156.     0.1592
       6.0       157.     0.0506
       6.0       159.     0.0307
       6.0       160.     0.0305
       6.0       162.     0.0274
       6.0       164.     0.0199
       6.0       166.     0.0167
ENDDATA            515
ENDSUBENT          529
SUBENT        23591005   20210228   20210625   20210603       2299
BIB                  5          8
REACTION   (92-U-235(N,F)MASS,PAR/PRE,FY,,SPA)
ANALYSIS    Yields were normaliezed to 100 % at each outgoing
           energy .
EN-SEC     (E,LF) Energy of light fragment, energy window +-0.5MeV
ERR-ANALYS Quantization error (1/2 pixel) for scale Y 0.051 %/fis
           (DATA-ERR) Type of uncertainty is not explained in the
           article.
STATUS     (CURVE) Fig.11 of Nucl.Phys.Sect.A,v.462,p.85,1987
ENDBIB               8
COMMON               3          3
EN-DUMMY   E-ERR-HW   ERR-DIG
EV         MEV        PC/FIS
 0.0253     0.5        0.043
ENDCOMMON            3
DATA                 4        261
E          MASS       DATA       DATA-ERR
MEV        NO-DIM     PC/FIS     PC/FIS
       107.        81.      0.290
       107.        82.      0.365
       107.        83.      0.440
       107.        84.      0.617
       107.        85.      0.890
       107.        86.      1.162
       107.        87.      1.438
       107.        88.      1.910
       107.        89.      2.781
       107.        90.      3.848
       107.        91.      4.621
       107.        92.      4.895
       107.        93.      4.771
       107.        94.      4.746
       107.        95.      5.418
       107.        96.      6.388
       107.        97.      6.761
       107.        98.      6.338
       107.        99.      6.612
       107.       100.      7.087
       107.       101.      7.458
       107.       102.      7.831
       107.       103.      6.712
       107.       104.      4.497
       107.       105.      2.782
       107.       106.      1.464
       107.       107.      0.644
       107.       108.      0.222
       107.       109.      0.197
       108.        81.      0.468
       108.        82.      0.451
       108.        83.      0.632
       108.        84.      0.714
       108.        85.      1.095
       108.        86.      1.177
       108.        87.      1.458
       108.        88.      1.937
       108.        89.      2.817
       108.        90.      3.892
       108.        91.      4.471
       108.        92.      4.555
       108.        93.      4.040
       108.        94.      4.420
       108.        95.      5.497
       108.        96.      6.373
       108.        97.      6.655
       108.        98.      6.638
       108.        99.      7.118
       108.       100.      7.796
       108.       101.      8.774
       108.       102.      9.154
       108.       103.      7.545
       108.       104.      4.941
       108.       105.      2.934
       108.       106.      1.622
       108.       107.      0.809
       108.       108.      0.393
       108.       109.      0.376
       109.        81.      0.247
       109.        82.      0.224
       109.        83.      0.401
       109.        84.      0.478
       109.        85.      0.754
       109.        86.      0.931
       109.        87.      1.110
       109.        88.      1.684
       109.        89.      2.656
       109.        90.      3.628
       109.        91.      4.004
       109.        92.      3.783
       109.        93.      3.363
       109.        94.      3.539
       109.        95.      4.611
       109.        96.      5.585
       109.        97.      5.762
       109.        98.      6.040
       109.        99.      6.911
       109.       100.      8.082
       109.       101.      9.452
       109.       102.      9.830
       109.       103.      8.015
       109.       104.      4.910
       109.       105.      2.597
       109.       106.      1.282
       109.       107.      0.363
       109.       108.      0.144
       109.       109.      0.121
       110.        81.      0.233
       110.        82.      0.306
       110.        83.      0.382
       110.        84.      0.556
       110.        85.      0.831
       110.        86.      1.106
       110.        87.      1.182
       110.        88.      1.656
       110.        89.      2.739
       110.        90.      3.723
       110.        91.      3.794
       110.        92.      3.362
       110.        93.      2.729
       110.        94.      3.105
       110.        95.      4.187
       110.        96.      4.970
       110.        97.      5.245
       110.        98.      5.621
       110.        99.      7.006
       110.       100.      8.694
       110.       101.     10.990
       110.       102.     10.963
       110.       103.      9.017
       110.       104.      5.455
       110.       105.      2.800
       110.       106.      1.259
       110.       107.      0.323
       110.       108.      0.093
       110.       109.      0.065
       111.        81.      0.118
       111.        82.      0.202
       111.        83.      0.284
       111.        84.      0.465
       111.        85.      0.748
       111.        86.      0.933
       111.        87.      1.114
       111.        88.      1.802
       111.        89.      2.794
       111.        90.      3.683
       111.        91.      3.462
       111.        92.      2.432
       111.        93.      1.910
       111.        94.      2.294
       111.        95.      3.688
       111.        96.      4.275
       111.        97.      3.650
       111.        98.      4.540
       111.        99.      6.844
       111.       100.      9.248
       111.       101.     11.853
       111.       102.     12.844
       111.       103.     10.299
       111.       104.      6.040
       111.       105.      2.890
       111.       106.      0.952
       111.       107.      0.126
       111.       108.      0.006
       111.       109.      0.014
       112.        81.      0.028
       112.        82.      0.048
       112.        83.      0.124
       112.        84.      0.505
       112.        85.      0.581
       112.        86.      1.162
       112.        87.      1.339
       112.        88.      1.616
       112.        89.      3.106
       112.        90.      3.888
       112.        91.      3.359
       112.        92.      2.122
       112.        93.      0.987
       112.        94.      1.565
       112.        95.      2.855
       112.        96.      2.830
       112.        97.      2.402
       112.        98.      2.780
       112.        99.      5.985
       112.       100.      9.193
       112.       101.     12.804
       112.       102.     14.497
       112.       103.     11.745
       112.       104.      5.863
       112.       105.      2.404
       112.       106.      0.361
       112.       107.      0.270
       112.       108.      0.297
       112.       109.      0.322
       113.        81.      0.211
       113.        82.      0.288
       113.        83.      0.868
       113.        84.      0.943
       113.        85.      2.028
       113.        86.      2.103
       113.        87.      1.673
       113.        88.      2.559
       113.        89.      3.845
       113.        90.      4.930
       113.        91.      3.387
       113.        92.      1.140
       113.        93.      1.215
       113.        94.      1.593
       113.        95.      2.175
       113.        96.      2.048
       113.        97.      2.224
       113.        98.      2.804
       113.        99.      5.302
       113.       100.      9.519
       113.       101.     14.745      0.709
       113.       102.     16.943      0.606
       113.       103.     10.756      0.505
       113.       104.      4.870
       113.       105.      1.613
       113.       106.      0.070
       113.       107.      0.047
       113.       108.      0.021
       113.       109.      0.007
       114.        81.      0.151
       114.        82.      0.237
       114.        83.      1.027
       114.        84.      0.907
       114.        85.      2.305
       114.        86.      2.186
       114.        87.      2.472
       114.        88.      3.363      0.507
       114.        89.      5.569      0.606
       114.        90.      6.157      0.808
       114.        91.      2.200
       114.        92.      1.377
       114.        93.      1.358
       114.        94.      1.441
       114.        95.      2.635
       114.        96.      2.315
       114.        97.      2.096
       114.        98.      3.391      0.606
       114.        99.      6.606      0.707
       114.       100.     10.831      1.010
       114.       101.     14.451      1.212
       114.       102.     14.736      1.313
       114.       103.      7.344      0.808
       114.       104.      2.580
       114.       105.      0.442
       114.       106.      0.019
       114.       107.      0.003
       114.       108.      0.014
       114.       109.      0.034
       115.        81.      0.362
       115.        82.      0.065
       115.        83.      1.427      0.808
       115.        84.      4.031      1.212
       115.        85.      3.097      1.214
       115.        86.      5.196      1.517
       115.        87.      1.940      0.808
       115.        88.      5.654      1.514
       115.        89.      6.946      1.613
       115.        90.      3.993      1.212
       115.        91.      3.061      1.212
       115.        92.      1.117      0.507
       115.        93.      0.993      0.707
       115.        94.      3.194      1.010
       115.        95.      1.858      0.909
       115.        96.      2.239      1.010
       115.        97.      4.843      1.313
       115.        98.      6.738      1.716
       115.        99.      8.835      2.022
       115.       100.      8.509      1.817
       115.       101.     10.505      2.123
       115.       102.      7.958      1.918
       115.       103.      2.682      1.111
       115.       104.      1.044      0.606
       115.       105.      0.092
       115.       106.      0.115
       115.       107.      0.136
       115.       108.      0.159
       115.       109.      0.084
ENDDATA            263
ENDSUBENT          280
SUBENT        23591006   20210228   20210625   20210603       2299
BIB                  5         10
REACTION   (92-U-235(N,F),,DA,FF,RSD)
MISC-COL   (MISC) Anisotropy for 138/98, 139/97, 140/96, 141/95
           mass splits.
COMMENT    Of compiler.
            Angular anisotropy A=W(0deg)/W(90deg)-1 is given on
           figures 14,15.
           In data block values of W(0deg)/W(90deg) are given.
ERR-ANALYS (DATA-ERR) Type of uncertainty is not explained in the
           article.
STATUS     (CURVE) Figs.14,15 of Nucl.Phys.Sect.A,v.462,p.85,1987
ENDBIB              10
COMMON               2          3
ANG        ERR-DIG
ADEG       NO-DIM
0.         0.00051
ENDCOMMON            3
DATA                 5         12
EN         DATA       DATA-ERR   MISC       MISC-ERR
MEV        NO-DIM     NO-DIM     NO-DIM     NO-DIM
 0.5        1.0984     0.0217     1.0600     0.0392
 1.0        1.1381     0.0225     1.1715     0.0426
 1.5        1.1754     0.0234     1.2113     0.0342
 2.0        1.1609     0.0200     1.1291     0.0317
 2.5        1.1798     0.0209     1.1205     0.0384
 3.0        1.1795     0.0209     1.2095     0.0451
 3.5        1.1608     0.0192     1.1908     0.0434
 4.0        1.1613     0.0209     1.1513     0.0509
 4.5        1.1685     0.0225     1.1601     0.0693
 5.0        1.1623     0.0234     1.2266     0.0526
 5.5        1.1395     0.0217     1.1403     0.0877
 6.0        1.1826     0.0217     1.1809     0.0492
ENDDATA             14
ENDSUBENT           33
ENDENTRY             6
