ENTRY            C1316   20050815   20051109                  C075
SUBENT        C1316001   20050815   20051109                  C075
BIB                  9         17
INSTITUTE  (1USANCA,1USATNL)
REFERENCE  (J,NP/A,758,73,2005)
AUTHOR     (C.Iliadis,A.E.Champagne)
TITLE      Nuclear Astrophysics: Direct measurements with stable
            beams
FACILITY   (ACCEL,1USATNL) Laboratory for Experimental Nuclear
             Astrophysics (LENA).
INC-SOURCE Proton and alpha-particle beam currents of up to 180
            microA on target at energies below 1 MeV.
DETECTOR   (GE-IN) Large-volume HPGe detector is placed at an
            angle of 0 degree (with respect to the beam direction)
           (NAICR)
SAMPLE     A tantalum backing in 17O-enriched water. Targets
            have a well-defined stoichiometry (Ta2O5) and a target
            thickness that is precisely determined by the
            anodizing voltage.
HISTORY    (20050815C) DR
ENDBIB              17
NOCOMMON             0          0
ENDSUBENT           20
SUBENT        C1316002   20050815   20051109                  C075
BIB                  4          4
REACTION   (8-O-17(P,G)9-F-18,PAR,SIG,,REL)
EN-SEC     (E-EXC,9-F-18)
ERR-ANALYS (DATA-ERR) No information
STATUS     (CURVE) Data taken from Fig. 1
ENDBIB               4
NOCOMMON             0          0
DATA                 5         20
E-EXC      EN         DATA       DATA-MAX   DATA-ERR
MEV        MEV        ARB-UNITS  ARB-UNITS  ARB-UNITS
1.081         1.82E+02              7.95E+00
1.081         1.91E+02              8.00E+00
1.081         1.93E+02   3.12E+01              6.80E+00
1.081         1.96E+02   5.00E+01              9.26E+00
1.081         1.98E+02   3.71E+01              9.07E+00
1.081         1.99E+02   3.50E+01              7.18E+00
1.081         2.00E+02   4.62E+01              9.26E+00
1.081         2.08E+02   1.99E+01              6.24E+00
1.081         2.13E+02              5.83E+00
1.121         5.15E+02   2.83E+01
1.121         5.17E+02   2.97E+02              2.83E+01
1.121         5.18E+02   9.12E+02              2.83E+01
1.121         5.20E+02   1.46E+03              3.78E+01
1.121         5.22E+02   1.50E+03              3.78E+01
1.121         5.24E+02   1.37E+03              4.25E+01
1.121         5.26E+02   1.19E+03              4.25E+01
1.121         5.28E+02   9.03E+02              3.30E+01
1.121         5.31E+02   5.20E+02              1.89E+01
1.121         5.32E+02   3.54E+02
1.121         5.34E+02   1.41E+02
ENDDATA             22
ENDSUBENT           31
ENDENTRY             2
