ENTRY            C1363   20100506   20101201   20101019       C100
SUBENT        C1363001   20100506   20101201   20101019       C100
BIB                 11         17
INSTITUTE  (1USAWIS)
REFERENCE  (J,PR,112,1210,1958)
AUTHOR     (D.F.Herring,R.Chiba,B.R.Gasten,H.T.Richards)
TITLE      N14( alpha ,  alpha )N14 and N14( alpha , p)O17
            Differential Cross Sections
FACILITY   (ACCEL,1USAWIS) The Wisconsin electrostatic generator
INC-SOURCE Alpha particles
METHOD     (ASEP)
DETECTOR   (MAGSP) Magnetic and cylindrical electrostatic
            analyzer.
           (SCIN) A thin (0.004 in.) CsI thallium activated
            crystal
SAMPLE     Purified natural nitrogen at 99.996 % pure in 15N
PART-DET   (A)
HISTORY    (20051104C) DR
           (20100220A) S.H. rescanned sub 3
                            added subs.
ENDBIB              17
NOCOMMON             0          0
ENDSUBENT           20
SUBENT        C1363002   20051104   20060111   20060104       C076
BIB                  3          4
REACTION   (7-N-14(A,EL)7-N-14,,DA)
ERR-ANALYS (ERR-S) Statistical uncertainty
           (ERR-SYS) Systematic uncertainty
STATUS     (CURVE) Data taken from Fig. 3
ENDBIB               4
NOCOMMON             0          0
DATA                 6        660
ANG-CM     EN         EN-RSL     DATA-CM    ERR-S      ERR-SYS
ADEG       MEV        KEV        MB/SR      MB/SR      PER-CENT
170.8        2.003E+00   4.1        1.15E+02             2.9
170.8        2.009E+00   4.1        1.12E+02             2.9
170.8        2.014E+00   4.1        1.15E+02             2.9
170.8        2.023E+00   4.1        1.07E+02             2.9
170.8        2.030E+00   4.1        1.00E+02             2.9
170.8        2.036E+00   4.1        1.14E+02             2.9
170.8        2.043E+00   4.1        1.07E+02             2.9
170.8        2.047E+00   4.1        1.03E+02             2.9
170.8        2.052E+00   4.1        1.10E+02             2.9
170.8        2.057E+00   4.1        1.06E+02             2.9
170.8        2.065E+00   4.1        1.04E+02             2.9
170.8        2.070E+00   4.1        1.09E+02             2.9
170.8        2.075E+00   4.1        1.02E+02             2.9
170.8        2.082E+00   4.1        1.01E+02   5.79E+00  2.9
170.8        2.088E+00   4.1        1.01E+02             2.9
170.8        2.099E+00   4.1        1.04E+02             2.9
170.8        2.104E+00   4.1        1.01E+02             2.9
170.8        2.111E+00   4.1        9.81E+01             2.9
170.8        2.116E+00   4.1        9.64E+01             2.9
170.8        2.122E+00   4.1        9.87E+01             2.9
170.8        2.129E+00   4.1        1.00E+02             2.9
170.8        2.135E+00   4.1        9.52E+01             2.9
170.8        2.139E+00   4.1        9.81E+01             2.9
170.8        2.146E+00   4.1        9.99E+01             2.9
170.8        2.151E+00   4.1        1.01E+02             2.9
170.8        2.156E+00   4.1        9.82E+01             2.9
170.8        2.160E+00   4.1        1.01E+02             2.9
170.8        2.167E+00   4.1        1.02E+02   4.63E+00  2.9
170.8        2.176E+00   4.1        9.59E+01             2.9
170.8        2.182E+00   4.1        9.99E+01             2.9
170.8        2.188E+00   4.1        9.59E+01             2.9
170.8        2.194E+00   4.1        9.36E+01             2.9
170.8        2.200E+00   4.1        9.24E+01             2.9
170.8        2.206E+00   4.1        8.78E+01             2.9
170.8        2.213E+00   4.1        9.07E+01             2.9
170.8        2.219E+00   4.1        9.30E+01             2.9
170.8        2.223E+00   4.1        8.78E+01             2.9
170.8        2.230E+00   4.1        9.36E+01             2.9
170.8        2.233E+00   4.1        8.96E+01             2.9
170.8        2.240E+00   4.1        8.67E+01             2.9
170.8        2.246E+00   4.1        8.90E+01             2.9
170.8        2.250E+00   4.1        8.61E+01             2.9
170.8        2.259E+00   4.1        8.61E+01             2.9
170.8        2.266E+00   4.1        9.14E+01   4.05E+00  2.9
170.8        2.270E+00   4.1        8.91E+01             2.9
170.8        2.278E+00   4.1        8.73E+01             2.9
170.8        2.285E+00   4.1        8.39E+01             2.9
170.8        2.291E+00   4.1        8.39E+01             2.9
170.8        2.296E+00   4.1        8.39E+01             2.9
170.8        2.301E+00   4.1        8.79E+01             2.9
170.8        2.307E+00   4.1        8.45E+01             2.9
170.8        2.314E+00   4.1        8.45E+01             2.9
170.8        2.321E+00   4.1        8.04E+01             2.9
170.8        2.324E+00   4.1        8.39E+01   5.21E+00  2.9
170.8        2.330E+00   4.1        7.70E+01             2.9
170.8        2.335E+00   4.1        7.29E+01             2.9
170.8        2.336E+00   4.1        8.45E+01             2.9
170.8        2.340E+00   4.1        7.76E+01             2.9
170.8        2.349E+00   4.1        7.70E+01             2.9
170.8        2.354E+00   4.1        9.15E+01             2.9
170.8        2.360E+00   4.1        9.09E+01             2.9
170.8        2.367E+00   4.1        8.22E+01             2.9
170.8        2.370E+00   4.1        6.95E+01             2.9
170.8        2.377E+00   4.1        7.59E+01             2.9
170.8        2.382E+00   4.1        8.46E+01             2.9
170.8        2.388E+00   4.1        7.76E+01             2.9
170.8        2.396E+00   4.1        7.88E+01             2.9
170.8        2.400E+00   4.1        7.59E+01             2.9
170.8        2.405E+00   4.1        7.53E+01             2.9
170.8        2.414E+00   4.1        7.30E+01             2.9
170.8        2.419E+00   4.1        7.59E+01             2.9
170.8        2.423E+00   4.1        7.07E+01             2.9
170.8        2.431E+00   4.1        7.36E+01             2.9
170.8        2.434E+00   4.1        7.13E+01             2.9
170.8        2.441E+00   4.1        7.77E+01             2.9
170.8        2.447E+00   4.1        7.48E+01             2.9
170.8        2.454E+00   4.1        7.08E+01             2.9
170.8        2.461E+00   4.1        6.90E+01             2.9
170.8        2.467E+00   4.1        6.91E+01             2.9
170.8        2.476E+00   4.1        6.73E+01   4.06E+00  2.9
170.8        2.488E+00   4.1        6.74E+01             2.9
170.8        2.491E+00   4.1        7.03E+01             2.9
170.8        2.501E+00   3.5        6.56E+01             1.2
170.8        2.507E+00   3.5        7.03E+01             1.2
170.8        2.513E+00   3.5        6.39E+01             1.2
170.8        2.518E+00   3.5        6.45E+01             1.2
170.8        2.528E+00   3.5        6.51E+01             1.2
170.8        2.537E+00   3.5        6.39E+01             1.2
170.8        2.543E+00   3.5        6.45E+01             1.2
170.8        2.547E+00   3.5        6.16E+01             1.2
170.8        2.555E+00   3.5        6.34E+01             1.2
170.8        2.557E+00   3.5        5.93E+01             1.2
170.8        2.566E+00   3.5        5.82E+01             1.2
170.8        2.573E+00   3.5        5.94E+01             1.2
170.8        2.579E+00   3.5        5.76E+01             1.2
170.8        2.584E+00   3.5        6.17E+01             1.2
170.8        2.590E+00   3.5        5.82E+01             1.2
170.8        2.594E+00   3.5        6.29E+01             1.2
170.8        2.602E+00   3.5        5.77E+01             1.2
170.8        2.608E+00   3.5        5.94E+01             1.2
170.8        2.616E+00   3.5        5.54E+01             1.2
170.8        2.627E+00   3.5        5.54E+01             1.2
170.8        2.631E+00   3.5        5.37E+01             1.2
170.8        2.641E+00   3.5        5.66E+01             1.2
170.8        2.647E+00   3.5        5.43E+01             1.2
170.8        2.655E+00   3.5        4.79E+01             1.2
170.8        2.661E+00   3.5        4.85E+01             1.2
170.8        2.665E+00   3.5        5.31E+01             1.2
170.8        2.671E+00   3.5        4.97E+01             1.2
170.8        2.676E+00   3.5        4.97E+01             1.2
170.8        2.682E+00   3.5        4.97E+01             1.2
170.8        2.690E+00   3.5        4.79E+01             1.2
170.8        2.696E+00   3.5        5.09E+01             1.2
170.8        2.705E+00   3.5        4.62E+01             1.2
170.8        2.709E+00   3.5        4.39E+01             1.2
170.8        2.713E+00   3.5        4.10E+01             1.2
170.8        2.718E+00   3.5        4.51E+01             1.2
170.8        2.727E+00   3.5        3.99E+01             1.2
170.8        2.730E+00   3.5        4.05E+01             1.2
170.8        2.739E+00   3.5        3.64E+01             1.2
170.8        2.748E+00   3.5        3.59E+01             1.2
170.8        2.750E+00   3.5        3.82E+01             1.2
170.8        2.754E+00   3.5        3.12E+01             1.2
170.8        2.759E+00   3.5        3.30E+01             1.2
170.8        2.767E+00   3.5        3.76E+01             1.2
170.8        2.775E+00   3.5        5.62E+01             1.2
170.8        2.779E+00   3.5        5.27E+01             1.2
170.8        2.784E+00   3.5        4.00E+01             1.2
170.8        2.791E+00   3.5        3.30E+01             1.2
170.8        2.795E+00   3.5        2.55E+01             1.2
170.8        2.802E+00   3.5        2.55E+01             1.2
170.8        2.806E+00   3.5        2.38E+01             1.2
170.8        2.813E+00   3.5        2.49E+01             1.2
170.8        2.821E+00   3.5        1.74E+01             1.2
170.8        2.828E+00   3.5        2.03E+01             1.2
170.8        2.833E+00   3.5        2.09E+01             1.2
170.8        2.837E+00   3.5        1.69E+01             1.2
170.8        2.845E+00   3.5        1.51E+01             1.2
170.8        2.849E+00   3.5        1.86E+01             1.2
170.8        2.853E+00   3.5        1.86E+01             1.2
170.8        2.860E+00   3.5        2.15E+01             1.2
170.8        2.867E+00   3.5        2.68E+01             1.2
170.8        2.872E+00   3.5        3.66E+01             1.2
170.8        2.880E+00   3.5        3.43E+01             1.2
170.8        2.884E+00   3.5        4.13E+01             1.2
170.8        2.890E+00   3.5        4.42E+01             1.2
170.8        2.897E+00   3.5        4.65E+01             1.2
170.8        2.902E+00   3.5        4.36E+01             1.2
170.8        2.906E+00   3.5        4.59E+01             1.2
170.8        2.915E+00   3.5        4.94E+01   4.05E+00  1.2
170.8        2.921E+00   3.5        4.54E+01             1.2
170.8        2.926E+00   3.5        4.54E+01             1.2
170.8        2.932E+00   3.5        4.60E+01             1.2
170.8        2.940E+00   3.5        4.19E+01             1.2
170.8        2.943E+00   3.5        4.83E+01             1.2
170.8        2.948E+00   3.5        3.85E+01             1.2
170.8        2.953E+00   3.5        4.14E+01             1.2
170.8        2.961E+00   3.5        3.62E+01             1.2
170.8        2.969E+00   3.5        3.33E+01             1.2
170.8        2.976E+00   3.5        3.10E+01             1.2
170.8        2.979E+00   3.5        2.92E+01             1.2
170.8        2.986E+00   3.5        2.52E+01             1.2
170.8        2.991E+00   3.5        2.46E+01             1.2
170.8        2.996E+00   3.5        2.17E+01             1.2
170.8        3.000E+00   3.0        2.00E+01             0.9
170.8        3.007E+00   3.0        1.77E+01             0.9
170.8        3.015E+00   3.0        1.94E+01             0.9
170.8        3.020E+00   3.0        1.83E+01   4.05E+00  0.9
170.8        3.024E+00   3.0        1.60E+01             0.9
170.8        3.032E+00   3.0        2.24E+01             0.9
170.8        3.037E+00   3.0        2.47E+01             0.9
170.8        3.042E+00   3.0        2.88E+01             0.9
170.8        3.048E+00   3.0        3.22E+01             0.9
170.8        3.056E+00   3.0        3.23E+01             0.9
170.8        3.061E+00   3.0        3.52E+01             0.9
170.8        3.067E+00   3.0        4.10E+01             0.9
170.8        3.071E+00   3.0        4.97E+01             0.9
170.8        3.080E+00   3.0        6.13E+01             0.9
170.8        3.085E+00   3.0        6.71E+01             0.9
170.8        3.090E+00   3.0        7.98E+01             0.9
170.8        3.100E+00   3.0        9.44E+01             0.9
170.8        3.105E+00   3.0        8.80E+01             0.9
170.8        3.108E+00   3.0        9.78E+01             0.9
170.8        3.114E+00   3.0        9.21E+01             0.9
170.8        3.120E+00   3.0        1.00E+02             0.9
170.8        3.128E+00   3.0        9.67E+01             0.9
170.8        3.134E+00   3.0        9.67E+01             0.9
170.8        3.138E+00   3.0        9.38E+01             0.9
170.8        3.144E+00   3.0        1.06E+02   4.63E+00  0.9
170.8        3.150E+00   3.0        1.02E+02             0.9
170.8        3.156E+00   3.0        9.91E+01             0.9
170.8        3.164E+00   3.0        1.02E+02             0.9
170.8        3.166E+00   3.0        9.85E+01             0.9
170.8        3.171E+00   3.0        9.91E+01             0.9
170.8        3.179E+00   3.0        1.03E+02             0.9
170.8        3.185E+00   3.0        9.80E+01             0.9
170.8        3.192E+00   3.0        1.02E+02             0.9
170.8        3.199E+00   3.0        1.02E+02             0.9
170.8        3.205E+00   3.0        9.97E+01             0.9
170.8        3.211E+00   3.0        9.45E+01             0.9
170.8        3.214E+00   3.0        9.57E+01             0.9
170.8        3.220E+00   3.0        9.74E+01             0.9
170.8        3.221E+00   3.0        9.22E+01             0.9
170.8        3.229E+00   3.0        9.34E+01             0.9
170.8        3.236E+00   3.0        9.57E+01             0.9
170.8        3.243E+00   3.0        9.57E+01             0.9
170.8        3.251E+00   3.0        9.75E+01             0.9
170.8        3.254E+00   3.0        9.34E+01             0.9
170.8        3.257E+00   3.0        8.88E+01             0.9
170.8        3.267E+00   3.0        9.05E+01             0.9
170.8        3.273E+00   3.0        8.88E+01             0.9
170.8        3.278E+00   3.0        8.59E+01             0.9
170.8        3.281E+00   3.0        9.06E+01             0.9
170.8        3.290E+00   3.0        8.94E+01             0.9
170.8        3.291E+00   3.0        8.42E+01             0.9
170.8        3.304E+00   3.0        8.36E+01             0.9
170.8        3.309E+00   3.0        8.71E+01             0.9
170.8        3.315E+00   3.0        7.90E+01             0.9
170.8        3.323E+00   3.0        8.72E+01             0.9
170.8        3.328E+00   3.0        8.37E+01             0.9
170.8        3.333E+00   3.0        8.37E+01             0.9
170.8        3.341E+00   3.0        8.08E+01             0.9
170.8        3.344E+00   3.0        7.91E+01             0.9
170.8        3.354E+00   3.0        8.72E+01             0.9
170.8        3.356E+00   3.0        8.02E+01             0.9
170.8        3.362E+00   3.0        8.37E+01             0.9
170.8        3.368E+00   3.0        8.08E+01             0.9
170.8        3.372E+00   3.0        7.85E+01             0.9
170.8        3.378E+00   3.0        7.80E+01             0.9
170.8        3.386E+00   3.0        7.51E+01             0.9
170.8        3.389E+00   3.0        7.97E+01             0.9
170.8        3.399E+00   3.0        7.92E+01             0.9
170.8        3.403E+00   3.0        7.63E+01             0.9
170.8        3.409E+00   3.0        8.03E+01             0.9
170.8        3.416E+00   3.0        8.27E+01             0.9
170.8        3.420E+00   3.0        7.98E+01             0.9
170.8        3.428E+00   3.0        7.63E+01             0.9
170.8        3.433E+00   3.0        8.44E+01             0.9
170.8        3.439E+00   3.0        7.92E+01             0.9
170.8        3.444E+00   3.0        8.27E+01             0.9
170.8        3.451E+00   3.0        7.98E+01             0.9
170.8        3.455E+00   3.0        7.81E+01             0.9
170.8        3.460E+00   3.0        7.40E+01             0.9
170.8        3.472E+00   3.0        7.75E+01             0.9
170.8        3.475E+00   3.0        7.93E+01             0.9
170.8        3.484E+00   3.0        7.81E+01             0.9
170.8        3.491E+00   3.0        7.70E+01             0.9
170.8        3.498E+00   3.0        8.10E+01             0.9
170.8        3.503E+00   2.7        7.76E+01             0.7
170.8        3.508E+00   2.7        7.58E+01             0.7
170.8        3.514E+00   2.7        8.34E+01   5.21E+00  0.7
170.8        3.521E+00   2.7        7.93E+01             0.7
170.8        3.527E+00   2.7        8.22E+01             0.7
170.8        3.533E+00   2.7        8.46E+01             0.7
170.8        3.537E+00   2.7        7.94E+01             0.7
170.8        3.542E+00   2.7        8.46E+01             0.7
170.8        3.550E+00   2.7        8.40E+01             0.7
170.8        3.556E+00   2.7        9.39E+01             0.7
170.8        3.561E+00   2.7        9.21E+01             0.7
170.8        3.567E+00   2.7        1.08E+02             0.7
170.8        3.575E+00   2.7        1.59E+02             0.7
170.8        3.580E+00   2.7        1.27E+02             0.7
170.8        3.590E+00   2.7        8.06E+01             0.7
170.8        3.592E+00   2.7        7.31E+01             0.7
170.8        3.603E+00   2.7        8.00E+01             0.7
170.8        3.607E+00   2.7        8.47E+01             0.7
170.8        3.607E+00   2.7        9.16E+01             0.7
170.8        3.614E+00   2.7        9.45E+01             0.7
170.8        3.622E+00   2.7        9.75E+01             0.7
170.8        3.624E+00   2.7        9.28E+01             0.7
170.8        3.631E+00   2.7        9.86E+01             0.7
170.8        3.639E+00   2.7        1.02E+02             0.7
170.8        3.645E+00   2.7        1.20E+02             0.7
170.8        3.651E+00   2.7        1.21E+02             0.7
170.8        3.655E+00   2.7        1.43E+02             0.7
170.8        3.664E+00   2.7        1.48E+02             0.7
170.8        3.668E+00   2.7        1.64E+02             0.7
170.8        3.673E+00   2.7        1.85E+02             0.7
170.8        3.682E+00   2.7        2.07E+02             0.7
170.8        3.685E+00   2.7        2.31E+02             0.7
170.8        3.694E+00   2.7        2.25E+02             0.7
170.8        3.696E+00   2.7        2.43E+02   4.63E+00  0.7
170.8        3.704E+00   2.7        2.21E+02             0.7
170.8        3.710E+00   2.7        1.95E+02             0.7
170.8        3.716E+00   2.7        1.50E+02             0.7
170.8        3.720E+00   2.7        1.33E+02             0.7
170.8        3.724E+00   2.7        1.13E+02             0.7
170.8        3.732E+00   2.7        7.97E+01             0.7
170.8        3.739E+00   2.7        7.62E+01             0.7
170.8        3.748E+00   2.7        6.29E+01             0.7
170.8        3.750E+00   2.7        5.71E+01             0.7
170.8        3.756E+00   2.7        5.53E+01             0.7
170.8        3.761E+00   2.7        5.07E+01             0.7
170.8        3.769E+00   2.7        4.78E+01             0.7
170.8        3.775E+00   2.7        4.96E+01             0.7
170.8        3.779E+00   2.7        4.55E+01             0.7
170.8        3.784E+00   2.7        4.96E+01             0.7
170.8        3.791E+00   2.7        4.32E+01             0.7
170.8        3.797E+00   2.7        4.38E+01             0.7
170.8        3.803E+00   2.7        4.27E+01   5.21E+00  0.7
170.8        3.809E+00   2.7        3.98E+01             0.7
170.8        3.816E+00   2.7        4.38E+01             0.7
170.8        3.823E+00   2.7        4.62E+01             0.7
170.8        3.831E+00   2.7        4.50E+01             0.7
170.8        3.835E+00   2.7        4.68E+01             0.7
140.6        2.005E+00   4.0        1.20E+02             2.9
140.6        2.024E+00   4.0        1.19E+02             2.9
140.6        2.045E+00   4.0        1.14E+02             2.9
140.6        2.065E+00   4.0        1.18E+02             2.9
140.6        2.084E+00   4.0        1.20E+02             2.9
140.6        2.103E+00   4.0        1.18E+02             2.9
140.6        2.125E+00   4.0        1.15E+02             2.9
140.6        2.142E+00   4.0        1.13E+02             2.9
140.6        2.162E+00   4.0        1.13E+02   3.51E+00  2.9
140.6        2.182E+00   4.0        1.10E+02             2.9
140.6        2.207E+00   4.0        1.07E+02             2.9
140.6        2.222E+00   4.0        1.13E+02   4.09E+00  2.9
140.6        2.246E+00   4.0        1.08E+02             2.9
140.6        2.267E+00   4.0        1.02E+02             2.9
140.6        2.283E+00   4.0        1.02E+02             2.9
140.6        2.308E+00   4.0        9.62E+01             2.9
140.6        2.328E+00   4.0        9.86E+01             2.9
140.6        2.347E+00   4.0        9.58E+01             2.9
140.6        2.366E+00   4.0        9.64E+01             2.9
140.6        2.385E+00   4.0        9.82E+01             2.9
140.6        2.405E+00   4.0        9.42E+01             2.9
140.6        2.427E+00   4.0        9.42E+01             2.9
140.6        2.442E+00   4.0        8.84E+01             2.9
140.6        2.465E+00   4.0        8.91E+01             2.9
140.6        2.483E+00   4.0        8.15E+01             2.9
140.6        2.502E+00   3.5        7.98E+01             1.1
140.6        2.524E+00   3.5        8.05E+01             1.1
140.6        2.545E+00   3.5        7.59E+01   5.26E+00  1.1
140.6        2.567E+00   3.5        7.65E+01             1.1
140.6        2.586E+00   3.5        7.25E+01             1.1
140.6        2.605E+00   3.5        7.49E+01             1.1
140.6        2.627E+00   3.5        7.38E+01             1.1
140.6        2.647E+00   3.5        7.09E+01             1.1
140.6        2.656E+00   3.5        6.69E+01             1.1
140.6        2.665E+00   3.5        6.81E+01   5.84E+00  1.1
140.6        2.675E+00   3.5        7.28E+01             1.1
140.6        2.683E+00   3.5        6.87E+01             1.1
140.6        2.694E+00   3.5        5.76E+01             1.1
140.6        2.704E+00   3.5        6.58E+01             1.1
140.6        2.715E+00   3.5        6.53E+01             1.1
140.6        2.719E+00   3.5        5.83E+01             1.1
140.6        2.725E+00   3.5        6.18E+01             1.1
140.6        2.738E+00   3.5        6.24E+01             1.1
140.6        2.749E+00   3.5        6.01E+01             1.1
140.6        2.755E+00   3.5        5.66E+01             1.1
140.6        2.761E+00   3.5        5.43E+01             1.1
140.6        2.765E+00   3.5        6.49E+01   4.68E+00  1.1
140.6        2.769E+00   3.5        5.67E+01             1.1
140.6        2.778E+00   3.5        5.26E+01             1.1
140.6        2.787E+00   3.5        4.74E+01             1.1
140.6        2.798E+00   3.5        4.33E+01             1.1
140.6        2.805E+00   3.5        4.16E+01             1.1
140.6        2.816E+00   3.5        3.81E+01             1.1
140.6        2.837E+00   3.5        3.00E+01             1.1
140.6        2.856E+00   3.5        2.83E+01             1.1
140.6        2.875E+00   3.5        4.00E+01             1.1
140.6        2.891E+00   3.5        4.95E+01             1.1
140.6        2.916E+00   3.5        4.95E+01   3.51E+00  1.1
140.6        2.935E+00   3.5        4.67E+01   4.68E+00  1.1
140.6        2.955E+00   3.5        4.38E+01             1.1
140.6        2.972E+00   3.5        4.03E+01             1.1
140.6        2.993E+00   3.5        3.28E+01             1.1
140.6        3.014E+00   7.5        2.23E+01             0.9
140.6        3.033E+00   7.5        2.06E+01   4.67E+00  0.9
140.6        3.050E+00   7.5        2.48E+01             0.9
140.6        3.067E+00   7.5        3.24E+01             0.9
140.6        3.091E+00   7.5        4.95E+01             0.9
140.6        3.113E+00   7.5        5.83E+01             0.9
140.6        3.134E+00   7.5        6.25E+01             0.9
140.6        3.152E+00   7.5        7.36E+01             0.9
140.6        3.171E+00   7.5        6.79E+01             0.9
140.6        3.188E+00   7.5        7.32E+01             0.9
140.6        3.212E+00   7.5        6.86E+01             0.9
140.6        3.228E+00   7.5        5.93E+01   4.67E+00  0.9
140.6        3.247E+00   7.5        5.81E+01   4.09E+00  0.9
140.6        3.270E+00   7.5        7.40E+01   4.09E+00  0.9
140.6        3.286E+00   7.5        6.00E+01   4.67E+00  0.9
140.6        3.309E+00   7.5        5.95E+01             0.9
140.6        3.329E+00   7.5        6.83E+01             0.9
140.6        3.347E+00   7.5        6.66E+01             0.9
140.6        3.367E+00   7.5        6.38E+01             0.9
140.6        3.384E+00   7.5        6.15E+01             0.9
140.6        3.393E+00   7.5        5.45E+01             0.9
140.6        3.404E+00   7.5        5.04E+01             0.9
140.6        3.423E+00   7.5        5.87E+01             0.9
140.6        3.442E+00   7.5        5.87E+01             0.9
140.6        3.464E+00   7.5        5.70E+01             0.9
140.6        3.484E+00   7.5        4.95E+01             0.9
140.6        3.504E+00   6.3        6.01E+01             0.6
140.6        3.524E+00   6.3        5.55E+01             0.6
140.6        3.545E+00   6.3        5.20E+01   5.25E+00  0.6
140.6        3.551E+00   6.3        5.44E+01             0.6
140.6        3.558E+00   6.3        5.56E+01             0.6
140.6        3.566E+00   6.3        5.21E+01             0.6
140.6        3.574E+00   6.3        5.15E+01             0.6
140.6        3.576E+00   6.3        6.09E+01             0.6
140.6        3.579E+00   6.3        6.73E+01   4.67E+00  0.6
140.6        3.584E+00   6.3        6.03E+01             0.6
140.6        3.593E+00   6.3        4.87E+01             0.6
140.6        3.602E+00   6.3        5.34E+01             0.6
140.6        3.610E+00   6.3        5.57E+01             0.6
140.6        3.616E+00   6.3        5.34E+01             0.6
140.6        3.626E+00   6.3        6.75E+01             0.6
140.6        3.635E+00   6.3        6.99E+01             0.6
140.6        3.643E+00   6.3        7.92E+01             0.6
140.6        3.663E+00   6.3        8.34E+01             0.6
140.6        3.685E+00   6.3        9.51E+01             0.6
140.6        3.695E+00   6.3        1.00E+02             0.6
140.6        3.703E+00   6.3        1.05E+02   7.01E+00  0.6
140.6        3.713E+00   6.3        9.87E+01             0.6
140.6        3.725E+00   6.3        7.83E+01             0.6
140.6        3.743E+00   6.3        5.73E+01             0.6
140.6        3.765E+00   6.3        5.50E+01             0.6
140.6        3.778E+00   6.3        4.92E+01             0.6
140.6        3.798E+00   6.3        5.16E+01   4.67E+00  0.6
140.6        3.820E+00   6.3        4.99E+01   4.67E+00  0.6
125.1        2.043E+00  10.0        1.59E+02   6.35E+00  9.3
125.1        2.062E+00  10.0        1.57E+02   4.04E+00  9.3
125.1        2.106E+00  10.0        1.55E+02   3.46E+00  9.3
125.1        2.122E+00  10.0        1.49E+02   5.20E+00  9.3
125.1        2.144E+00  10.0        1.42E+02   4.04E+00  9.3
125.1        2.163E+00  10.0        1.45E+02   4.04E+00  9.3
125.1        2.184E+00  10.0        1.43E+02   4.04E+00  9.3
125.1        2.206E+00  10.0        1.36E+02   4.62E+00  9.3
125.1        2.222E+00  10.0        1.48E+02   4.04E+00  9.3
125.1        2.245E+00  10.0        1.45E+02   4.62E+00  9.3
125.1        2.263E+00  10.0        1.36E+02   4.62E+00  9.3
125.1        2.284E+00  10.0        1.34E+02   4.62E+00  9.3
125.1        2.303E+00  10.0        1.32E+02   4.04E+00  9.3
125.1        2.326E+00  10.0        1.25E+02   4.62E+00  9.3
125.1        2.344E+00  10.0        1.19E+02   5.20E+00  9.3
125.1        2.365E+00  10.0        1.23E+02   5.20E+00  9.3
125.1        2.384E+00  10.0        1.23E+02   4.04E+00  9.3
125.1        2.403E+00  10.0        1.23E+02   4.04E+00  9.3
125.1        2.427E+00  10.0        1.17E+02   5.78E+00  9.3
125.1        2.443E+00  10.0        1.18E+02   5.78E+00  9.3
125.1        2.466E+00  10.0        1.15E+02   3.46E+00  9.3
125.1        2.486E+00  10.0        1.16E+02   4.04E+00  9.3
125.1        2.504E+00   9.0        1.12E+02   4.04E+00  1.9
125.1        2.522E+00   9.0        1.12E+02   3.46E+00  1.9
125.1        2.541E+00   9.0        1.10E+02   3.46E+00  1.9
125.1        2.565E+00   9.0        1.11E+02   4.04E+00  1.9
125.1        2.585E+00   9.0        1.03E+02   3.46E+00  1.9
125.1        2.603E+00   9.0        9.80E+01   4.04E+00  1.9
125.1        2.626E+00   9.0        9.63E+01   4.04E+00  1.9
125.1        2.644E+00   9.0        9.51E+01   4.04E+00  1.9
125.1        2.665E+00   9.0        9.40E+01   2.89E+00  1.9
125.1        2.684E+00   9.0        9.29E+01   4.04E+00  1.9
125.1        2.703E+00   9.0        8.60E+01   3.46E+00  1.9
125.1        2.726E+00   9.0        9.18E+01             1.9
125.1        2.736E+00   9.0        8.54E+01             1.9
125.1        2.747E+00   9.0        8.03E+01             1.9
125.1        2.754E+00   9.0        8.49E+01             1.9
125.1        2.759E+00   9.0        8.37E+01             1.9
125.1        2.765E+00   9.0        8.78E+01   3.46E+00  1.9
125.1        2.772E+00   9.0        8.38E+01             1.9
125.1        2.778E+00   9.0        8.32E+01             1.9
125.1        2.784E+00   9.0        7.28E+01   3.46E+00  1.9
125.1        2.789E+00   9.0        7.11E+01             1.9
125.1        2.795E+00   9.0        6.93E+01             1.9
125.1        2.805E+00   9.0        6.76E+01             1.9
125.1        2.807E+00   9.0        6.42E+01             1.9
125.1        2.818E+00   9.0        6.82E+01             1.9
125.1        2.825E+00   9.0        6.65E+01   4.62E+00  1.9
125.1        2.830E+00   9.0        6.19E+01             1.9
125.1        2.836E+00   9.0        5.73E+01             1.9
125.1        2.844E+00   9.0        5.15E+01             1.9
125.1        2.853E+00   9.0        5.27E+01             1.9
125.1        2.862E+00   9.0        5.27E+01             1.9
125.1        2.866E+00   9.0        4.75E+01             1.9
125.1        2.886E+00   9.0        5.27E+01             1.9
125.1        2.908E+00   9.0        5.91E+01             1.9
125.1        2.926E+00   9.0        6.32E+01             1.9
125.1        2.947E+00   9.0        6.32E+01   4.62E+00  1.9
125.1        2.965E+00   9.0        6.27E+01             1.9
125.1        2.985E+00   9.0        5.69E+01             1.9
125.1        3.008E+00   7.5        5.23E+01             0.9
125.1        3.026E+00   7.5        4.60E+01             0.9
125.1        3.047E+00   7.5        3.62E+01             0.9
125.1        3.067E+00   7.5        3.10E+01             0.9
125.1        3.084E+00   7.5        3.51E+01             0.9
125.1        3.108E+00   7.5        4.21E+01             0.9
125.1        3.122E+00   7.5        4.73E+01             0.9
125.1        3.145E+00   7.5        5.19E+01             0.9
125.1        3.164E+00   7.5        5.60E+01             0.9
125.1        3.165E+00   7.5        6.24E+01             0.9
125.1        3.184E+00   7.5        5.89E+01             0.9
125.1        3.205E+00   7.5        6.36E+01             0.9
125.1        3.224E+00   7.5        5.61E+01             0.9
125.1        3.247E+00   7.5        5.38E+01             0.9
125.1        3.266E+00   7.5        5.67E+01             0.9
125.1        3.285E+00   7.5        5.50E+01   4.62E+00  0.9
125.1        3.303E+00   7.5        6.09E+01   5.20E+00  0.9
125.1        3.325E+00   7.5        5.86E+01             0.9
125.1        3.348E+00   7.5        5.46E+01             0.9
125.1        3.367E+00   7.5        5.46E+01             0.9
125.1        3.376E+00   7.5        5.00E+01             0.9
125.1        3.386E+00   7.5        5.69E+01             0.9
125.1        3.397E+00   7.5        4.89E+01             0.9
125.1        3.407E+00   7.5        5.29E+01             0.9
125.1        3.415E+00   7.5        5.29E+01             0.9
125.1        3.425E+00   7.5        5.70E+01             0.9
125.1        3.434E+00   7.5        5.53E+01             0.9
125.1        3.444E+00   7.5        5.41E+01             0.9
125.1        3.455E+00   7.5        5.01E+01             0.9
125.1        3.467E+00   7.5        4.72E+01             0.9
125.1        3.485E+00   7.5        5.07E+01             0.9
125.1        3.507E+00   6.3        4.79E+01             0.6
125.1        3.526E+00   6.3        4.85E+01             0.6
125.1        3.535E+00   6.3        5.02E+01             0.6
125.1        3.544E+00   6.3        4.79E+01             0.6
125.1        3.552E+00   6.3        4.39E+01             0.6
125.1        3.556E+00   6.3        4.74E+01             0.6
125.1        3.560E+00   6.3        4.56E+01             0.6
125.1        3.565E+00   6.3        4.45E+01             0.6
125.1        3.570E+00   6.3        4.22E+01             0.6
125.1        3.577E+00   6.3        4.33E+01             0.6
125.1        3.586E+00   6.3        4.39E+01             0.6
125.1        3.593E+00   6.3        4.68E+01   3.46E+00  0.6
125.1        3.597E+00   6.3        4.34E+01             0.6
125.1        3.602E+00   6.3        3.93E+01             0.6
125.1        3.610E+00   6.3        4.05E+01             0.6
125.1        3.623E+00   6.3        4.17E+01             0.6
125.1        3.638E+00   6.3        4.57E+01             0.6
125.1        3.644E+00   6.3        5.15E+01             0.6
125.1        3.653E+00   6.3        5.50E+01             0.6
125.1        3.663E+00   6.3        5.50E+01   3.46E+00  0.6
125.1        3.674E+00   6.3        5.16E+01             0.6
125.1        3.685E+00   6.3        3.89E+01             0.6
125.1        3.697E+00   6.3        3.48E+01             0.6
125.1        3.702E+00   6.3        3.25E+01             0.6
125.1        3.726E+00   6.3        4.24E+01             0.6
125.1        3.744E+00   6.3        4.88E+01             0.6
125.1        3.766E+00   6.3        4.65E+01             0.6
125.1        3.785E+00   6.3        4.54E+01   5.20E+00  0.6
 91.0        2.022E+00  10.0        3.89E+02   5.81E+00  9.3
 91.0        2.038E+00  10.0        3.74E+02   4.65E+00  9.3
 91.0        2.061E+00  10.0        3.70E+02   6.97E+00  9.3
 91.0        2.079E+00  10.0        3.69E+02   9.30E+00  9.3
 91.0        2.099E+00  10.0        3.64E+02   5.81E+00  9.3
 91.0        2.118E+00  10.0        3.63E+02   5.81E+00  9.3
 91.0        2.139E+00  10.0        3.64E+02   4.64E+00  9.3
 91.0        2.160E+00  10.0        3.55E+02   6.97E+00  9.3
 91.0        2.179E+00  10.0        3.54E+02   6.97E+00  9.3
 91.0        2.201E+00  10.0        3.39E+02   6.97E+00  9.3
 91.0        2.221E+00  10.0        3.41E+02   1.16E+01  9.3
 91.0        2.240E+00  10.0        3.43E+02   9.30E+00  9.3
 91.0        2.258E+00  10.0        3.09E+02   9.30E+00  9.3
 91.0        2.280E+00  10.0        3.27E+02   9.30E+00  9.3
 91.0        2.305E+00  10.0        3.14E+02   8.13E+00  9.3
 91.0        2.323E+00  10.0        3.20E+02   9.30E+00  9.3
 91.0        2.341E+00  10.0        3.13E+02   8.13E+00  9.3
 91.0        2.365E+00  10.0        2.80E+02   1.04E+01  9.3
 91.0        2.383E+00  10.0        2.78E+02   6.97E+00  9.3
 91.0        2.403E+00  10.0        2.89E+02   8.14E+00  9.3
 91.0        2.421E+00  10.0        2.92E+02   5.81E+00  9.3
 91.0        2.442E+00  10.0        2.72E+02   9.30E+00  9.3
 91.0        2.461E+00  10.0        2.73E+02   1.16E+01  9.3
 91.0        2.485E+00  10.0        2.62E+02   6.97E+00  9.3
 91.0        2.504E+00   9.0        2.68E+02   6.39E+00  1.9
 91.0        2.522E+00   9.0        2.64E+02   6.39E+00  1.9
 91.0        2.543E+00   9.0        2.44E+02   6.39E+00  1.9
 91.0        2.563E+00   9.0        2.47E+02   6.39E+00  1.9
 91.0        2.585E+00   9.0        2.56E+02   8.13E+00  1.9
 91.0        2.604E+00   9.0        2.55E+02   6.97E+00  1.9
 91.0        2.624E+00   9.0        2.41E+02   6.97E+00  1.9
 91.0        2.642E+00   9.0        2.40E+02   7.55E+00  1.9
 91.0        2.663E+00   9.0        2.40E+02   7.55E+00  1.9
 91.0        2.683E+00   9.0        2.27E+02   6.97E+00  1.9
 91.0        2.706E+00   9.0        2.23E+02   6.97E+00  1.9
 91.0        2.745E+00   9.0        2.14E+02   6.97E+00  1.9
 91.0        2.752E+00   9.0        2.15E+02   1.74E+00  1.9
 91.0        2.764E+00   9.0        2.21E+02   4.06E+00  1.9
 91.0        2.773E+00   9.0        2.09E+02   4.06E+00  1.9
 91.0        2.785E+00   9.0        2.16E+02   2.90E+00  1.9
 91.0        2.793E+00   9.0        2.16E+02   3.48E+00  1.9
 91.0        2.804E+00   9.0        2.21E+02   4.06E+00  1.9
 91.0        2.812E+00   9.0        2.24E+02   4.06E+00  1.9
 91.0        2.822E+00   9.0        2.14E+02   4.06E+00  1.9
 91.0        2.832E+00   9.0        2.13E+02   5.23E+00  1.9
 91.0        2.845E+00   9.0        2.16E+02   3.48E+00  1.9
 91.0        2.853E+00   9.0        2.13E+02   2.90E+00  1.9
 91.0        2.864E+00   9.0        2.13E+02   2.90E+00  1.9
 91.0        2.876E+00   9.0        2.22E+02   4.06E+00  1.9
 91.0        2.885E+00   9.0        2.12E+02   5.23E+00  1.9
 91.0        2.900E+00   9.0        2.09E+02   3.48E+00  1.9
 91.0        2.913E+00   9.0        2.10E+02   5.81E+00  1.9
 91.0        2.926E+00   9.0        2.05E+02   4.07E+00  1.9
 91.0        2.937E+00   9.0        2.07E+02             1.9
 91.0        2.944E+00   9.0        2.08E+02             1.9
 91.0        2.955E+00   9.0        2.01E+02             1.9
 91.0        2.963E+00   9.0        2.08E+02             1.9
 91.0        2.974E+00   9.0        2.00E+02             1.9
 91.0        2.983E+00   9.0        1.94E+02             1.9
 91.0        2.994E+00   9.0        2.00E+02             1.9
 91.0        3.014E+00   7.5        2.02E+02             0.9
 91.0        3.024E+00   7.5        1.98E+02             0.9
 91.0        3.034E+00   7.5        1.96E+02             0.9
 91.0        3.044E+00   7.5        1.98E+02             0.9
 91.0        3.052E+00   7.5        1.92E+02             0.9
 91.0        3.061E+00   7.5        1.97E+02             0.9
 91.0        3.072E+00   7.5        1.89E+02             0.9
 91.0        3.083E+00   7.5        1.90E+02             0.9
 91.0        3.093E+00   7.5        1.90E+02             0.9
 91.0        3.104E+00   7.5        1.83E+02             0.9
 91.0        3.113E+00   7.5        1.70E+02   3.48E+00  0.9
 91.0        3.124E+00   7.5        1.76E+02             0.9
 91.0        3.136E+00   7.5        1.68E+02             0.9
 91.0        3.152E+00   7.5        1.62E+02             0.9
 91.0        3.163E+00   7.5        1.61E+02             0.9
 91.0        3.172E+00   7.5        1.64E+02             0.9
 91.0        3.185E+00   7.5        1.58E+02             0.9
 91.0        3.194E+00   7.5        1.56E+02             0.9
 91.0        3.207E+00   7.5        1.55E+02             0.9
 91.0        3.213E+00   7.5        1.54E+02             0.9
 91.0        3.224E+00   7.5        1.56E+02             0.9
 91.0        3.234E+00   7.5        1.50E+02   4.65E+00  0.9
 91.0        3.245E+00   7.5        1.45E+02             0.9
 91.0        3.247E+00   7.5        1.52E+02             0.9
 91.0        3.267E+00   7.5        1.49E+02             0.9
 91.0        3.284E+00   7.5        1.41E+02             0.9
 91.0        3.306E+00   7.5        1.46E+02             0.9
 91.0        3.323E+00   7.5        1.44E+02             0.9
 91.0        3.346E+00   7.5        1.39E+02             0.9
 91.0        3.367E+00   7.5        1.39E+02             0.9
 91.0        3.385E+00   7.5        1.32E+02             0.9
 91.0        3.403E+00   7.5        1.30E+02             0.9
 91.0        3.426E+00   7.5        1.28E+02             0.9
 91.0        3.445E+00   7.5        1.32E+02             0.9
 91.0        3.468E+00   7.5        1.28E+02             0.9
 91.0        3.487E+00   7.5        1.25E+02             0.9
 91.0        3.508E+00   6.3        1.21E+02   5.23E+00  0.6
 91.0        3.527E+00   6.3        1.21E+02             0.6
 91.0        3.544E+00   6.3        1.17E+02             0.6
 91.0        3.566E+00   6.3        1.17E+02             0.6
 91.0        3.573E+00   6.3        1.12E+02             0.6
 91.0        3.586E+00   6.3        1.12E+02             0.6
 91.0        3.594E+00   6.3        1.07E+02             0.6
 91.0        3.608E+00   6.3        9.89E+01             0.6
 91.0        3.615E+00   6.3        8.73E+01             0.6
 91.0        3.628E+00   6.3        8.61E+01             0.6
 91.0        3.645E+00   6.3        8.14E+01             0.6
 91.0        3.653E+00   6.3        8.03E+01             0.6
 91.0        3.657E+00   6.3        9.25E+01             0.6
 91.0        3.666E+00   6.3        1.04E+02             0.6
 91.0        3.673E+00   6.3        1.12E+02             0.6
 91.0        3.688E+00   6.3        1.16E+02             0.6
 91.0        3.692E+00   6.3        1.27E+02             0.6
 91.0        3.707E+00   6.3        1.36E+02             0.6
 91.0        3.717E+00   6.3        1.27E+02             0.6
 91.0        3.725E+00   6.3        1.25E+02             0.6
 91.0        3.736E+00   6.3        1.25E+02             0.6
 91.0        3.745E+00   6.3        1.22E+02             0.6
 91.0        3.768E+00   6.3        1.16E+02             0.6
 91.0        3.786E+00   6.3        1.11E+02   4.65E+00  0.6
ENDDATA            662
ENDSUBENT          671
SUBENT        C1363003   20100506   20101201   20101019       C100
BIB                  5          5
REACTION   (7-N-14(A,P)8-O-17,PAR,DA)
EN-SEC     (E-LVL,8-O-17)
ERR-ANALYS (ERR-S) Statistical uncertainty
STATUS     (CURVE) Data taken from Figs. 8 and 9
HISTORY    (20100225C) S.H. Rescanned with higher precision
ENDBIB               5
COMMON               1          3
E-LVL
MEV
0.0
ENDCOMMON            3
DATA                 4        415
ANG-CM     EN         DATA-CM    ERR-S
ADEG       MEV        MB/SR      MB/SR
    169.7      2.7394    3.29E-01
    169.7      2.7475    2.22E-01
    169.7      2.7576    1.67E-01
    169.7      2.7677    2.18E-01
    169.7      2.7769    2.69E-01
    169.7      2.7860    2.14E-01
    169.7      2.7982    4.23E-01
    169.7      2.8063    2.10E-01
    169.7      2.8174    5.25E-01
    169.7      2.8235    2.07E-01
    169.7      2.8337    7.32E-01
    169.7      2.8468    6.24E-01
    169.7      2.8651    6.73E-01
    169.7      2.8702    1.46E+00
    169.7      2.8773    1.41E+00
    169.7      2.8813    1.04E+00
    169.7      2.8854    7.22E-01
    169.7      2.8955    9.31E-01
    169.7      2.9046    4.55E-01
    169.7      2.9117    5.06E-01
    169.7      2.9340    5.55E-01
    169.7      2.9543    7.09E-01
    169.7      2.9746    8.63E-01
    169.7      2.9949    1.76E+00
    169.7      3.0142    2.44E+00
    169.7      3.0316    3.59E+00
    169.7      3.0408    5.23E+00   4.75E-01
    169.7      3.0520    6.49E+00   4.22E-01
    169.7      3.0723    6.06E+00   4.22E-01
    169.7      3.0925    5.80E+00   4.75E-01
    169.7      3.1107    4.47E+00   3.69E-01
    169.7      3.1320    4.05E+00
    169.7      3.1501    3.15E+00
    169.7      3.1714    2.88E+00
    169.7      3.1906    2.14E+00
    169.7      3.2078    2.14E+00
    169.7      3.2291    1.71E+00
    169.7      3.2494    1.50E+00
    169.7      3.2666    1.54E+00
    169.7      3.2868    1.07E+00
    169.7      3.3061    1.27E+00
    169.7      3.3254    1.11E+00
    169.7      3.3467    1.16E+00
    169.7      3.3649    1.21E+00
    169.7      3.3862    1.26E+00
    169.7      3.4044    1.04E+00
    169.7      3.4237    1.15E+00
    169.7      3.4440    1.30E+00
    169.7      3.4653    1.45E+00
    169.7      3.4836    1.71E+00
    169.7      3.5048    1.60E+00
    169.7      3.5221    1.65E+00
    169.7      3.5424    1.97E+00
    169.7      3.5526    2.49E+00
    169.7      3.5617    2.38E+00
    169.7      3.5709    3.17E+00
    169.7      3.5800    3.12E+00
    169.7      3.5882    4.17E+00
    169.7      3.6013    3.59E+00
    169.7      3.6085    4.54E+00
    169.7      3.6126    6.28E+00   3.69E-01
    169.7      3.6218    6.38E+00   3.16E-01
    169.7      3.6269    7.12E+00   3.69E-01
    169.7      3.6321    8.64E+00   4.75E-01
    169.7      3.6381    7.75E+00   4.22E-01
    169.7      3.6483    8.22E+00   5.27E-01
    169.7      3.6615    9.69E+00   4.75E-01
    169.7      3.6691    1.56E+01   9.49E-01
    169.7      3.6806    2.08E+01   6.33E-01
    169.7      3.6882    2.85E+01   9.50E-01
    169.7      3.7005    2.99E+01   7.90E-01
    169.7      3.7065    2.90E+01   8.96E-01
    169.7      3.7214    2.40E+01   5.28E-01
    169.7      3.7379    1.39E+01   5.27E-01
    169.7      3.7588    9.15E+00   5.80E-01
    169.7      3.7780    7.19E+00   5.27E-01
    169.7      3.7971    5.24E+00   3.69E-01
    169.7      3.8164    5.50E+00   4.22E-01
    144.0      3.5650    1.95E+00   7.09E-01
    144.0      3.5860    2.04E+00   6.79E-01
    144.0      3.5990    1.98E+00   7.68E-01
    144.0      3.6070    3.25E+00   9.15E-01
    144.0      3.6190    4.75E+00   1.12E+00
    144.0      3.6270    5.55E+00   1.36E+00
    144.0      3.6380    7.73E+00   1.51E+00
    144.0      3.6470    7.76E+00   1.54E+00
    144.0      3.6580    1.29E+01   1.89E+00
    144.0      3.6650    8.38E+00   1.56E+00
    144.0      3.6760    1.49E+01   2.04E+00
    144.0      3.6850    1.85E+01   2.30E+00
    144.0      3.6970    2.13E+01   2.27E+00
    144.0      3.7050    2.20E+01   2.21E+00
    144.0      3.7170    2.01E+01   2.24E+00
    144.0      3.7242    1.13E+01   1.86E+00
    144.0      3.7373    1.03E+01   1.91E+00
    144.0      3.7449    1.13E+01   1.91E+00
    144.0      3.7560    5.74E+00   1.39E+00
    135.6      2.7217    4.17E-01
    135.6      2.7591    2.51E-01
    135.6      2.7996    1.89E-01
    135.6      2.8208    3.95E-01
    135.6      2.8360    8.14E-01
    135.6      2.8451    1.79E-01
    135.6      2.8583    4.40E-01
    135.6      2.8644    1.34E+00
    135.6      2.8747    2.71E+00   4.23E-01
    135.6      2.8857    1.12E+00   5.80E-01
    135.6      2.8978    6.95E-01   4.74E-01
    135.6      2.9068    2.18E-01
    135.6      2.9160    6.91E-01   3.16E-01
    135.6      2.9322    1.37E+00   4.75E-01
    135.6      2.9524    8.94E-01
    135.6      2.9717    9.95E-01   4.22E-01
    135.6      2.9919    1.36E+00
    135.6      3.0122    2.09E+00   4.22E-01
    135.6      3.0223    2.25E+00   5.81E-01
    135.6      3.0325    3.04E+00   4.75E-01
    135.6      3.0427    4.09E+00   6.34E-01
    135.6      3.0530    5.36E+00   5.81E-01
    135.6      3.0631    5.20E+00   6.33E-01
    135.6      3.0722    5.35E+00   5.81E-01
    135.6      3.0813    5.03E+00   7.39E-01
    135.6      3.0935    5.93E+00   5.28E-01
    135.6      3.1006    5.77E+00   7.39E-01
    135.6      3.1096    4.55E+00   7.39E-01
    135.6      3.1206    3.92E+00   7.39E-01
    135.6      3.1307    3.33E+00   7.39E-01
    135.6      3.1509    3.12E+00   5.27E-01
    135.6      3.1701    2.27E+00   4.22E-01
    135.6      3.1791    1.53E+00   4.75E-01
    135.6      3.1903    2.48E+00   4.22E-01
    135.6      3.2095    1.73E+00   3.69E-01
    135.6      3.2277    1.99E+00   5.28E-01
    135.6      3.2479    1.57E+00   4.23E-01
    135.6      3.2682    1.56E+00   5.27E-01
    135.6      3.2844    1.61E+00   4.75E-01
    135.6      3.3056    1.08E+00   3.70E-01
    135.6      3.3258    1.23E+00
    135.6      3.3461    1.23E+00
    135.6      3.3845    1.27E+00
    135.6      3.4250    1.21E+00
    135.6      3.4614    9.38E-01
    135.6      3.4917    6.15E-01
    135.6      3.5009    1.77E+00
    135.6      3.5130    9.27E-01
    135.6      3.5211    1.14E+00   4.75E-01
    135.6      3.5403    9.74E-01   4.23E-01
    135.6      3.5595    8.64E-01   4.22E-01
    135.6      3.5717    1.49E+00   4.75E-01
    135.6      3.5809    2.49E+00   5.80E-01
    135.6      3.5890    2.39E+00   4.75E-01
    135.6      3.6002    3.12E+00   6.33E-01
    135.6      3.6083    3.33E+00   5.81E-01
    135.6      3.6185    3.65E+00   5.81E-01
    135.6      3.6277    4.70E+00   7.39E-01
    135.6      3.6418    5.01E+00   6.86E-01
    135.6      3.6480    6.44E+00   6.86E-01
    135.6      3.6625    9.97E+00   1.00E+00
    135.6      3.6695    9.34E+00   9.50E-01
    135.6      3.6811    1.53E+01   1.32E+00
    135.6      3.6886    2.00E+01   1.69E+00
    135.6      3.6987    2.00E+01   1.69E+00
    135.6      3.7090    2.16E+01   1.53E+00
    135.6      3.7188    1.79E+01   1.42E+00
    135.6      3.7274    1.22E+01   1.21E+00
    135.6      3.7394    9.85E+00   9.50E-01
    135.6      3.7583    6.57E+00   1.00E+00
    135.6      3.7764    4.98E+00   5.80E-01
    135.6      3.7955    3.08E+00   6.33E-01
    135.6      3.8157    3.18E+00   7.39E-01
    119.0      2.7254    1.52E-01
    119.0      2.7355    2.02E-01
    119.0      2.7447    2.00E-01
    119.0      2.7559    2.50E-01
    119.0      2.7630    2.49E-01
    119.0      2.7741    1.94E-01
    119.0      2.7843    1.91E-01
    119.0      2.7955    3.47E-01
    119.0      2.8026    3.98E-01
    119.0      2.8147    3.42E-01
    119.0      2.8209    6.57E-01
    119.0      2.8330    4.96E-01
    119.0      2.8371    7.58E-01
    119.0      2.8452    7.04E-01
    119.0      2.8554    6.49E-01
    119.0      2.8625    9.63E-01
    119.0      2.8757    9.60E-01
    119.0      2.8849    1.80E+00
    119.0      2.8930    1.17E+00
    119.0      2.9051    9.01E-01
    119.0      2.9224    6.86E-01
    119.0      2.9427    7.34E-01
    119.0      2.9640    9.40E-01
    119.0      2.9752    1.15E+00
    119.0      2.9843    1.15E+00
    119.0      2.9955    1.51E+00
    119.0      3.0047    2.19E+00
    119.0      3.0149    2.24E+00
    119.0      3.0241    2.66E+00
    119.0      3.0343    3.13E+00
    119.0      3.0444    3.29E+00
    119.0      3.0527    4.92E+00   4.22E-01
    119.0      3.0618    5.13E+00   4.21E-01
    119.0      3.0740    5.18E+00   4.73E-01
    119.0      3.0842    5.18E+00   4.74E-01
    119.0      3.0923    5.60E+00   5.27E-01
    119.0      3.1034    4.75E+00   4.74E-01
    119.0      3.1125    3.85E+00
    119.0      3.1216    3.17E+00
    119.0      3.1348    3.27E+00
    119.0      3.1429    2.95E+00
    119.0      3.1530    2.79E+00
    119.0      3.1641    2.05E+00
    119.0      3.1722    1.68E+00
    119.0      3.1854    1.94E+00
    119.0      3.2057    1.73E+00
    119.0      3.2239    1.41E+00
    119.0      3.2453    1.30E+00
    119.0      3.2645    1.29E+00
    119.0      3.2838    8.15E-01
    119.0      3.3071    8.10E-01
    119.0      3.3234    8.06E-01
    119.0      3.3437    6.96E-01
    119.0      3.3630    5.87E-01
    119.0      3.3731    4.79E-01
    119.0      3.3823    7.93E-01
    119.0      3.3955    7.90E-01
    119.0      3.4056    6.82E-01
    119.0      3.4239    6.25E-01
    119.0      3.4442    7.79E-01
    119.0      3.4655    8.26E-01
    119.0      3.4848    7.17E-01
    119.0      3.5041    7.65E-01
    119.0      3.5244    7.60E-01
    119.0      3.5427    8.62E-01
    119.0      3.5538    9.64E-01
    119.0      3.5620    1.59E+00
    119.0      3.5731    1.01E+00
    119.0      3.5854    1.69E+00
    119.0      3.5955    1.59E+00
    119.0      3.6037    1.95E+00
    119.0      3.6128    1.37E+00
    119.0      3.6342    2.84E+00   3.69E-01
    119.0      3.6424    4.15E+00   3.16E-01
    119.0      3.6537    5.73E+00   5.27E-01
    119.0      3.6649    6.25E+00   4.21E-01
    119.0      3.6742    7.73E+00   5.26E-01
    119.0      3.6824    8.51E+00   4.74E-01
    119.0      3.6947    9.62E+00   4.74E-01
    119.0      3.7030    1.27E+01   6.84E-01
    119.0      3.7132    1.27E+01   7.37E-01
    119.0      3.7221    9.98E+00   6.32E-01
    119.0      3.7341    7.61E+00   5.27E-01
    119.0      3.7441    5.61E+00   5.26E-01
    119.0      3.7542    5.08E+00   4.74E-01
    119.0      3.7632    3.71E+00   3.68E-01
    119.0      3.7713    3.70E+00   3.69E-01
    119.0      3.7824    2.81E+00   3.16E-01
     99.9      3.5970    1.40E+00   5.96E-01
     99.9      3.6180    1.61E+00   5.96E-01
     99.9      3.6375    4.19E+00   1.25E+00
     99.9      3.6469    3.75E+00   1.01E+00
     99.9      3.6573    4.86E+00   8.66E-01
     99.9      3.6648    4.62E+00   7.70E-01
     99.9      3.6761    6.35E+00   1.06E+00
     99.9      3.6846    6.59E+00   6.74E-01
     99.9      3.6958    5.09E+00   9.63E-01
     99.9      3.7044    6.63E+00   1.01E+00
     99.9      3.7156    5.38E+00   9.15E-01
     99.9      3.7240    3.44E+00   7.45E-01
     99.9      3.7343    2.78E+00   6.26E-01
     99.9      3.7560    9.65E-01   3.57E-01
     84.7      2.7270    2.56E-01
     84.7      2.7650    1.97E-01
     84.7      2.7840    7.16E-01
     84.7      2.8050    2.43E-01
     84.7      2.8150    3.45E-01
     84.7      2.8230    8.14E-01
     84.7      2.8340    9.16E-01
     84.7      2.8440    8.62E-01
     84.7      2.8540    8.61E-01
     84.7      2.8630    1.22E+00
     84.7      2.8688    2.18E+00
     84.7      2.8770    2.48E+00
     84.7      2.8835    1.80E+00
     84.7      2.8950    1.06E+00
     84.7      2.9040    1.11E+00
     84.7      2.9137    1.13E+00
     84.7      2.9219    1.22E+00
     84.7      2.9347    1.18E+00
     84.7      2.9448    1.41E+00
     84.7      2.9540    1.42E+00
     84.7      2.9630    1.83E+00
     84.7      2.9740    1.57E+00
     84.7      2.9842    1.50E+00
     84.7      2.9952    1.92E+00
     84.7      3.0063    2.34E+00
     84.7      3.0250    3.08E+00   3.65E-01
     84.7      3.0348    3.84E+00   4.24E-01
     84.7      3.0458    4.74E+00   5.18E-01
     84.7      3.0533    6.48E+00   4.24E-01
     84.7      3.0606    6.19E+00   3.30E-01
     84.7      3.0730    5.89E+00   4.18E-01
     84.7      3.0840    6.04E+00   4.17E-01
     84.7      3.0953    5.48E+00
     84.7      3.1045    5.34E+00
     84.7      3.1163    3.69E+00
     84.7      3.1255    3.87E+00
     84.7      3.1355    3.73E+00
     84.7      3.1456    3.07E+00
     84.7      3.1550    3.00E+00
     84.7      3.1639    2.64E+00
     84.7      3.1749    2.41E+00
     84.7      3.1840    2.42E+00
     84.7      3.1950    2.45E+00
     84.7      3.2041    1.65E+00
     84.7      3.2260    1.37E+00
     84.7      3.2454    1.73E+00
     84.7      3.2646    2.01E+00
     84.7      3.2838    9.26E-01
     84.7      3.3030    1.57E+00
     84.7      3.3230    9.36E-01
     84.7      3.3443    1.06E+00
     84.7      3.3644    1.34E+00
     84.7      3.3827    7.67E-01
     84.7      3.4029    1.19E+00
     84.7      3.4240    1.02E+00
     84.7      3.4430    1.02E+00
     84.7      3.4643    6.59E-01
     84.7      3.4826    6.56E-01
     84.7      3.5640    1.42E+00
     84.7      3.5853    2.00E+00   4.24E-01
     84.7      3.5944    1.30E+00   2.83E-01
     84.7      3.6054    1.58E+00   2.36E-01
     84.7      3.6140    2.61E+00   3.13E-01
     84.7      3.6240    3.08E+00   4.18E-01
     84.7      3.6348    3.17E+00   3.30E-01
     84.7      3.6440    3.12E+00   3.77E-01
     84.7      3.6540    3.12E+00   4.18E-01
     84.7      3.6624    3.78E+00   4.24E-01
     84.7      3.6743    4.01E+00   5.18E-01
     84.7      3.6835    5.14E+00   3.30E-01
     84.7      3.6891    5.85E+00   8.01E-01
     84.7      3.6928    6.51E+00   4.71E-01
     84.7      3.6965    7.31E+00   8.95E-01
     84.7      3.7020    5.67E+00
     84.7      3.7092    5.80E+00   8.01E-01
     84.7      3.7100    4.15E+00
     84.7      3.7165    4.57E+00   6.60E-01
     84.7      3.7238    4.01E+00
     84.7      3.7275    4.67E+00   7.07E-01
     84.7      3.7301    3.25E+00   3.77E-01
     84.7      3.7392    2.45E+00   2.83E-01
     84.7      3.7493    2.40E+00   3.77E-01
     84.7      3.7612    1.74E+00   3.30E-01
     84.7      3.7685    1.64E+00   3.77E-01
     84.7      3.7813    1.36E+00   3.77E-01
     84.7      3.7905    1.40E+00   2.36E-01
     84.7      3.7990    1.38E+00   3.13E-01
     84.7      3.8088    1.68E+00   4.71E-01
     84.7      3.8198    1.73E+00
     84.7      3.8300    2.05E+00   4.70E-01
     68.7      3.5590    1.34E+00   6.25E-01
     68.7      3.5800    2.71E+00   8.04E-01
     68.7      3.6170    2.41E+00   8.33E-01
     68.7      3.6380    2.86E+00   8.33E-01
     68.7      3.6450    4.52E+00   9.23E-01
     68.7      3.6570    2.86E+00   9.52E-01
     68.7      3.6650    5.12E+00   1.16E+00
     68.7      3.6770    5.27E+00   8.93E-01
     68.7      3.6840    8.78E+00   9.23E-01
     68.7      3.6940    9.94E+00   8.93E-01
     68.7      3.7060    1.06E+01   1.10E+00
     68.7      3.7160    9.23E+00   9.52E-01
     68.7      3.7233    6.87E+00   1.30E+00
     68.7      3.7355    4.76E+00   1.06E+00
     68.7      3.7430    3.31E+00   8.18E-01
     50.4      3.5200    2.27E+00   5.90E-01
     50.4      3.5600    2.24E+00   6.17E-01
     50.4      3.5800    1.50E+00   5.10E-01
     50.4      3.5984    2.18E+00   5.77E-01
     50.4      3.6060    4.39E+00   1.06E+00
     50.4      3.6190    2.98E+00   6.17E-01
     50.4      3.6258    3.57E+00   7.70E-01
     50.4      3.6371    4.73E+00   9.62E-01
     50.4      3.6465    4.24E+00   8.66E-01
     50.4      3.6588    6.60E+00   9.14E-01
     50.4      3.6664    8.19E+00   1.11E+00
     50.4      3.6770    9.93E+00   1.31E+00
     50.4      3.6863    1.23E+01   1.44E+00
     50.4      3.6968    1.65E+01   1.73E+00
     50.4      3.7044    1.75E+01   1.73E+00
     50.4      3.7166    1.68E+01   1.64E+00
     50.4      3.7269    1.46E+01   1.73E+00
     50.4      3.7352    9.58E+00   1.15E+00
     50.4      3.7440    6.46E+00   9.92E-01
     50.4      3.7560    4.77E+00   1.02E+00
     37.3      3.5572    2.16E+00   5.30E-01
     37.3      3.5980    3.05E+00   6.44E-01
     37.3      3.6060    3.11E+00   6.71E-01
     37.3      3.6180    2.84E+00   5.91E-01
     37.3      3.6240    4.07E+00   8.32E-01
     37.3      3.6376    5.82E+00   8.19E-01
     37.3      3.6461    7.46E+00   9.15E-01
     37.3      3.6570    7.88E+00   9.13E-01
     37.3      3.6650    1.01E+01   1.02E+00
     37.3      3.6770    1.21E+01   1.07E+00
     37.3      3.6840    1.76E+01   1.61E+00
     37.3      3.6990    1.80E+01   1.58E+00
     37.3      3.7050    2.10E+01   1.66E+00
     37.3      3.7162    1.67E+01   1.35E+00
     37.3      3.7240    1.38E+01   1.26E+00
     37.3      3.7359    1.07E+01   1.16E+00
     37.3      3.7430    7.39E+00   9.93E-01
     37.3      3.7566    7.78E+00   1.01E+00
ENDDATA            417
ENDSUBENT          431
SUBENT        C1363004   20100506   20101201   20101019       C100
BIB                  3          4
REACTION   (7-N-14(A,EL)7-N-14,,DA)
STATUS     (CURVE) Data taken from Figs. 4,5,6,7 of the reference
ERR-ANALYS (ERR-S) Statistical uncertainty
           (ERR-SYS) Systematic uncertainty
ENDBIB               4
NOCOMMON             0          0
DATA                 5        376
ANG-CM     EN         DATA-CM    ERR-S      ERR-SYS
ADEG       MEV        MB/SR      MB/SR      PER-CENT
      91.0   2.3410      2.98E+02   8.96E+00    1.3
      91.0   2.3430      3.06E+02   9.37E+00    1.3
      91.0   2.3451      3.07E+02   9.57E+00    1.3
      91.0   2.3470      2.96E+02   8.96E+00    1.3
      91.0   2.3490      3.03E+02   8.76E+00    1.3
      91.0   2.3530      3.00E+02   8.96E+00    1.3
      91.0   2.3551      3.22E+02   7.33E+00    1.3
      91.0   2.3570      2.87E+02   9.17E+00    1.3
      91.0   2.3591      3.04E+02   8.76E+00    1.3
      91.0   2.3611      3.14E+02   9.37E+00    1.3
      91.0   2.3630      3.07E+02   8.96E+00    1.3
      91.0   2.3650      3.09E+02   9.17E+00    1.3
      91.0   2.3671      3.04E+02   9.78E+00    1.3
      91.0   2.3691      2.75E+02   9.17E+00    1.3
      91.0   2.3710      2.64E+02   8.76E+00    1.3
      91.0   2.3731      2.73E+02   8.96E+00    1.3
      91.0   2.3751      2.92E+02   9.17E+00    1.3
      91.0   2.3770      2.80E+02   8.15E+00    1.3
      91.0   2.3791      2.95E+02   9.78E+00    1.3
      91.0   2.3811      2.83E+02   9.17E+00    1.3
      91.0   2.3831      2.94E+02   8.96E+00    1.3
      91.0   2.3851      2.80E+02   8.76E+00    1.3
      91.0   2.7465      2.21E+02   8.22E+00    0.9
      91.0   2.7484      2.19E+02   7.62E+00    0.9
      91.0   2.7504      2.21E+02   9.14E+00    0.9
      91.0   2.7526      2.23E+02   9.14E+00    0.9
      91.0   2.7546      2.17E+02   7.92E+00    0.9
      91.0   2.7565      2.01E+02   8.83E+00    0.9
      91.0   2.7573      2.20E+02   8.22E+00    0.9
      91.0   2.7584      2.19E+02   8.53E+00    0.9
      91.0   2.7595      2.11E+02   7.31E+00    0.9
      91.0   2.7605      1.98E+02   8.53E+00    0.9
      91.0   2.7615      1.96E+02   4.57E+00    0.9
      91.0   2.7624      2.04E+02   6.09E+00    0.9
      91.0   2.7635      1.95E+02   4.57E+00    0.9
      91.0   2.7645      1.99E+02   4.57E+00    0.9
      91.0   2.7655      2.04E+02   4.26E+00    0.9
      91.0   2.7664      2.03E+02   5.18E+00    0.9
      91.0   2.7676      1.99E+02   4.87E+00    0.9
      91.0   2.7686      2.13E+02   5.79E+00    0.9
      91.0   2.7696      2.30E+02   4.87E+00    0.9
      91.0   2.7704      2.19E+02   5.79E+00    0.9
      91.0   2.7714      2.25E+02   6.70E+00    0.9
      91.0   2.7724      2.18E+02   7.31E+00    0.9
      91.0   2.7734      2.11E+02   7.00E+00    0.9
      91.0   2.7746      2.20E+02   9.14E+00    0.9
      91.0   2.7755      2.16E+02   7.31E+00    0.9
      91.0   2.7762      2.08E+02   6.40E+00    0.9
      91.0   2.7773      2.19E+02   7.92E+00    0.9
      91.0   2.7783      2.30E+02   7.62E+00    0.9
      91.0   2.7795      2.20E+02   7.92E+00    0.9
      91.0   2.7804      2.02E+02   5.48E+00    0.9
      91.0   2.7813      2.10E+02   8.22E+00    0.9
      91.0   2.7823      2.12E+02   7.01E+00    0.9
      91.0   2.7844      2.23E+02   5.18E+00    0.9
      91.0   3.5659      1.39E+02   3.94E+00    0.8
      91.0   3.5679      1.34E+02   4.59E+00    0.8
      91.0   3.5699      1.39E+02   4.26E+00    0.8
      91.0   3.5717      1.35E+02   4.26E+00    0.8
      91.0   3.5736      1.37E+02   4.59E+00    0.8
      91.0   3.5756      1.29E+02   4.92E+00    0.8
      91.0   3.5775      1.38E+02   5.25E+00    0.8
      91.0   3.5795      1.39E+02   3.93E+00    0.8
      91.0   3.5814      1.31E+02   4.59E+00    0.8
      91.0   3.5833      1.38E+02   4.59E+00    0.8
      91.0   3.5853      1.37E+02   4.26E+00    0.8
      91.0   3.5871      1.30E+02   4.26E+00    0.8
      91.0   3.5891      1.28E+02   3.28E+00    0.8
      91.0   3.5910      1.27E+02   4.26E+00    0.8
      91.0   3.5931      1.23E+02   4.59E+00    0.8
      91.0   3.5948      1.28E+02   4.59E+00    0.8
      91.0   3.5968      1.29E+02   4.59E+00    0.8
     125.2   2.3252      1.31E+02   6.05E+00    1.3
     125.2   2.3291      1.32E+02   6.45E+00    1.3
     125.2   2.3331      1.18E+02   6.05E+00    1.3
     125.2   2.3370      1.24E+02   6.85E+00    1.3
     125.2   2.3411      1.26E+02   6.25E+00    1.3
     125.2   2.3451      1.20E+02   6.85E+00    1.3
     125.2   2.3471      1.15E+02   6.25E+00    1.3
     125.2   2.3492      1.16E+02   5.44E+00    1.3
     125.2   2.3510      1.18E+02   6.25E+00    1.3
     125.2   2.3521      1.29E+02   4.44E+00    1.3
     125.2   2.3531      1.29E+02   6.05E+00    1.3
     125.2   2.3542      1.29E+02   5.65E+00    1.3
     125.2   2.3552      1.28E+02   5.65E+00    1.3
     125.2   2.3563      1.26E+02   5.24E+00    1.3
     125.2   2.3571      1.23E+02   6.05E+00    1.3
     125.2   2.3591      1.09E+02   5.44E+00    1.3
     125.2   2.3611      1.21E+02   5.65E+00    1.3
     125.2   2.3634      1.07E+02   5.65E+00    1.3
     125.2   2.3651      1.13E+02   6.85E+00    1.3
     125.2   2.3672      1.03E+02   5.85E+00    1.3
     125.2   2.3692      1.09E+02   6.25E+00    1.3
     125.2   2.3711      1.19E+02   6.05E+00    1.3
     125.2   2.3731      1.28E+02   7.26E+00    1.3
     125.2   2.3752      1.29E+02   6.25E+00    1.3
     125.2   2.3772      1.30E+02   5.85E+00    1.3
     125.2   2.3792      1.24E+02   5.85E+00    1.3
     125.2   2.3811      1.29E+02   6.05E+00    1.3
     125.2   2.3832      1.20E+02   5.85E+00    1.3
     125.2   2.3853      1.28E+02   5.65E+00    1.3
     125.2   2.3873      1.21E+02   6.05E+00    1.3
     125.2   2.3893      1.24E+02   5.85E+00    1.3
     125.2   2.3912      1.26E+02   6.05E+00    1.3
     125.2   2.3932      1.23E+02   6.25E+00    1.3
     125.2   2.4013      1.10E+02   6.65E+00    1.3
     125.2   2.7446      9.47E+01   3.62E+00    0.9
     125.2   2.7456      7.93E+01   4.22E+00    0.9
     125.2   2.7466      8.72E+01   3.31E+00    0.9
     125.2   2.7476      8.66E+01   3.32E+00    0.9
     125.2   2.7486      7.94E+01   3.91E+00    0.9
     125.2   2.7497      8.03E+01   3.91E+00    0.9
     125.2   2.7505      8.21E+01   4.52E+00    0.9
     125.2   2.7516      9.12E+01   3.01E+00    0.9
     125.2   2.7526      8.61E+01   3.92E+00    0.9
     125.2   2.7537      8.64E+01   3.62E+00    0.9
     125.2   2.7544      8.28E+01   4.22E+00    0.9
     125.2   2.7555      8.37E+01   3.92E+00    0.9
     125.2   2.7564      8.68E+01   3.61E+00    0.9
     125.2   2.7574      8.92E+01   3.31E+00    0.9
     125.2   2.7585      9.07E+01   3.61E+00    0.9
     125.2   2.7594      8.38E+01   4.52E+00    0.9
     125.2   2.7606      9.44E+01   3.61E+00    0.9
     125.2   2.7613      9.59E+01   3.92E+00    0.9
     125.2   2.7623      1.08E+02   4.21E+00    0.9
     125.2   2.7634      1.08E+02   3.92E+00    0.9
     125.2   2.7644      9.75E+01   3.62E+00    0.9
     125.2   2.7655      9.48E+01   4.22E+00    0.9
     125.2   2.7664      7.91E+01   3.32E+00    0.9
     125.2   2.7671      8.16E+01               0.9
     125.2   2.7674      7.65E+01               0.9
     125.2   2.7683      7.50E+01   3.92E+00   0.9
     125.2   2.7689      7.05E+01   3.91E+00   0.9
     125.2   2.7703      7.50E+01   3.61E+00   0.9
     125.2   2.7712      7.29E+01   3.31E+00   0.9
     125.2   2.7722      7.56E+01   3.92E+00   0.9
     125.2   2.7742      7.36E+01   3.92E+00   0.9
     125.2   2.7763      7.51E+01   3.62E+00   0.9
     125.2   2.7782      6.94E+01   3.61E+00   0.9
     125.2   2.7804      6.89E+01   3.01E+00   0.9
     125.2   2.7822      7.74E+01   3.31E+00   0.9
     125.2   3.5621      5.12E+01   3.62E+00   0.8
     125.2   3.5640      4.00E+01   4.28E+00   0.8
     125.2   3.5659      3.87E+01   3.30E+00   0.8
     125.2   3.5679      5.29E+01   3.62E+00   0.8
     125.2   3.5698      4.17E+01   3.62E+00   0.8
     125.2   3.5717      4.53E+01   3.95E+00   0.8
     125.2   3.5736      3.97E+01   3.95E+00   0.8
     125.2   3.5748      4.07E+01   3.62E+00   0.8
     125.2   3.5756      5.19E+01   3.95E+00   0.8
     125.2   3.5767      4.73E+01   3.95E+00   0.8
     125.2   3.5774      5.72E+01   3.95E+00   0.8
     125.2   3.5784      5.29E+01   3.62E+00   0.8
     125.2   3.5795      6.01E+01   3.62E+00   0.8
     125.2   3.5806      5.68E+01   4.28E+00   0.8
     125.2   3.5816      4.76E+01   3.95E+00   0.8
     125.2   3.5824      5.39E+01   3.95E+00   0.8
     125.2   3.5832      4.70E+01   3.30E+00   0.8
     125.2   3.5844      5.19E+01   3.62E+00   0.8
     125.2   3.5853      4.70E+01   3.62E+00   0.8
     125.2   3.5863      4.66E+01   3.62E+00   0.8
     125.2   3.5873      4.27E+01   3.95E+00   0.8
     125.2   3.5894      3.90E+01   3.30E+00   0.8
     125.2   3.5911      4.23E+01   3.30E+00   0.8
     125.2   3.5930      3.71E+01   3.62E+00   0.8
     125.2   3.5951      4.53E+01   3.95E+00   0.8
     125.2   3.5969      4.10E+01              0.8
     125.2   3.6010      4.30E+01              0.8
     140.6   2.3251      9.91E+01   5.87E+00   1.3
     140.6   2.3291      1.10E+02   5.26E+00   1.3
     140.6   2.3331      1.04E+02   5.06E+00   1.3
     140.6   2.3371      1.01E+02   5.26E+00   1.3
     140.6   2.3411      9.70E+01   4.86E+00   1.3
     140.6   2.3432      1.00E+02   5.26E+00   1.3
     140.6   2.3449      9.39E+01   5.06E+00   1.3
     140.6   2.3471      1.05E+02   5.47E+00   1.3
     140.6   2.3480      1.01E+02   5.87E+00   1.3
     140.6   2.3491      1.02E+02   5.47E+00   1.3
     140.6   2.3501      1.09E+02   4.45E+00   1.3
     140.6   2.3510      9.97E+01   5.87E+00   1.3
     140.6   2.3519      9.32E+01   5.26E+00   1.3
     140.6   2.3531      9.38E+01   6.07E+00   1.3
     140.6   2.3552      1.05E+02   5.67E+00   1.3
     140.6   2.3566      9.58E+01   5.87E+00   1.3
     140.6   2.3590      9.03E+01   5.67E+00   1.3
     140.6   2.3611      9.13E+01   5.26E+00   1.3
     140.6   2.3627      8.76E+01   5.26E+00   1.3
     140.6   2.3650      9.53E+01   5.87E+00   1.3
     140.6   2.3667      8.70E+01   5.26E+00   1.3
     140.6   2.3690      8.74E+01   5.87E+00   1.3
     140.6   2.3710      9.36E+01   6.07E+00   1.3
     140.6   2.3720      1.04E+02   6.68E+00   1.3
     140.6   2.3731      1.13E+02   6.48E+00   1.3
     140.6   2.3741      1.12E+02   5.67E+00   1.3
     140.6   2.3751      1.11E+02   6.48E+00   1.3
     140.6   2.3761      1.02E+02   4.66E+00   1.3
     140.6   2.3771      1.04E+02   6.07E+00   1.3
     140.6   2.3781      1.06E+02   5.87E+00   1.3
     140.6   2.3791      9.27E+01   5.26E+00   1.3
     140.6   2.3800      1.01E+02   4.66E+00   1.3
     140.6   2.3811      1.01E+02   5.06E+00   1.3
     140.6   2.3830      9.61E+01   6.07E+00   1.3
     140.6   2.3851      1.03E+02   5.47E+00   1.3
     140.6   2.3869      9.63E+01   5.87E+00   1.3
     140.6   2.3891      1.02E+02   6.07E+00   1.3
     140.6   2.3910      9.79E+01   5.26E+00   1.3
     140.6   2.3930      9.72E+01   6.07E+00   1.3
     140.6   2.3970      9.21E+01   5.87E+00   1.3
     140.6   2.4010      9.62E+01   5.26E+00   1.3
     140.6   2.7447      5.83E+01   3.15E+00   0.9
     140.6   2.7467      5.20E+01              0.9
     140.6   2.7486      5.08E+01   3.46E+00   0.9
     140.6   2.7507      5.77E+01   3.46E+00   0.9
     140.6   2.7527      5.74E+01              0.9
     140.6   2.7546      5.90E+01   4.09E+00   0.9
     140.6   2.7566      5.72E+01   2.83E+00   0.9
     140.6   2.7586      5.41E+01   3.78E+00   0.9
     140.6   2.7593      6.23E+01   3.78E+00   0.9
     140.6   2.7605      5.91E+01   3.46E+00   0.9
     140.6   2.7615      6.57E+01   4.41E+00   0.9
     140.6   2.7624      6.89E+01   4.09E+00   0.9
     140.6   2.7632      7.49E+01   3.46E+00   0.9
     140.6   2.7645      7.65E+01   3.46E+00   0.9
     140.6   2.7655      6.33E+01   3.78E+00   0.9
     140.6   2.7664      5.57E+01   3.46E+00   0.9
     140.6   2.7675      5.42E+01   3.78E+00   0.9
     140.6   2.7683      4.91E+01   3.46E+00   0.9
     140.6   2.7696      5.07E+01   3.15E+00   0.9
     140.6   2.7705      4.63E+01   3.78E+00   0.9
     140.6   2.7715      4.54E+01   3.46E+00   0.9
     140.6   2.7724      4.51E+01   4.09E+00   0.9
     140.6   2.7744      4.89E+01   3.78E+00   0.9
     140.6   2.7763      4.80E+01   4.09E+00   0.9
     140.6   2.7783      4.96E+01   3.46E+00   0.9
     140.6   2.7806      5.22E+01   3.15E+00   0.9
     140.6   2.7824      5.34E+01   3.78E+00   0.9
     140.6   2.7843      4.72E+01   3.78E+00   0.9
     140.6   2.7863      5.07E+01   3.46E+00   0.9
     140.6   3.5582      5.09E+01              0.8
     140.6   3.5620      5.04E+01   2.93E+00   0.8
     140.6   3.5640      4.81E+01   3.59E+00   0.8
     140.6   3.5660      5.07E+01   3.26E+00   0.8
     140.6   3.5679      5.18E+01   2.93E+00   0.8
     140.6   3.5698      5.02E+01   3.26E+00   0.8
     140.6   3.5708      4.98E+01   3.58E+00   0.8
     140.6   3.5717      5.15E+01   2.61E+00   0.8
     140.6   3.5727      5.18E+01   3.25E+00   0.8
     140.6   3.5737      5.51E+01   2.93E+00   0.8
     140.6   3.5746      6.29E+01   3.58E+00   0.8
     140.6   3.5757      6.43E+01   3.26E+00   0.8
     140.6   3.5766      6.36E+01   4.23E+00   0.8
     140.6   3.5775      6.17E+01   3.58E+00   0.8
     140.6   3.5785      6.40E+01   2.93E+00   0.8
     140.6   3.5795      6.20E+01   3.91E+00   0.8
     140.6   3.5805      5.85E+01   3.58E+00   0.8
     140.6   3.5816      5.43E+01   3.58E+00   0.8
     140.6   3.5825      5.13E+01   3.58E+00   0.8
     140.6   3.5833      5.49E+01   4.24E+00   0.8
     140.6   3.5844      5.04E+01   3.91E+00   0.8
     140.6   3.5854      5.37E+01   3.58E+00   0.8
     140.6   3.5873      4.91E+01   3.26E+00   0.8
     140.6   3.5893      4.62E+01   2.93E+00   0.8
     140.6   3.5913      5.15E+01   4.24E+00   0.8
     140.6   3.5931      5.15E+01              0.8
     149.5   2.7448      4.73E+01   3.45E+00   0.9
     149.5   2.7507      4.44E+01   3.45E+00   0.9
     149.5   2.7545      4.63E+01   3.13E+00   0.9
     149.5   2.7585      4.60E+01   3.13E+00   0.9
     149.5   2.7606      4.72E+01   3.45E+00   0.9
     149.5   2.7626      4.35E+01              0.9
     149.5   2.7644      4.41E+01   4.07E+00   0.9
     149.5   2.7664      6.51E+01   4.07E+00   0.9
     149.5   2.7684      6.66E+01   3.76E+00   0.9
     149.5   2.7704      6.26E+01   3.76E+00   0.9
     149.5   2.7724      4.56E+01   4.07E+00   0.9
     149.5   2.7743      4.75E+01   3.76E+00   0.9
     149.5   2.7760      4.50E+01   3.92E+00   0.9
     149.5   2.7801      3.81E+01   3.13E+00   0.9
     149.5   2.7841      3.84E+01   3.13E+00   0.9
     170.8   2.3292      8.14E+01   3.27E+00   1.3
     170.8   2.3331      8.68E+01   3.88E+00   1.3
     170.8   2.3372      8.60E+01   3.27E+00   1.3
     170.8   2.3411      8.72E+01   3.68E+00   1.3
     170.8   2.3452      8.92E+01   3.27E+00   1.3
     170.8   2.3471      9.44E+01   3.47E+00   1.3
     170.8   2.3491      1.00E+02   3.27E+00   1.3
     170.8   2.3510      1.13E+02   3.88E+00   1.3
     170.8   2.3531      1.02E+02   2.86E+00   1.3
     170.8   2.3550      8.70E+01   3.27E+00   1.3
     170.8   2.3570      7.11E+01   3.47E+00   1.3
     170.8   2.3591      7.17E+01   3.47E+00   1.3
     170.8   2.3611      7.50E+01   3.47E+00   1.3
     170.8   2.3631      7.44E+01   3.68E+00   1.3
     170.8   2.3651      7.35E+01   3.06E+00   1.3
     170.8   2.3671      7.36E+01   3.68E+00   1.3
     170.8   2.3690      6.99E+01   3.27E+00   1.3
     170.8   2.3711      8.32E+01   2.86E+00   1.3
     170.8   2.3731      8.70E+01   2.66E+00   1.3
     170.8   2.3751      8.68E+01   3.68E+00   1.3
     170.8   2.3771      8.87E+01   3.47E+00   1.3
     170.8   2.3791      8.42E+01   2.86E+00   1.3
     170.8   2.3830      8.18E+01   2.86E+00   1.3
     170.8   2.3852      7.52E+01   3.06E+00   1.3
     170.8   2.3870      8.09E+01   3.06E+00   1.3
     170.8   2.3890      8.07E+01   3.06E+00   1.3
     170.8   2.3911      7.85E+01   3.06E+00   1.3
     170.8   2.3932      8.10E+01   2.86E+00   1.3
     170.8   2.3972      7.48E+01   3.06E+00   1.3
     170.8   2.7488      3.63E+01   3.73E+00   1.0
     170.8   2.7526      2.86E+01   4.35E+00   1.0
     170.8   2.7567      3.27E+01              1.0
     170.8   2.7587      2.68E+01              1.0
     170.8   2.7606      2.59E+01              1.0
     170.8   2.7627      3.65E+01   3.11E+00   1.0
     170.8   2.7647      6.44E+01   2.49E+00   1.0
     170.8   2.7656      8.96E+01   4.04E+00   1.0
     170.8   2.7666      9.86E+01   3.73E+00   1.0
     170.8   2.7677      9.77E+01   4.04E+00   1.0
     170.8   2.7685      8.44E+01   4.35E+00   1.0
     170.8   2.7705      6.02E+01   2.49E+00   1.0
     170.8   2.7723      4.65E+01   3.73E+00   1.0
     170.8   2.7743      3.78E+01   3.73E+00   1.0
     170.8   2.7765      3.66E+01   3.42E+00   1.0
     170.8   2.7783      3.66E+01   3.11E+00   1.0
     170.8   2.7804      3.32E+01   3.42E+00   1.0
     170.8   2.7844      2.89E+01   3.42E+00   1.0
     170.8   2.8400      1.65E+01   1.84E+00   1.0
     170.8   2.8430      1.68E+01   1.45E+00   1.0
     170.8   2.8470      1.78E+01   2.02E+00   1.0
     170.8   2.8510      2.30E+01   2.02E+00   1.0
     170.8   2.8530      2.48E+01   2.10E+00   1.0
     170.8   2.8550      2.20E+01   2.02E+00   1.0
     170.8   2.8570      2.25E+01   9.68E-01   1.0
     170.8   2.8590      2.29E+01   1.37E+00   1.0
     170.8   2.8610      2.35E+01   1.69E+00   1.0
     170.8   2.8628      2.71E+01   1.72E+00   1.0
     170.8   2.8649      2.78E+01   1.51E+00   1.0
     170.8   2.8657      3.44E+01   2.47E+00   1.0
     170.8   2.8670      3.62E+01   1.94E+00   1.0
     170.8   2.8677      3.80E+01   1.51E+00   1.0
     170.8   2.8690      4.61E+01   2.02E+00   1.0
     170.8   2.8709      4.49E+01   2.15E+00   1.0
     170.8   2.8730      4.54E+01   2.15E+00   1.0
     170.8   2.8748      4.49E+01   2.37E+00   1.0
     170.8   2.8769      4.37E+01   1.83E+00   1.0
     170.8   2.8788      3.92E+01   2.69E+00   1.0
     170.8   2.8809      4.32E+01   2.80E+00   1.0
     170.8   2.8829      4.59E+01   3.33E+00   1.0
     170.8   2.8849      4.51E+01   2.47E+00   1.0
     170.8   2.8865      4.82E+01   2.90E+00   1.0
     170.8   2.8879      4.65E+01   2.90E+00   1.0
     170.8   2.8909      4.79E+01   2.47E+00   1.0
     170.8   3.5581      8.11E+01              1.3
     170.8   3.5620      8.70E+01              1.3
     170.8   3.5659      8.94E+01              1.3
     170.8   3.5679      9.60E+01              1.3
     170.8   3.5688      9.33E+01              1.3
     170.8   3.5698      9.73E+01              1.3
     170.8   3.5708      1.15E+02   3.95E+00   1.3
     170.8   3.5717      1.28E+02   4.28E+00   1.3
     170.8   3.5737      1.54E+02   3.29E+00   1.3
     170.8   3.5746      1.87E+02   3.95E+00   1.3
     170.8   3.5754      2.06E+02   4.61E+00   1.3
     170.8   3.5766      2.14E+02   3.29E+00   1.3
     170.8   3.5774      2.06E+02   3.95E+00   1.3
     170.8   3.5784      1.69E+02   3.62E+00   1.3
     170.8   3.5794      1.33E+02              1.3
     170.8   3.5805      9.94E+01              1.3
     170.8   3.5812      7.50E+01              1.3
     170.8   3.5833      5.69E+01              1.3
     170.8   3.5852      5.76E+01              1.3
     170.8   3.5872      5.63E+01              1.3
     170.8   3.5892      6.98E+01              1.3
     170.8   3.5932      6.92E+01              1.3
     170.8   3.5970      7.55E+01              1.3
     170.8   3.6009      8.37E+01              1.3
ENDDATA            378
ENDSUBENT          387
SUBENT        C1363005   20100506   20101201   20101019       C100
BIB                  3          3
REACTION   (7-N-14(A,P)8-O-17,,DA)
ERR-ANALYS (ERR-S) Statistical uncertainty
STATUS     (CURVE) Data taken from Fig. 10 of the reference
ENDBIB               3
COMMON               1          3
ANG-CM
ADEG
169.7
ENDCOMMON            3
DATA                 3         10
EN         DATA-CM    ERR-S
MEV        MB/SR      MB/SR
  2.8509      6.97E+00   3.98E+00
  2.8609      1.16E+01   3.98E+00
  2.8630      1.46E+01   3.98E+00
  2.8660      1.91E+01   1.82E+00
  2.8670      2.71E+01   2.87E+00
  2.8680      2.26E+01   1.93E+00
  2.8700      2.06E+01   4.07E+00
  2.8720      1.35E+01   2.16E+00
  2.8750      1.38E+01   3.07E+00
  2.8789      1.03E+01   4.21E+00
ENDDATA             12
ENDSUBENT           24
ENDENTRY             5
