ENTRY            11618     860417              20050926       0000
SUBENT        11618001     860417              20050926       0000
BIB                  8         13
INSTITUTE  (1USAKTY)
REFERENCE  (J,PR,163,1077,67)
           (W,BRANDENBERGER,6801) TABULATED TOTAL DATA
AUTHOR     (J.D.REBER,J.D.BRANDENBERGER)
TITLE      NEUTRON CROSS SECTIONS OF CALCIUM AND POTASSIUM FROM 2
           TO 8 MEV.
FACILITY   (VDG)
INC-SOURCE (P-T). BELOW 5.3 MEV.
           (D-D). 5.3-8.3 MEV.
STATUS     (SCSRS)
HISTORY    (760718T) TRANSLATED FROM SCISRS
           (830815A) CONVERTED TO REACTION FORMALISM
           (860417A) BIB UPDATES.
ENDBIB              13
NOCOMMON             0          0
ENDSUBENT           16
SUBENT        11618002     860417              20050926       0000
BIB                  4          4
REACTION   (19-K-0(N,EL)19-K-0,,DA,,LEG)
STATUS     (DEP,11618004)
DETECTOR   (SCIN)     LIQUID SCINTILLATION COUNTER
MONITOR    (1-H-1(N,SCT)1-H-1,,SIG)
ENDBIB               4
NOCOMMON             0          0
DATA                 5         35
EN         EN-RSL     NUMBER-CM  DATA       DATA-ERR
MEV        MEV        NO-DIM     MB/SR      MB/SR
 2.060  +00 1.15   -01    0.      2.305  +02 2.1    +00
 2.060  +00 1.15   -01    1.      2.036  +02 4.4    +00
 2.060  +00 1.15   -01    2.      3.021  +02 6.3    +00
 2.060  +00 1.15   -01    3.      3.26   +01 6.4    +00
 2.060  +00 1.15   -01    4.      6.11   +01 7.3    +00
 3.740  +00 8.5    -02    0.      2.091  +02 1.2    +00
 3.740  +00 8.5    -02    1.      2.853  +02 2.8    +00
 3.740  +00 8.5    -02    2.      3.896  +02 4.7    +00
 3.740  +00 8.5    -02    3.      2.191  +02 4.8    +00
 3.740  +00 8.5    -02    4.      1.259  +02 5.9    +00
 3.740  +00 8.5    -02    5.      8.7    +00 4.0    +00
 3.740  +00 8.5    -02    6.      5.2    +00 4.0    +00
 4.330  +00 7.8    -02    0.      1.945  +02 1.5    +00
 4.330  +00 7.8    -02    1.      3.335  +02 3.6    +00
 4.330  +00 7.8    -02    2.      4.134  +02 6.1    +00
 4.330  +00 7.8    -02    3.      2.731  +02 6.1    +00
 4.330  +00 7.8    -02    4.      1.422  +02 7.5    +00
 4.330  +00 7.8    -02    5.      1.85   +01 5.2    +00
 4.330  +00 7.8    -02    6.      8.1    +00 5.2    +00
 6.520  +00 1.60   -01    0.      1.066  +02 2.2    +00
 6.520  +00 1.60   -01    1.      2.256  +02 5.1    +00
 6.520  +00 1.60   -01    2.      2.719  +02 9.1    +00
 6.520  +00 1.60   -01    3.      2.281  +02 8.3    +00
 6.520  +00 1.60   -01    4.      1.273  +02 1.10   +01
 6.520  +00 1.60   -01    5.      4.06   +01 6.4    +00
 6.520  +00 1.60   -01    6.      1.32   +01 6.9    +00
 7.910  +00 2.20   -01    0.      1.105  +02 4.     -01
 7.910  +00 2.20   -01    1.      2.343  +02 8.     -01
 7.910  +00 2.20   -01    2.      3.235  +02 1.6    +00
 7.910  +00 2.20   -01    3.      3.059  +02 1.5    +00
 7.910  +00 2.20   -01    4.      2.174  +02 2.2    +00
 7.910  +00 2.20   -01    5.      1.269  +02 1.6    +00
 7.910  +00 2.20   -01    6.      7.70   +01 2.0    +00
 7.910  +00 2.20   -01    7.      2.26   +01 1.0    +00
 7.910  +00 2.20   -01    8.      7.5    +00 1.1    +00
ENDDATA             37
ENDSUBENT           46
SUBENT        11618003     860417              20050926       0000
BIB                  4          4
REACTION   (19-K-0(N,EL)19-K-0,,SIG)
STATUS     (DEP,11618004)
DETECTOR   (SCIN)     LIQUID SCINTILLATION COUNTER
MONITOR    (1-H-1(N,SCT)1-H-1,,SIG)
ENDBIB               4
NOCOMMON             0          0
DATA                 3          5
EN         EN-RSL     DATA
MEV        MEV        B
 2.060  +00 1.15   -01 2.90   +00
 3.740  +00 8.5    -02 2.63   +00
 4.330  +00 7.8    -02 2.44   +00
 6.520  +00 1.60   -01 1.34   +00
 7.910  +00 2.20   -01 1.39   +00
ENDDATA              7
ENDSUBENT           16
SUBENT        11618004     860417              20050926       0000
BIB                  3          3
REACTION   (19-K-0(N,EL)19-K-0,,DA)
DETECTOR   (SCIN)     LIQUID SCINTILLATION COUNTER
MONITOR    (1-H-1(N,SCT)1-H-1,,SIG)
ENDBIB               3
NOCOMMON             0          0
DATA                 5         69
EN         EN-RSL     COS-CM     DATA       DATA-ERR
MEV        MEV        NO-DIM     MB/SR      MB/SR
 2.060  +00 1.15   -01 0.90200    6.75   +02 3.2    +01
 2.060  +00 1.15   -01 0.85900    5.68   +02 2.7    +01
 2.060  +00 1.15   -01 0.81100    5.41   +02 2.6    +01
 2.060  +00 1.15   -01 0.75500    4.67   +02 2.2    +01
 2.060  +00 1.15   -01 0.62700    3.55   +02 1.7    +01
 2.060  +00 1.15   -01 0.48000    2.46   +02 1.1    +01
 2.060  +00 1.15   -01 0.40100    2.16   +02 1.0    +01
 2.060  +00 1.15   -01 0.06100    1.120  +02 5.2    +00
 2.060  +00 1.15   -01-0.0260     9.58   +01 4.5    +00
 2.060  +00 1.15   -01-0.1130     9.18   +01 4.3    +00
 2.060  +00 1.15   -01-0.3650     7.31   +01 3.5    +00
 2.060  +00 1.15   -01-0.4440     8.59   +01 4.1    +00
 2.060  +00 1.15   -01-0.6580     1.210  +02 5.6    +00
 2.060  +00 1.15   -01-0.7770     1.790  +02 8.2    +00
 2.060  +00 1.15   -01-0.8720     2.37   +02 1.1    +01
 3.740  +00 8.5    -02 0.85900    7.51   +02 3.6    +01
 3.740  +00 8.5    -02 0.75500    5.04   +02 2.4    +01
 3.740  +00 8.5    -02 0.62700    2.95   +02 1.3    +01
 3.740  +00 8.5    -02 0.48000    1.600  +02 7.2    +00
 3.740  +00 8.5    -02 0.31900    8.71   +01 4.0    +00
 3.740  +00 8.5    -02 0.14900    6.07   +01 2.9    +00
 3.740  +00 8.5    -02-0.0260     5.95   +01 2.7    +00
 3.740  +00 8.5    -02-0.1990     6.99   +01 3.2    +00
 3.740  +00 8.5    -02-0.3650     7.35   +01 3.3    +00
 3.740  +00 8.5    -02-0.5190     7.75   +01 3.5    +00
 3.740  +00 8.5    -02-0.6580     8.93   +01 4.0    +00
 3.740  +00 8.5    -02-0.7770     1.080  +02 4.8    +00
 3.740  +00 8.5    -02-0.8720     1.400  +02 6.3    +00
 4.330  +00 7.8    -02 0.85900    8.02   +02 3.8    +01
 4.330  +00 7.8    -02 0.75500    5.22   +02 2.4    +01
 4.330  +00 7.8    -02 0.62700    2.93   +02 1.3    +01
 4.330  +00 7.8    -02 0.48000    1.360  +02 6.1    +00
 4.330  +00 7.8    -02 0.31900    6.20   +01 3.2    +00
 4.330  +00 7.8    -02 0.14900    3.86   +01 2.1    +00
 4.330  +00 7.8    -02-0.0260     3.88   +01 1.9    +00
 4.330  +00 7.8    -02-0.1990     4.95   +01 2.4    +00
 4.330  +00 7.8    -02-0.3650     5.36   +01 2.5    +00
 4.330  +00 7.8    -02-0.5190     5.55   +01 2.6    +00
 4.330  +00 7.8    -02-0.6580     5.82   +01 2.7    +00
 4.330  +00 7.8    -02-0.7770     6.18   +01 2.8    +00
 4.330  +00 7.8    -02-0.8720     8.21   +01 3.8    +00
 6.520  +00 1.60   -01 0.85900    5.16   +02 2.4    +01
 6.520  +00 1.60   -01 0.75500    3.05   +02 1.5    +01
 6.520  +00 1.60   -01 0.62700    1.330  +02 6.7    +00
 6.520  +00 1.60   -01 0.48000    4.75   +01 3.0    +00
 6.520  +00 1.60   -01 0.31900    1.66   +01 1.5    +00
 6.520  +00 1.60   -01 0.14900    8.6    +00 9.     -01
 6.520  +00 1.60   -01-0.0260     1.52   +01 1.2    +00
 6.520  +00 1.60   -01-0.1990     2.26   +01 1.8    +00
 6.520  +00 1.60   -01-0.3650     2.51   +01 2.0    +00
 6.520  +00 1.60   -01-0.5190     2.09   +01 1.7    +00
 6.520  +00 1.60   -01-0.6580     2.03   +01 1.7    +00
 6.520  +00 1.60   -01-0.7770     1.45   +01 1.2    +00
 6.520  +00 1.60   -01-0.8280     1.40   +01 1.2    +00
 7.910  +00 2.20   -01 0.90200    7.16   +02 3.4    +01
 7.910  +00 2.20   -01 0.85900    5.24   +02 2.4    +01
 7.910  +00 2.20   -01 0.75500    2.36   +02 1.1    +01
 7.910  +00 2.20   -01 0.62700    8.44   +01 4.3    +00
 7.910  +00 2.20   -01 0.48000    2.73   +01 1.9    +00
 7.910  +00 2.20   -01 0.31900    9.2    +00 8.     -01
 7.910  +00 2.20   -01 0.14900    5.5    +00 7.     -01
 7.910  +00 2.20   -01-0.0260     9.0    +00 8.     -01
 7.910  +00 2.20   -01-0.1990     1.85   +01 1.2    +00
 7.910  +00 2.20   -01-0.3650     2.76   +01 1.6    +00
 7.910  +00 2.20   -01-0.4440     3.09   +01 1.6    +00
 7.910  +00 2.20   -01-0.5190     3.16   +01 1.6    +00
 7.910  +00 2.20   -01-0.6580     2.95   +01 1.5    +00
 7.910  +00 2.20   -01-0.7770     2.34   +01 1.2    +00
 7.910  +00 2.20   -01-0.8720     2.19   +01 1.2    +00
ENDDATA             71
ENDSUBENT           79
SUBENT        11618005     860417              20050926       0000
BIB                  2          2
REACTION   (19-K-0(N,TOT),,SIG)
DETECTOR   (SCIN) PLASTIC SCINTILLATOR.
ENDBIB               2
NOCOMMON             0          0
DATA                 3        196
EN         DATA       DATA-ERR
MEV        B          B
 1.818  +00 3.36   +00 1.7    -01
 1.881  +00 3.28   +00 1.7    -01
 1.938  +00 3.53   +00 1.7    -01
 1.998  +00 3.58   +00 1.7    -01
 2.056  +00 3.31   +00 1.7    -01
 2.118  +00 3.09   +00 1.7    -01
 2.177  +00 3.71   +00 1.7    -01
 2.186  +00 3.52   +00 1.7    -01
 2.206  +00 3.14   +00 1.6    -01
 2.224  +00 3.35   +00 1.6    -01
 2.244  +00 2.95   +00 1.6    -01
 2.259  +00 3.21   +00 1.7    -01
 2.263  +00 3.30   +00 1.6    -01
 2.282  +00 3.39   +00 1.6    -01
 2.301  +00 3.33   +00 1.6    -01
 2.321  +00 3.42   +00 1.6    -01
 2.340  +00 3.40   +00 1.6    -01
 2.360  +00 3.42   +00 1.6    -01
 2.379  +00 3.72   +00 1.6    -01
 2.399  +00 2.70   +00 1.6    -01
 2.418  +00 2.76   +00 1.6    -01
 2.437  +00 3.64   +00 1.6    -01
 2.458  +00 3.15   +00 1.6    -01
 2.478  +00 3.15   +00 1.6    -01
 2.498  +00 3.45   +00 1.6    -01
 2.518  +00 3.09   +00 1.6    -01
 2.557  +00 3.69   +00 1.6    -01
 2.597  +00 3.47   +00 1.6    -01
 2.618  +00 3.39   +00 1.6    -01
 2.638  +00 3.47   +00 1.6    -01
 2.659  +00 3.42   +00 1.6    -01
 2.679  +00 3.24   +00 1.6    -01
 2.699  +00 3.20   +00 1.6    -01
 2.720  +00 3.46   +00 1.6    -01
 2.740  +00 3.42   +00 1.6    -01
 2.761  +00 3.24   +00 1.6    -01
 2.781  +00 3.51   +00 1.6    -01
 2.803  +00 3.45   +00 1.6    -01
 2.823  +00 3.36   +00 1.6    -01
 2.844  +00 3.15   +00 1.6    -01
 2.865  +00 3.59   +00 1.6    -01
 2.886  +00 3.95   +00 1.6    -01
 2.907  +00 3.71   +00 1.6    -01
 2.928  +00 3.57   +00 1.6    -01
 2.949  +00 3.39   +00 1.6    -01
 2.970  +00 3.37   +00 1.6    -01
 2.992  +00 3.25   +00 1.6    -01
 3.013  +00 3.98   +00 1.6    -01
 3.034  +00 3.79   +00 1.6    -01
 3.056  +00 3.28   +00 1.6    -01
 3.077  +00 3.58   +00 1.6    -01
 3.098  +00 3.73   +00 1.6    -01
 3.120  +00 3.32   +00 1.6    -01
 3.141  +00 3.44   +00 1.6    -01
 3.163  +00 3.72   +00 1.6    -01
 3.185  +00 3.69   +00 1.6    -01
 3.206  +00 3.39   +00 1.6    -01
 3.229  +00 3.85   +00 1.6    -01
 3.251  +00 3.49   +00 1.6    -01
 3.273  +00 3.77   +00 1.6    -01
 3.295  +00 3.47   +00 1.6    -01
 3.317  +00 3.57   +00 1.6    -01
 3.339  +00 3.82   +00 1.6    -01
 3.361  +00 3.71   +00 1.6    -01
 3.383  +00 3.75   +00 1.6    -01
 3.405  +00 3.54   +00 1.6    -01
 3.427  +00 3.22   +00 1.6    -01
 3.450  +00 3.59   +00 1.6    -01
 3.472  +00 3.22   +00 1.6    -01
 3.496  +00 3.45   +00 1.6    -01
 3.519  +00 3.61   +00 1.6    -01
 3.541  +00 3.63   +00 1.6    -01
 3.564  +00 3.74   +00 1.6    -01
 3.586  +00 3.76   +00 1.6    -01
 3.609  +00 3.90   +00 1.6    -01
 3.632  +00 3.81   +00 1.6    -01
 3.655  +00 3.00   +00 1.6    -01
 3.678  +00 3.64   +00 1.6    -01
 3.701  +00 3.59   +00 1.6    -01
 3.724  +00 3.48   +00 1.6    -01
 3.747  +00 3.25   +00 1.6    -01
 3.794  +00 3.54   +00 1.6    -01
 3.817  +00 3.59   +00 1.6    -01
 3.841  +00 3.09   +00 1.6    -01
 3.864  +00 3.33   +00 1.6    -01
 3.888  +00 3.40   +00 1.6    -01
 3.911  +00 3.30   +00 1.6    -01
 3.959  +00 3.14   +00 1.6    -01
 3.982  +00 3.32   +00 1.6    -01
 4.006  +00 3.89   +00 1.6    -01
 4.030  +00 3.59   +00 1.6    -01
 4.077  +00 3.34   +00 1.6    -01
 4.102  +00 3.42   +00 1.6    -01
 4.125  +00 3.16   +00 1.6    -01
 4.150  +00 3.41   +00 1.6    -01
 4.175  +00 3.53   +00 1.6    -01
 4.199  +00 3.69   +00 1.6    -01
 4.223  +00 3.89   +00 1.6    -01
 4.248  +00 3.22   +00 1.6    -01
 4.272  +00 3.35   +00 1.6    -01
 4.297  +00 3.69   +00 1.6    -01
 4.321  +00 3.17   +00 1.6    -01
 4.346  +00 3.41   +00 1.6    -01
 4.370  +00 3.35   +00 1.6    -01
 4.395  +00 3.17   +00 1.6    -01
 4.420  +00 3.19   +00 1.6    -01
 4.445  +00 3.10   +00 1.6    -01
 4.469  +00 3.24   +00 1.6    -01
 4.494  +00 3.46   +00 1.6    -01
 4.519  +00 3.47   +00 1.6    -01
 4.544  +00 3.25   +00 1.6    -01
 4.569  +00 3.41   +00 1.6    -01
 4.596  +00 3.61   +00 1.6    -01
 4.620  +00 3.67   +00 1.6    -01
 4.671  +00 3.20   +00 1.6    -01
 4.696  +00 3.06   +00 1.6    -01
 4.722  +00 3.65   +00 1.6    -01
 4.747  +00 2.83   +00 1.6    -01
 4.773  +00 3.22   +00 1.6    -01
 4.799  +00 2.92   +00 1.6    -01
 4.824  +00 3.19   +00 1.7    -01
 4.850  +00 3.17   +00 1.7    -01
 4.876  +00 3.15   +00 1.7    -01
 4.902  +00 2.93   +00 1.7    -01
 4.928  +00 3.34   +00 1.7    -01
 4.954  +00 3.17   +00 1.7    -01
 4.980  +00 3.20   +00 1.7    -01
 5.006  +00 3.43   +00 1.7    -01
 5.032  +00 3.43   +00 1.7    -01
 5.058  +00 3.20   +00 1.7    -01
 5.084  +00 3.46   +00 1.7    -01
 5.111  +00 3.40   +00 1.7    -01
 5.138  +00 3.21   +00 1.7    -01
 5.164  +00 3.17   +00 1.7    -01
 5.191  +00 3.24   +00 1.7    -01
 5.204  +00 3.38   +00 1.7    -01
 5.243  +00 3.21   +00 1.7    -01
 5.300  +00 3.23   +00 1.7    -01
 5.351  +00 3.13   +00 1.3    -01
 5.400  +00 3.22   +00 1.3    -01
 5.446  +00 3.17   +00 1.3    -01
 5.494  +00 3.09   +00 1.3    -01
 5.538  +00 3.34   +00 1.3    -01
 5.583  +00 3.28   +00 1.3    -01
 5.631  +00 3.05   +00 1.3    -01
 5.677  +00 3.24   +00 1.3    -01
 5.724  +00 3.04   +00 1.3    -01
 5.772  +00 3.11   +00 1.3    -01
 5.821  +00 3.24   +00 1.3    -01
 5.868  +00 2.97   +00 1.3    -01
 5.914  +00 3.19   +00 1.3    -01
 5.963  +00 3.20   +00 1.3    -01
 6.011  +00 3.18   +00 1.3    -01
 6.071  +00 3.31   +00 1.1    -01
 6.361  +00 3.03   +00 1.1    -01
 6.406  +00 2.93   +00 1.1    -01
 6.449  +00 3.18   +00 1.1    -01
 6.494  +00 2.90   +00 1.1    -01
 6.541  +00 2.72   +00 1.1    -01
 6.586  +00 2.75   +00 1.1    -01
 6.629  +00 2.92   +00 1.1    -01
 6.676  +00 2.80   +00 1.1    -01
 6.720  +00 2.94   +00 1.1    -01
 6.767  +00 2.92   +00 1.1    -01
 6.812  +00 2.84   +00 1.1    -01
 6.861  +00 2.83   +00 1.1    -01
 6.908  +00 2.98   +00 1.1    -01
 6.952  +00 2.80   +00 1.1    -01
 7.000  +00 2.85   +00 1.1    -01
 7.049  +00 2.91   +00 1.1    -01
 7.096  +00 2.92   +00 1.1    -01
 7.142  +00 2.69   +00 1.1    -01
 7.190  +00 2.72   +00 1.1    -01
 7.237  +00 2.89   +00 1.1    -01
 7.284  +00 2.86   +00 1.1    -01
 7.333  +00 2.76   +00 1.1    -01
 7.380  +00 2.78   +00 1.1    -01
 7.430  +00 2.69   +00 1.1    -01
 7.479  +00 2.57   +00 1.1    -01
 7.527  +00 2.52   +00 1.1    -01
 7.577  +00 2.79   +00 1.1    -01
 7.627  +00 2.88   +00 1.1    -01
 7.678  +00 3.09   +00 1.1    -01
 7.725  +00 3.13   +00 1.1    -01
 7.776  +00 3.49   +00 1.1    -01
 7.827  +00 3.01   +00 1.1    -01
 7.873  +00 2.86   +00 1.1    -01
 7.926  +00 2.89   +00 1.1    -01
 7.979  +00 2.89   +00 1.1    -01
 8.030  +00 3.14   +00 1.1    -01
 8.082  +00 3.35   +00 1.1    -01
 8.134  +00 2.80   +00 1.1    -01
 8.185  +00 2.70   +00 1.1    -01
 8.237  +00 3.40   +00 1.1    -01
 8.289  +00 2.86   +00 1.1    -01
 8.343  +00 2.63   +00 1.1    -01
ENDDATA            198
ENDSUBENT          205
SUBENT        11618006     860417              20050926       0000
BIB                  2          2
REACTION   (20-CA-0(N,TOT),,SIG)
DETECTOR   (SCIN) PLASTIC SCINTILLATOR.
ENDBIB               2
NOCOMMON             0          0
DATA                 3        208
EN         DATA       DATA-ERR
MEV        B          B
 1.818  +00 3.01   +00 9.     -02
 1.881  +00 2.91   +00 9.     -02
 1.938  +00 3.10   +00 9.     -02
 1.998  +00 2.89   +00 9.     -02
 2.056  +00 3.39   +00 9.     -02
 2.118  +00 3.02   +00 9.     -02
 2.177  +00 3.04   +00 9.     -02
 2.206  +00 2.89   +00 7.     -02
 2.224  +00 2.80   +00 7.     -02
 2.263  +00 2.92   +00 7.     -02
 2.282  +00 3.14   +00 7.     -02
 2.301  +00 3.43   +00 7.     -02
 2.321  +00 3.55   +00 7.     -02
 2.340  +00 3.56   +00 7.     -02
 2.360  +00 2.98   +00 7.     -02
 2.379  +00 2.92   +00 7.     -02
 2.399  +00 2.60   +00 7.     -02
 2.418  +00 2.74   +00 7.     -02
 2.437  +00 3.41   +00 7.     -02
 2.458  +00 3.24   +00 7.     -02
 2.478  +00 3.38   +00 7.     -02
 2.498  +00 4.00   +00 7.     -02
 2.518  +00 3.78   +00 7.     -02
 2.537  +00 3.16   +00 7.     -02
 2.557  +00 3.19   +00 7.     -02
 2.577  +00 3.11   +00 7.     -02
 2.597  +00 3.29   +00 7.     -02
 2.618  +00 3.96   +00 7.     -02
 2.638  +00 3.73   +00 7.     -02
 2.659  +00 3.81   +00 7.     -02
 2.679  +00 3.37   +00 7.     -02
 2.699  +00 3.63   +00 7.     -02
 2.720  +00 3.75   +00 7.     -02
 2.740  +00 3.50   +00 7.     -02
 2.761  +00 3.53   +00 7.     -02
 2.781  +00 3.57   +00 7.     -02
 2.803  +00 3.44   +00 7.     -02
 2.823  +00 3.52   +00 7.     -02
 2.844  +00 3.38   +00 7.     -02
 2.865  +00 3.22   +00 7.     -02
 2.886  +00 3.26   +00 7.     -02
 2.907  +00 3.50   +00 7.     -02
 2.928  +00 3.65   +00 7.     -02
 2.949  +00 3.77   +00 7.     -02
 2.970  +00 3.77   +00 7.     -02
 2.992  +00 3.78   +00 7.     -02
 3.013  +00 3.63   +00 7.     -02
 3.034  +00 3.44   +00 7.     -02
 3.056  +00 3.40   +00 7.     -02
 3.077  +00 3.16   +00 7.     -02
 3.098  +00 2.95   +00 7.     -02
 3.120  +00 3.13   +00 7.     -02
 3.141  +00 3.47   +00 7.     -02
 3.163  +00 3.71   +00 7.     -02
 3.185  +00 3.55   +00 7.     -02
 3.206  +00 3.35   +00 7.     -02
 3.229  +00 3.31   +00 7.     -02
 3.251  +00 3.10   +00 7.     -02
 3.273  +00 2.66   +00 7.     -02
 3.295  +00 2.93   +00 7.     -02
 3.317  +00 2.86   +00 7.     -02
 3.339  +00 3.09   +00 7.     -02
 3.352  +00 3.51   +00 7.     -02
 3.361  +00 3.35   +00 7.     -02
 3.383  +00 3.43   +00 7.     -02
 3.405  +00 3.49   +00 7.     -02
 3.427  +00 3.19   +00 7.     -02
 3.450  +00 3.29   +00 7.     -02
 3.472  +00 3.59   +00 7.     -02
 3.496  +00 3.57   +00 7.     -02
 3.519  +00 3.47   +00 7.     -02
 3.541  +00 3.43   +00 7.     -02
 3.549  +00 3.79   +00 7.     -02
 3.564  +00 3.61   +00 7.     -02
 3.586  +00 3.72   +00 7.     -02
 3.609  +00 3.50   +00 7.     -02
 3.632  +00 3.81   +00 7.     -02
 3.655  +00 3.88   +00 7.     -02
 3.678  +00 3.80   +00 7.     -02
 3.701  +00 3.77   +00 7.     -02
 3.724  +00 3.73   +00 7.     -02
 3.747  +00 3.71   +00 7.     -02
 3.770  +00 3.49   +00 7.     -02
 3.794  +00 3.48   +00 7.     -02
 3.817  +00 3.51   +00 7.     -02
 3.841  +00 3.75   +00 7.     -02
 3.864  +00 3.56   +00 7.     -02
 3.888  +00 3.25   +00 7.     -02
 3.911  +00 3.24   +00 7.     -02
 3.935  +00 3.38   +00 7.     -02
 3.959  +00 3.33   +00 7.     -02
 3.982  +00 3.58   +00 7.     -02
 4.006  +00 3.75   +00 8.     -02
 4.030  +00 3.76   +00 8.     -02
 4.053  +00 3.50   +00 8.     -02
 4.077  +00 3.65   +00 8.     -02
 4.102  +00 3.85   +00 8.     -02
 4.125  +00 3.83   +00 8.     -02
 4.150  +00 3.71   +00 8.     -02
 4.175  +00 3.60   +00 8.     -02
 4.199  +00 3.65   +00 8.     -02
 4.223  +00 3.47   +00 8.     -02
 4.248  +00 3.50   +00 8.     -02
 4.272  +00 3.45   +00 8.     -02
 4.297  +00 3.28   +00 8.     -02
 4.321  +00 3.29   +00 8.     -02
 4.346  +00 3.49   +00 8.     -02
 4.370  +00 3.65   +00 8.     -02
 4.395  +00 3.56   +00 8.     -02
 4.420  +00 3.19   +00 8.     -02
 4.445  +00 3.35   +00 8.     -02
 4.469  +00 3.34   +00 8.     -02
 4.494  +00 3.78   +00 8.     -02
 4.519  +00 3.70   +00 8.     -02
 4.544  +00 3.25   +00 8.     -02
 4.569  +00 3.19   +00 8.     -02
 4.596  +00 3.15   +00 8.     -02
 4.620  +00 3.26   +00 8.     -02
 4.646  +00 3.25   +00 8.     -02
 4.671  +00 3.17   +00 8.     -02
 4.696  +00 3.50   +00 8.     -02
 4.722  +00 3.18   +00 8.     -02
 4.747  +00 3.18   +00 8.     -02
 4.773  +00 3.19   +00 8.     -02
 4.799  +00 3.24   +00 8.     -02
 4.824  +00 3.10   +00 1.0    -01
 4.850  +00 3.05   +00 1.0    -01
 4.876  +00 3.31   +00 1.0    -01
 4.902  +00 3.29   +00 1.0    -01
 4.928  +00 3.32   +00 1.0    -01
 4.954  +00 3.32   +00 1.0    -01
 4.980  +00 3.33   +00 1.0    -01
 5.006  +00 3.38   +00 1.0    -01
 5.032  +00 3.40   +00 1.0    -01
 5.071  +00 3.30   +00 1.0    -01
 5.084  +00 4.00   +00 1.0    -01
 5.111  +00 3.25   +00 1.0    -01
 5.138  +00 3.13   +00 1.0    -01
 5.160  +00 3.14   +00 1.0    -01
 5.191  +00 3.17   +00 1.0    -01
 5.204  +00 3.26   +00 1.0    -01
 5.217  +00 3.15   +00 1.0    -01
 5.243  +00 3.14   +00 1.0    -01
 5.259  +00 3.42   +00 1.0    -01
 5.295  +00 3.12   +00 1.0    -01
 5.305  +00 3.41   +00 1.0    -01
 5.321  +00 3.29   +00 1.0    -01
 5.351  +00 3.41   +00 8.     -02
 5.400  +00 3.38   +00 8.     -02
 5.446  +00 3.16   +00 8.     -02
 5.494  +00 3.15   +00 8.     -02
 5.538  +00 3.31   +00 8.     -02
 5.583  +00 3.45   +00 8.     -02
 5.631  +00 3.43   +00 8.     -02
 5.677  +00 3.04   +00 8.     -02
 5.724  +00 3.06   +00 8.     -02
 5.772  +00 3.19   +00 8.     -02
 5.821  +00 3.25   +00 8.     -02
 5.868  +00 3.37   +00 8.     -02
 5.914  +00 3.23   +00 8.     -02
 5.963  +00 3.08   +00 8.     -02
 6.011  +00 3.14   +00 8.     -02
 6.056  +00 3.03   +00 8.     -02
 6.071  +00 3.03   +00 8.     -02
 6.351  +00 2.89   +00 8.     -02
 6.361  +00 3.18   +00 8.     -02
 6.449  +00 2.97   +00 8.     -02
 6.494  +00 2.88   +00 8.     -02
 6.541  +00 3.01   +00 8.     -02
 6.586  +00 2.98   +00 8.     -02
 6.629  +00 3.14   +00 8.     -02
 6.654  +00 3.04   +00 8.     -02
 6.676  +00 3.03   +00 8.     -02
 6.720  +00 2.95   +00 8.     -02
 6.767  +00 3.03   +00 8.     -02
 6.812  +00 3.00   +00 8.     -02
 6.861  +00 2.87   +00 8.     -02
 6.908  +00 2.96   +00 8.     -02
 6.952  +00 2.94   +00 8.     -02
 6.964  +00 2.89   +00 8.     -02
 7.000  +00 3.10   +00 8.     -02
 7.049  +00 2.99   +00 8.     -02
 7.096  +00 3.07   +00 8.     -02
 7.142  +00 2.98   +00 8.     -02
 7.190  +00 3.11   +00 8.     -02
 7.237  +00 3.10   +00 8.     -02
 7.284  +00 2.97   +00 8.     -02
 7.333  +00 2.81   +00 8.     -02
 7.380  +00 2.89   +00 8.     -02
 7.430  +00 2.97   +00 8.     -02
 7.479  +00 2.97   +00 8.     -02
 7.527  +00 2.94   +00 8.     -02
 7.577  +00 2.83   +00 8.     -02
 7.627  +00 2.77   +00 8.     -02
 7.678  +00 2.87   +00 8.     -02
 7.725  +00 2.79   +00 8.     -02
 7.776  +00 2.80   +00 8.     -02
 7.827  +00 2.81   +00 8.     -02
 7.873  +00 2.90   +00 8.     -02
 7.926  +00 2.85   +00 8.     -02
 7.979  +00 2.72   +00 8.     -02
 8.030  +00 2.86   +00 8.     -02
 8.082  +00 3.01   +00 8.     -02
 8.134  +00 2.95   +00 8.     -02
 8.185  +00 2.65   +00 8.     -02
 8.237  +00 2.88   +00 8.     -02
 8.289  +00 2.83   +00 8.     -02
 8.343  +00 3.01   +00 8.     -02
ENDDATA            210
ENDSUBENT          217
SUBENT        11618007     860417              20050926       0000
BIB                  4          4
REACTION   (20-CA-0(N,EL)20-CA-0,,DA,,LEG)
STATUS     (DEP,11618009)
DETECTOR   (SCIN)     LIQUID SCINTILLATION COUNTER
MONITOR    (1-H-1(N,SCT)1-H-1,,SIG)
ENDBIB               4
NOCOMMON             0          0
DATA                 5         47
EN         EN-RSL     NUMBER-CM  DATA       DATA-ERR
MEV        MEV        NO-DIM     MB/SR      MB/SR
 2.060  +00 1.15   -01    0.      2.572  +02 1.9    +00
 2.060  +00 1.15   -01    1.      1.816  +02 5.9    +00
 2.060  +00 1.15   -01    2.      3.996  +02 7.2    +00
 2.060  +00 1.15   -01    3.      8.22   +01 1.07   +01
 2.060  +00 1.15   -01    4.      1.273  +02 9.3    +00
 2.060  +00 1.15   -01    5.      2.04   +01 1.14   +01
 2.060  +00 1.15   -01    6.      1.97   +01 6.9    +00
 2.060  +00 1.15   -01    7.      8.4    +00 8.2    +00
 3.290  +00 9.5    -02    0.      2.122  +02 2.8    +00
 3.290  +00 9.5    -02    1.      2.361  +02 6.5    +00
 3.290  +00 9.5    -02    2.      3.786  +02 1.14   +01
 3.290  +00 9.5    -02    3.      1.853  +02 1.12   +01
 3.290  +00 9.5    -02    4.      1.515  +02 1.48   +01
 3.290  +00 9.5    -02    5.      1.33   +01 1.02   +01
 3.290  +00 9.5    -02    6.      1.79   +01 1.06   +01
 5.300  +00 2.45   -01    0.      1.629  +02 4.7    +00
 5.300  +00 2.45   -01    1.      3.116  +02 1.17   +01
 5.300  +00 2.45   -01    2.      3.969  +02 1.84   +01
 5.300  +00 2.45   -01    3.      3.070  +02 1.77   +01
 5.300  +00 2.45   -01    4.      1.775  +02 1.92   +01
 5.300  +00 2.45   -01    5.      5.15   +01 1.18   +01
 5.300  +00 2.45   -01    6.      1.57   +01 1.12   +01
 5.880  +00 2.05   -01    0.      1.578  +02 4.7    +00
 5.880  +00 2.05   -01    1.      3.282  +02 1.03   +01
 5.880  +00 2.05   -01    2.      4.238  +02 1.96   +01
 5.880  +00 2.05   -01    3.      3.611  +02 1.88   +01
 5.880  +00 2.05   -01    4.      2.374  +02 2.68   +01
 5.880  +00 2.05   -01    5.      1.155  +02 2.03   +01
 5.880  +00 2.05   -01    6.      7.37   +01 2.40   +01
 5.880  +00 2.05   -01    7.      3.04   +01 1.20   +01
 5.880  +00 2.05   -01    8.      2.38   +01 1.27   +01
 6.520  +00 1.60   -01    0.      1.322  +02 4.0    +00
 6.520  +00 1.60   -01    1.      2.725  +02 7.9    +00
 6.520  +00 1.60   -01    2.      3.608  +02 1.65   +01
 6.520  +00 1.60   -01    3.      3.049  +02 1.36   +01
 6.520  +00 1.60   -01    4.      2.043  +02 2.13   +01
 6.520  +00 1.60   -01    5.      7.26   +01 1.23   +01
 6.520  +00 1.60   -01    6.      3.77   +01 1.59   +01
 7.910  +00 2.20   -01    0.      1.289  +02 2.3    +00
 7.910  +00 2.20   -01    1.      2.829  +02 5.2    +00
 7.910  +00 2.20   -01    2.      3.908  +02 9.8    +00
 7.910  +00 2.20   -01    3.      3.833  +02 9.7    +00
 7.910  +00 2.20   -01    4.      2.811  +02 1.34   +01
 7.910  +00 2.20   -01    5.      1.732  +02 9.9    +00
 7.910  +00 2.20   -01    6.      1.002  +02 1.19   +01
 7.910  +00 2.20   -01    7.      3.36   +01 6.2    +00
 7.910  +00 2.20   -01    8.      6.9    +00 6.9    +00
ENDDATA             49
ENDSUBENT           58
SUBENT        11618008     860417              20050926       0000
BIB                  4          4
REACTION   (20-CA-0(N,EL)20-CA-0,,SIG)
STATUS     (DEP,11618009)
DETECTOR   (SCIN)     LIQUID SCINTILLATION COUNTER
MONITOR    (1-H-1(N,SCT)1-H-1,,SIG)
ENDBIB               4
NOCOMMON             0          0
DATA                 3          6
EN         EN-RSL     DATA
MEV        MEV        B
 2.060  +00 1.15   -01 3.23   +00
 3.290  +00 9.5    -02 2.67   +00
 5.300  +00 2.45   -01 2.05   +00
 5.880  +00 2.05   -01 1.98   +00
 6.520  +00 1.60   -01 1.66   +00
 7.910  +00 2.20   -01 1.62   +00
ENDDATA              8
ENDSUBENT           17
SUBENT        11618009     860417              20050926       0000
BIB                  3          3
REACTION   (20-CA-0(N,EL)20-CA-0,,DA)
DETECTOR   (SCIN)     LIQUID SCINTILLATION COUNTER
MONITOR    (1-H-1(N,SCT)1-H-1,,SIG)
ENDBIB               3
NOCOMMON             0          0
DATA                 5         93
EN         EN-RSL     COS-CM     DATA       DATA-ERR
MEV        MEV        NO-DIM     MB/SR      MB/SR
 2.060  +00 1.15   -01 0.90200    7.75   +02 3.8    +01
 2.060  +00 1.15   -01 0.81100    5.54   +02 2.7    +01
 2.060  +00 1.15   -01 0.75500    4.66   +02 2.2    +01
 2.060  +00 1.15   -01 0.69400    4.04   +02 1.9    +01
 2.060  +00 1.15   -01 0.62800    3.34   +02 1.6    +01
 2.060  +00 1.15   -01 0.48100    2.18   +02 1.0    +01
 2.060  +00 1.15   -01 0.40200    1.890  +02 8.8    +00
 2.060  +00 1.15   -01 0.32000    1.570  +02 7.2    +00
 2.060  +00 1.15   -01 0.14900    1.170  +02 5.3    +00
 2.060  +00 1.15   -01 0.06200    1.070  +02 4.9    +00
 2.060  +00 1.15   -01-0.0250     9.78   +01 4.6    +00
 2.060  +00 1.15   -01-0.1120     9.14   +01 4.2    +00
 2.060  +00 1.15   -01-0.1980     9.26   +01 4.2    +00
 2.060  +00 1.15   -01-0.3640     1.000  +02 4.5    +00
 2.060  +00 1.15   -01-0.4430     1.080  +02 4.9    +00
 2.060  +00 1.15   -01-0.5190     1.210  +02 5.5    +00
 2.060  +00 1.15   -01-0.6570     1.730  +02 7.8    +00
 2.060  +00 1.15   -01-0.7200     1.940  +02 9.0    +00
 2.060  +00 1.15   -01-0.7760     2.440  +02 1.1    +00
 2.060  +00 1.15   -01-0.8720     3.340  +02 1.6    +00
 3.290  +00 9.5    -02 0.86000    6.99   +02 3.4    +01
 3.290  +00 9.5    -02 0.75500    4.37   +02 2.1    +01
 3.290  +00 9.5    -02 0.62800    2.79   +02 1.3    +01
 3.290  +00 9.5    -02 0.48100    1.550  +02 9.1    +00
 3.290  +00 9.5    -02 0.32000    9.49   +01 4.6    +00
 3.290  +00 9.5    -02 0.14900    7.38   +01 4.1    +00
 3.290  +00 9.5    -02-0.0250     7.71   +01 3.8    +00
 3.290  +00 9.5    -02-0.1980     7.76   +01 4.6    +00
 3.290  +00 9.5    -02-0.3640     8.50   +01 5.4    +00
 3.290  +00 9.5    -02-0.5190     8.97   +01 4.3    +00
 3.290  +00 9.5    -02-0.6570     1.020  +02 4.9    +00
 3.290  +00 9.5    -02-0.7760     1.370  +02 7.0    +00
 3.290  +00 9.5    -02-0.8720     1.880  +02 9.1    +00
 5.300  +00 2.45   -01 0.86000    7.33   +02 3.7    +01
 5.300  +00 2.45   -01 0.75500    4.46   +02 2.2    +01
 5.300  +00 2.45   -01 0.69400    3.26   +02 1.6    +01
 5.300  +00 2.45   -01 0.62800    1.920  +02 9.1    +00
 5.300  +00 2.45   -01 0.55700    1.490  +02 7.2    +00
 5.300  +00 2.45   -01 0.48100    7.55   +01 3.7    +00
 5.300  +00 2.45   -01 0.40200    5.36   +01 2.9    +00
 5.300  +00 2.45   -01 0.32000    2.75   +01 1.9    +00
 5.300  +00 2.45   -01 0.23500    2.26   +01 1.6    +00
 5.300  +00 2.45   -01 0.14900    1.97   +01 1.4    +00
 5.300  +00 2.45   -01 0.06200    2.31   +01 1.4    +00
 5.300  +00 2.45   -01-0.0250     2.78   +01 1.6    +00
 5.300  +00 2.45   -01-0.1980     3.65   +01 2.1    +00
 5.300  +00 2.45   -01-0.3640     3.82   +01 2.1    +00
 5.300  +00 2.45   -01-0.5190     4.44   +01 2.4    +00
 5.300  +00 2.45   -01-0.6570     3.83   +01 2.4    +00
 5.300  +00 2.45   -01-0.7760     4.46   +01 2.4    +00
 5.300  +00 2.45   -01-0.8720     5.18   +01 2.8    +00
 5.880  +00 2.05   -01 0.86000    7.29   +02 3.6    +01
 5.880  +00 2.05   -01 0.75500    3.83   +02 1.9    +01
 5.880  +00 2.05   -01 0.62800    1.86   +02 9.2    +01
 5.880  +00 2.05   -01 0.48100    7.19   +01 4.1    +00
 5.880  +00 2.05   -01 0.23500    1.09   +01 1.3    +00
 5.880  +00 2.05   -01 0.14900    1.17   +01 1.3    +00
 5.880  +00 2.05   -01-0.0250     2.07   +01 1.6    +00
 5.880  +00 2.05   -01-0.1980     2.58   +01 2.0    +00
 5.880  +00 2.05   -01-0.2820     3.19   +01 2.5    +00
 5.880  +00 2.05   -01-0.3640     3.37   +01 2.7    +00
 5.880  +00 2.05   -01-0.5190     3.67   +01 3.0    +00
 5.880  +00 2.05   -01-0.7200     3.17   +01 2.1    +00
 5.880  +00 2.05   -01-0.7760     3.34   +01 2.1    +00
 5.880  +00 2.05   -01-0.8720     2.95   +01 1.8    +00
 6.520  +00 1.60   -01 0.86000    6.49   +02 3.2    +01
 6.520  +00 1.60   -01 0.75500    3.23   +02 1.6    +01
 6.520  +00 1.60   -01 0.62800    1.520  +02 9.0    +00
 6.520  +00 1.60   -01 0.48100    3.85   +01 3.0    +00
 6.520  +00 1.60   -01 0.32000    1.30   +01 1.3    +00
 6.520  +00 1.60   -01 0.14900    1.03   +01 1.0    +00
 6.520  +00 1.60   -01-0.0250     1.70   +01 1.4    +00
 6.520  +00 1.60   -01-0.1980     2.59   +01 2.1    +00
 6.520  +00 1.60   -01-0.3640     3.57   +01 3.1    +00
 6.520  +00 1.60   -01-0.5190     2.72   +01 2.4    +00
 6.520  +00 1.60   -01-0.6570     2.34   +01 2.1    +00
 6.520  +00 1.60   -01-0.7760     2.60   +01 2.3    +00
 6.520  +00 1.60   -01-0.8270     2.19   +01 2.0    +00
 7.910  +00 2.20   -01 0.90200    8.55   +02 4.1    +01
 7.910  +00 2.20   -01 0.86000    6.39   +02 3.0    +01
 7.910  +00 2.20   -01 0.75500    2.570  +02 1.15   +01
 7.910  +00 2.20   -01 0.62800    8.66   +01 4.4    +00
 7.910  +00 2.20   -01 0.48100    2.30   +01 1.6    +00
 7.910  +00 2.20   -01 0.32000    9.00   +00 7.9    -01
 7.910  +00 2.20   -01 0.14900    6.40   +00 5.8    -01
 7.910  +00 2.20   -01-0.0250     1.09   +01 8.     -01
 7.910  +00 2.20   -01-0.1980     2.08   +01 1.1    +00
 7.910  +00 2.20   -01-0.3640     3.14   +01 1.6    +00
 7.910  +00 2.20   -01-0.4430     3.26   +01 1.6    +00
 7.910  +00 2.20   -01-0.5190     3.58   +01 1.8    +00
 7.910  +00 2.20   -01-0.6570     2.98   +01 1.5    +00
 7.910  +00 2.20   -01-0.7760     2.62   +01 1.4    +00
 7.910  +00 2.20   -01-0.8720     2.34   +01 1.2    +00
ENDDATA             95
ENDSUBENT          103
ENDENTRY             9
