ENTRY            11643     860623
SUBENT        11643001     860623
BIB                  7         10
INSTITUTE  (1USAANL)
REFERENCE  (P,WASH-1013,1,5811)
TITLE      TRANSMISSION MEASUREMENTS.
AUTHOR     (L.M.BOLLINGER,R.T.CARPENTER,R.E.COTE,G.E.THOMAS)
FACILITY   (CHOPF) FAST CHOPPER
STATUS     (SCSRS)
           DATA TAKEN FROM PRIVATE COMM., BOLLINGER, 59/7.
HISTORY    (760730T) TRANSLATED FROM SCISRS
           (830829A) CONVERTED TO REACTION FORMALISM
           (860623A) BIB UPDATE.
ENDBIB              10
NOCOMMON             0          0
ENDSUBENT           13
SUBENT        11643002     830829
BIB                  2          2
REACTION   (56-BA-0(N,TOT),,SIG)
METHOD     (TOF)      TIME-OF-FLIGHT
ENDBIB               2
NOCOMMON             0          0
DATA                 5        723
EN         EN-RSL     DATA       DATA-ERR   THICKNESS
MEV        NSEC/M     B          B          G/CM-SQ
 1.801  -05   25.      5.91   +00             4.382
 1.807  -05   25.      4.97   +00             4.382
 1.812  -05   25.      6.47   +00             4.382
 1.817  -05   25.      8.04   +00             4.382
 1.823  -05   25.      6.32   +00             4.382
 1.828  -05   25.      8.82   +00             4.382
 1.834  -05   25.      7.28   +00             4.382
 1.840  -05   25.      3.93   +00             4.382
 1.845  -05   25.      6.55   +00             4.382
 1.851  -05   25.      6.96   +00             4.382
 1.856  -05   25.      7.60   +00             4.382
 1.862  -05   25.      6.21   +00             4.382
 1.868  -05   25.      6.52   +00             4.382
 1.873  -05   25.      5.46   +00             4.382
 1.879  -05   25.      6.11   +00             4.382
 1.885  -05   25.      6.88   +00             4.382
 1.891  -05   25.      6.24   +00             4.382
 1.896  -05   25.      6.00   +00             4.382
 1.902  -05   25.      7.74   +00 3.00   +00  4.382
 1.908  -05   25.      6.61   +00             4.382
 1.914  -05   25.      6.70   +00             4.382
 1.920  -05   25.      6.68   +00             4.382
 1.926  -05   25.      6.22   +00             4.382
 1.932  -05   25.      6.66   +00             4.382
 1.938  -05   25.      6.28   +00             4.382
 1.944  -05   25.      6.72   +00             4.382
 1.950  -05   25.      7.74   +00             4.382
 1.956  -05   25.      6.53   +00             4.382
 1.967  -05   25.      7.54   +00             4.382
 1.968  -05   25.      5.32   +00             4.382
 1.974  -05   25.      6.84   +00             4.382
 1.981  -05   25.      6.08   +00             4.382
 1.987  -05   25.      7.44   +00             4.382
 1.993  -05   25.      6.41   +00             4.382
 1.999  -05   25.      5.75   +00             4.382
 2.006  -05   25.      6.64   +00             4.382
 2.012  -05   25.      7.09   +00             4.382
 2.018  -05   25.      6.31   +00             4.382
 2.025  -05   25.      7.31   +00             4.382
 2.031  -05   25.      7.87   +00             4.382
 2.038  -05   25.      7.75   +00             4.382
 2.044  -05   25.      8.74   +00             4.382
 2.051  -05   25.      8.75   +00             4.382
 2.057  -05   25.      8.48   +00             4.382
 2.064  -05   25.      8.49   +00             4.382
 2.070  -05   25.      8.36   +00             4.382
 2.077  -05   25.      7.84   +00             4.382
 2.084  -05   25.      8.74   +00             4.382
 2.090  -05   25.      9.74   +00 3.00   +00  4.382
 2.097  -05   25.      6.61   +00 2.90   +00  4.382
 2.106  -05   12.      6.56   +00            21.11
 2.116  -05   12.      6.11   +00            21.11
 2.127  -05   12.      6.19   +00            21.11
 2.138  -05   12.      6.79   +00            21.11
 2.150  -05   12.      5.76   +00            21.11
 2.161  -05   12.      6.43   +00            21.11
 2.171  -05   12.      6.09   +00            21.11
 2.182  -05   12.      6.29   +00 1.10   +00 21.11
 2.192  -05   12.      6.72   +00            21.11
 2.203  -05   12.      6.26   +00            21.11
 2.214  -05   12.      6.13   +00            21.11
 2.225  -05   12.      6.64   +00            21.11
 2.236  -05   12.      6.37   +00            21.11
 2.247  -05   12.      6.18   +00            21.11
 2.258  -05   12.      7.23   +00 1.20   +00 21.11
 2.269  -05   12.      6.40   +00            21.11
 2.280  -05   12.      5.68   +00 1.10   +00 21.11
 2.292  -05   12.      6.23   +00            21.11
 2.303  -05   12.      6.40   +00            21.11
 2.314  -05   12.      6.70   +00            21.11
 2.326  -05   12.      6.06   +00 1.20   +00 21.11
 2.334  -05   12.      7.23   +00            21.11
 2.338  -05   12.      6.50   +00 6.0    -01 21.11
 2.342  -05   12.      8.37   +00            21.11
 2.346  -05   12.      8.06   +00            21.11
 2.349  -05   12.      7.73   +00 7.0    -01 21.11
 2.353  -05   12.      7.21   +00 6.0    -01 21.11
 2.357  -05   12.      8.27   +00 7.0    -01 21.11
 2.361  -05   12.      7.19   +00 6.0    -01 21.11
 2.377  -05   25.      1.308  +01 1.50   +00  4.382
 2.380  -05   25.      1.626  +01 1.60   +00  4.382
 2.383  -05   25.      1.362  +01 1.50   +00  4.382
 2.386  -05   25.      2.044  +01             4.382
 2.388  -05   25.      2.195  +01 1.70   +00  4.382
 2.391  -05   25.      2.587  +01             4.382
 2.394  -05   25.      3.014  +01 1.80   +00  4.382
 2.397  -05   25.      3.679  +01 2.00   +00  4.382
 2.399  -05   25.      4.460  +01 2.20   +00  4.382
 2.402  -05   25.      5.626  +01 2.50   +00  4.382
 2.405  -05   25.      6.665  +01 2.90   +00  4.382
 2.408  -05   25.      7.858  +01 3.40   +00  4.382
 2.410  -05   25.      9.184  +01 4.10   +00  4.382
 2.413  -05   25.      1.048  +02 4.9    +00  4.382
 2.416  -05   25.      1.136  +02 5.6    +00  4.382
 2.419  -05   25.      1.259  +02             4.382
 2.422  -05   25.      1.256  +02 6.8    +00  4.382
 2.424  -05   25.      1.203  +02 6.2    +00  4.382
 2.427  -05   25.      1.111  +02 5.4    +00  4.382
 2.430  -05   25.      1.005  +02 4.6    +00  4.382
 2.433  -05   25.      8.570  +01 3.70   +00  4.382
 2.436  -05   25.      7.572  +01 3.30   +00  4.382
 2.438  -05   25.      6.694  +01 2.90   +00  4.382
 2.476  -05   12.      1.337  +01 1.00   +00 21.11
 2.481  -05   12.      1.128  +01            21.11
 2.485  -05   12.      9.56   +00            21.11
 2.489  -05   12.      1.030  +01 8.0    -01 21.11
 2.494  -05   12.      9.09   +00            21.11
 2.498  -05   12.      8.65   +00            21.11
 2.502  -05   12.      9.30   +00            21.11
 2.506  -05   12.      8.09   +00 7.0    -01 21.11
 2.511  -05   12.      7.21   +00            21.11
 2.515  -05   12.      7.36   +00            21.11
 2.520  -05   12.      6.66   +00 6.0    -01 21.11
 2.533  -05   12.      6.71   +00            21.11
 2.555  -05   12.      6.25   +00            21.11
 2.577  -05   12.      7.14   +00 1.30   +00 21.11
 2.600  -05   12.      6.29   +00            21.11
 2.623  -05   12.      6.63   +00            21.11
 2.647  -05   12.      6.34   +00            21.11
 2.670  -05   12.      6.49   +00            21.11
 2.694  -05   12.      6.47   +00            21.11
 2.718  -05   12.      6.51   +00            21.11
 2.743  -05   12.      6.23   +00            21.11
 2.768  -05   12.      6.09   +00            21.11
 2.794  -05   12.      6.16   +00            21.11
 2.819  -05   12.      6.45   +00            21.11
 2.851  -05   12.      6.21   +00            21.11
 2.872  -05   12.      6.17   +00            21.11
 2.899  -05   12.      6.15   +00            21.11
 2.931  -05   12.      6.50   +00 1.20   +00 21.11
 2.953  -05   12.      6.70   +00            21.11
 2.981  -05   12.      6.82   +00            21.11
 3.010  -05   12.      7.13   +00            21.11
 3.038  -05   12.      6.86   +00            21.11
 3.068  -05   12.      6.02   +00            21.11
 3.097  -05   12.      6.37   +00            21.11
 3.133  -05   12.      6.08   +00            21.11
 3.158  -05   12.      6.27   +00            21.11
 3.189  -05   12.      6.40   +00            21.11
 3.220  -05   12.      6.63   +00 1.20   +00 21.11
 3.252  -05   12.      6.50   +00            21.11
 3.284  -05   12.      6.33   +00 1.00   +00 21.11
 3.317  -05   12.      6.31   +00            21.11
 3.350  -05   12.      6.08   +00            21.11
 3.384  -05   12.      6.38   +00 1.10   +00 21.11
 3.418  -05   12.      6.18   +00            21.11
 3.453  -05   12.      5.67   +00            21.11
 3.488  -05   12.      6.01   +00            21.11
 3.524  -05   12.      6.06   +00            21.11
 3.561  -05   12.      6.29   +00            21.11
 3.598  -05   12.      6.38   +00            21.11
 3.635  -05   12.      6.21   +00            21.11
 3.673  -05   12.      6.70   +00            21.11
 3.712  -05   12.      6.22   +00            21.11
 3.752  -05   12.      6.36   +00            21.11
 3.792  -05   12.      6.13   +00            21.11
 3.832  -05   12.      6.53   +00            21.11
 3.874  -05   12.      6.83   +00            21.11
 3.916  -05   12.      6.38   +00            21.11
 3.967  -05   12.      6.48   +00            21.11
 4.002  -05   12.      6.70   +00            21.11
 4.046  -05   12.      6.50   +00            21.11
 4.091  -05   12.      6.56   +00            21.11
 4.136  -05   12.      7.07   +00            21.11
 4.183  -05   12.      6.52   +00            21.11
 4.230  -05   12.      6.04   +00            21.11
 4.279  -05   12.      6.52   +00            21.11
 4.327  -05   12.      7.68   +00            21.11
 4.376  -05   12.      6.28   +00            21.11
 4.427  -05   12.      6.71   +00 1.00   +00 21.11
 4.468  -05   12.      7.24   +00            21.11
 4.500  -05   12.      6.47   +00            21.11
 4.530  -05   12.      6.45   +00 8.0    -01 21.11
 4.551  -05   12.      6.75   +00            21.11
 4.562  -05   12.      6.76   +00            21.11
 4.573  -05   12.      7.47   +00            21.11
 4.583  -05   12.      6.58   +00            21.11
 4.594  -05   12.      7.94   +00 5.0    -01 21.11
 4.605  -05   12.      1.025  +01            21.11
 4.616  -05   12.      1.132  +01 6.0    -01 21.11
 4.627  -05   12.      1.252  +01 7.0    -01 21.11
 4.638  -05   12.      1.083  +01 6.0    -01 21.11
 4.649  -05   12.      9.24   +00            21.11
 4.659  -05   12.      7.39   +00            21.11
 4.671  -05   12.      6.90   +00 5.0    -01 21.11
 4.693  -05   12.      6.88   +00            21.11
 4.726  -05   12.      6.29   +00            21.11
 4.760  -05   12.      6.35   +00            21.11
 4.794  -05   12.      5.91   +00            21.11
 4.829  -05   12.      6.37   +00            21.11
 4.864  -05   12.      6.96   +00            21.11
 4.899  -05   12.      6.29   +00            21.11
 4.935  -05   12.      6.09   +00            21.11
 4.971  -05   12.      6.58   +00            21.11
 5.008  -05   12.      6.90   +00            21.11
 5.045  -05   12.      6.70   +00            21.11
 5.082  -05   12.      6.90   +00            21.11
 5.120  -05   12.      6.56   +00 7.0    -01 21.11
 5.158  -05   12.      6.82   +00 8.0    -01 21.11
 5.197  -05   12.      7.74   +00            21.11
 5.234  -05   12.      6.41   +00            21.11
 5.273  -05   12.      5.99   +00            21.11
 5.313  -05   12.      6.17   +00            21.11
 5.353  -05   12.      7.24   +00 7.0    -01 21.11
 5.394  -05   12.      6.48   +00            21.11
 5.436  -05   12.      6.65   +00            21.11
 5.463  -05   12.      7.23   +00            21.11
 5.477  -05   12.      5.18   +00            21.11
 5.491  -05   12.      6.61   +00            21.11
 5.506  -05   12.      6.89   +00            21.11
 5.520  -05   12.      5.60   +00            21.11
 5.534  -05   12.      6.97   +00            21.11
 5.548  -05   12.      6.33   +00            21.11
 5.562  -05   12.      7.88   +00            21.11
 5.577  -05   12.      6.46   +00            21.11
 5.591  -05   12.      6.13   +00            21.11
 5.606  -05   12.      6.44   +00            21.11
 5.620  -05   12.      6.53   +00            21.11
 5.635  -05   12.      6.46   +00            21.11
 5.650  -05   12.      6.91   +00            21.11
 5.664  -05   12.      7.81   +00            21.11
 5.679  -05   12.      6.82   +00            21.11
 5.694  -05   12.      7.45   +00 4.0    -01 21.11
 5.701  -05   25.      1.305  +01 1.20   +00  4.382
 5.709  -05   12.      8.28   +00 5.0    -01 21.11
 5.711  -05   25.      1.735  +01             4.382
 5.721  -05   25.      1.856  +01             4.382
 5.724  -05   12.      1.028  +01 6.0    -01 21.11
 5.731  -05   25.      2.186  +01             4.382
 5.742  -05   25.      2.140  +01             4.382
 5.752  -05   25.      1.853  +01 1.30   +00  4.382
 5.815  -05   12.      9.80   +00            21.11
 5.830  -05   12.      8.68   +00            21.11
 5.845  -05   12.      7.27   +00            21.11
 5.861  -05   12.      7.15   +00            21.11
 5.876  -05   12.      6.96   +00            21.11
 5.892  -05   12.      6.32   +00            21.11
 5.908  -05   12.      7.31   +00            21.11
 5.923  -05   12.      6.77   +00            21.11
 5.939  -05   12.      6.58   +00            21.11
 5.955  -05   12.      7.05   +00            21.11
 5.987  -05   12.      6.50   +00            21.11
 6.035  -05   12.      6.75   +00            21.11
 6.084  -05   12.      6.50   +00            21.11
 6.134  -05   12.      6.65   +00            21.11
 6.184  -05   12.      6.41   +00            21.11
 6.235  -05   12.      6.49   +00            21.11
 6.286  -05   12.      6.27   +00            21.11
 6.338  -05   12.      6.48   +00            21.11
 6.391  -05   12.      6.72   +00            21.11
 6.444  -05   12.      6.07   +00            21.11
 6.498  -05   12.      6.25   +00            21.11
 6.553  -05   12.      6.46   +00            21.11
 6.608  -05   12.      6.56   +00            21.11
 6.664  -05   12.      6.32   +00            21.11
 6.721  -05   12.      6.61   +00            21.11
 6.779  -05   12.      6.29   +00            21.11
 6.837  -05   12.      6.65   +00            21.11
 6.896  -05   12.      6.55   +00            21.11
 6.957  -05   12.      6.95   +00            21.11
 7.016  -05   12.      6.61   +00            21.11
 7.078  -05   12.      6.35   +00            21.11
 7.140  -05   12.      6.53   +00            21.11
 7.203  -05   12.      6.67   +00            21.11
 7.267  -05   12.      6.24   +00            21.11
 7.331  -05   12.      6.41   +00            21.11
 7.400  -05   12.      6.41   +00            21.11
 7.463  -05   12.      6.50   +00            21.11
 7.531  -05   12.      6.55   +00            21.11
 7.600  -05   12.      7.02   +00            21.11
 7.668  -05   12.      7.07   +00            21.11
 7.715  -05   12.      7.45   +00            21.11
 7.733  -05   12.      7.47   +00            21.11
 7.762  -05   12.      8.02   +00            21.11
 7.785  -05   12.      7.89   +00            21.11
 7.809  -05   12.      7.11   +00            21.11
 7.833  -05   12.      7.72   +00 4.0    -01 21.11
 7.857  -05   12.      9.48   +00            21.11
 7.881  -05   12.      9.73   +00            21.11
 7.906  -05   12.      1.144  +01 5.0    -01 21.11
 7.930  -05   12.      1.324  +01 6.0    -01 21.11
 7.954  -05   12.      1.798  +01 9.0    -01 21.11
 8.035  -05   13.      1.924  +02 8.7    +00  1.212
 8.047  -05   13.      2.585  +02 1.06   +01  1.212
 8.060  -05   13.      2.741  +02 1.14   +01  1.212
 8.072  -05   13.      2.814  +02 1.22   +01  1.212
 8.085  -05   13.      2.285  +02 1.01   +01  1.212
 8.097  -05   13.      1.573  +02 7.7    +00  1.212
 8.110  -05   13.      1.173  +02 7.1    +00  1.212
 8.123  -05   13.      8.035  +01 6.50   +00  1.212
 8.180  -05   12.      1.680  +01 8.0    -01 21.11
 8.206  -05   12.      1.243  +01 6.0    -01 21.11
 8.231  -05   12.      1.026  +01 7.0    -01 21.11
 8.257  -05   12.      1.014  +01            21.11
 8.283  -05   12.      9.84   +00 5.0    -01 21.11
 8.309  -05   12.      8.69   +00            21.11
 8.336  -05   12.      8.21   +00            21.11
 8.362  -05   12.      8.53   +00            21.11
 8.388  -05   12.      7.89   +00            21.11
 8.415  -05   12.      8.46   +00            21.11
 8.442  -05   12.      8.29   +00            21.11
 8.469  -05   12.      8.62   +00 4.0    -01 21.11
 8.496  -05   12.      9.71   +00 5.0    -01 21.11
 8.523  -05   12.      1.401  +01 6.0    -01 21.11
 8.571  -05   13.      1.043  +02 6.7    +00  1.212
 8.585  -05   13.      1.282  +02 7.3    +00  1.212
 8.598  -05   13.      1.504  +02 7.7    +00  1.212
 8.612  -05   13.      1.322  +02 7.3    +00  1.212
 8.626  -05   13.      1.067  +02 6.7    +00  1.212
 8.688  -05   12.      1.448  +01 7.0    -01 21.11
 8.717  -05   12.      1.043  +01 5.0    -01 21.11
 8.745  -05   12.      8.72   +00            21.11
 8.773  -05   12.      8.65   +00            21.11
 8.802  -05   12.      8.39   +00            21.11
 8.830  -05   12.      7.29   +00            21.11
 8.859  -05   12.      8.00   +00            21.11
 8.888  -05   12.      8.21   +00            21.11
 8.917  -05   12.      7.73   +00            21.11
 8.946  -05   12.      8.01   +00            21.11
 8.975  -05   12.      7.88   +00            21.11
 9.005  -05   12.      7.82   +00            21.11
 9.035  -05   12.      6.93   +00            21.11
 9.064  -05   12.      7.85   +00            21.11
 9.094  -05   12.      6.97   +00 4.0    -01 21.11
 9.124  -05   12.      6.67   +00 5.0    -01 21.11
 9.155  -05   12.      7.17   +00            21.11
 9.185  -05   12.      6.91   +00            21.11
 9.215  -05   12.      6.88   +00 4.0    -01 21.11
 9.246  -05   12.      6.21   +00 5.0    -01 21.11
 9.277  -05   12.      6.34   +00 4.0    -01 21.11
 9.340  -05   12.      6.75   +00            21.11
 9.433  -05   12.      6.68   +00            21.11
 9.529  -05   12.      6.75   +00            21.11
 9.626  -05   12.      6.76   +00            21.11
 9.725  -05   12.      6.68   +00            21.11
 9.825  -05   12.      6.85   +00            21.11
 9.893  -05   12.      6.64   +00            21.11
 9.927  -05   12.      7.43   +00            21.11
 9.961  -05   12.      7.40   +00            21.11
 1.000  -04   12.      8.66   +00 6.0    -01 21.11
 1.003  -04   12.      8.02   +00 4.0    -01 21.11
 1.007  -04   12.      1.097  +01 5.0    -01 21.11
 1.010  -04   12.      1.497  +01 6.0    -01 21.11
 1.016  -04   13.      1.172  +02 6.7    +00  1.212
 1.018  -04   13.      1.355  +02 7.1    +00  1.212
 1.020  -04   13.      1.465  +02 7.3    +00  1.212
 1.022  -04   13.      1.206  +02 7.0    +00  1.212
 1.028  -04   12.      2.054  +01 1.00   +00 21.11
 1.036  -04   13.      8.150  +01 6.20   +00  1.212
 1.038  -04   13.      1.060  +02 6.5    +00  1.212
 1.040  -04   13.      1.465  +02 7.3    +00  1.212
 1.042  -04   13.      1.620  +02 7.8    +00  1.212
 1.043  -04   13.      1.354  +02 7.1    +00  1.212
 1.045  -04   13.      1.053  +02 6.7    +00  1.212
 1.054  -04   12.      1.522  +01 7.0    -01 21.11
 1.057  -04   12.      1.171  +01 5.0    -01 21.11
 1.061  -04   12.      1.112  +01            21.11
 1.065  -04   12.      8.73   +00            21.11
 1.069  -04   12.      8.48   +00            21.11
 1.072  -04   12.      8.51   +00            21.11
 1.076  -04   12.      8.05   +00            21.11
 1.080  -04   12.      8.23   +00            21.11
 1.084  -04   12.      7.74   +00            21.11
 1.088  -04   12.      7.90   +00            21.11
 1.092  -04   12.      7.91   +00            21.11
 1.096  -04   12.      8.12   +00            21.11
 1.100  -04   12.      7.31   +00            21.11
 1.104  -04   12.      7.31   +00            21.11
 1.108  -04   12.      8.12   +00            21.11
 1.112  -04   12.      6.90   +00 4.0    -01 21.11
 1.124  -04   12.      7.27   +00            21.11
 1.145  -04   12.      6.87   +00            21.11
 1.167  -04   12.      6.67   +00            21.11
 1.189  -04   12.      6.81   +00            21.11
 1.211  -04   12.      6.61   +00 8.0    -01 21.11
 1.235  -04   12.      6.71   +00            21.11
 1.259  -04   12.      6.76   +00            21.11
 1.284  -04   12.      6.58   +00            21.11
 1.309  -04   12.      6.71   +00            21.11
 1.335  -04   12.      6.72   +00 9.0    -01 21.11
 1.363  -04   12.      7.51   +00            21.11
 1.390  -04   12.      6.75   +00            21.11
 1.419  -04   12.      6.85   +00 8.0    -01 21.11
 1.449  -04   12.      6.62   +00            21.11
 1.480  -04   12.      6.43   +00            21.11
 1.511  -04   12.      6.65   +00            21.11
 1.544  -04   12.      6.78   +00            21.11
 1.577  -04   12.      6.63   +00            21.11
 1.612  -04   12.      6.73   +00            21.11
 1.648  -04   12.      6.46   +00            21.11
 1.686  -04   12.      6.79   +00            21.11
 1.724  -04   12.      6.45   +00            21.11
 1.764  -04   12.      6.28   +00            21.11
 1.805  -04   12.      6.55   +00            21.11
 1.848  -04   12.      7.03   +00            21.11
 1.892  -04   12.      6.15   +00            21.11
 1.938  -04   12.      6.25   +00            21.11
 1.985  -04   12.      6.54   +00 7.0    -01 21.11
 2.002  -04   13.      5.98   +00             4.382
 2.016  -04   13.      7.61   +00             4.382
 2.026  -04   13.      6.85   +00             4.382
 2.031  -04   13.      7.65   +00             4.382
 2.046  -04   13.      6.05   +00             4.382
 2.077  -04   13.      6.02   +00             4.382
 2.093  -04   13.      7.36   +00             4.382
 2.109  -04   13.      6.31   +00             4.382
 2.125  -04   13.      6.07   +00             4.382
 2.141  -04   13.      6.75   +00             4.382
 2.157  -04   13.      6.74   +00             4.382
 2.174  -04   13.      7.69   +00             4.382
 2.190  -04   13.      6.96   +00             4.382
 2.205  -04   12.      6.60   +00 3.0    -01 21.11
 2.207  -04   13.      6.50   +00             4.382
 2.216  -04   12.      7.11   +00 5.0    -01 21.11
 2.227  -04   12.      9.88   +00            21.11
 2.239  -04   12.      1.054  +01 6.0    -01 21.11
 2.250  -04   12.      6.65   +00 5.0    -01 21.11
 2.251  -04   12.      6.56   +00            21.11
 2.263  -04   12.      6.38   +00            21.11
 2.275  -04   12.      6.14   +00 3.0    -01 21.11
 2.277  -04   13.      6.45   +00             4.382
 2.295  -04   13.      6.55   +00             4.382
 2.313  -04   13.      7.01   +00             4.382
 2.331  -04   13.      6.72   +00             4.382
 2.350  -04   13.      6.45   +00             4.382
 2.369  -04   13.      6.40   +00             4.382
 2.375  -04   12.      6.42   +00 4.0    -01 21.11
 2.385  -04   12.      6.05   +00 5.0    -01 21.11
 2.388  -04   13.      5.89   +00 1.90   +00  4.382
 2.397  -04   12.      6.62   +00            21.11
 2.410  -04   12.      9.06   +00 6.0    -01 21.11
 2.424  -04   12.      7.44   +00            21.11
 2.437  -04   12.      6.26   +00 4.0    -01 21.11
 2.446  -04   13.      5.78   +00             4.382
 2.466  -04   13.      5.92   +00             4.382
 2.486  -04   13.      6.11   +00             4.382
 2.507  -04   13.      5.31   +00             4.382
 2.527  -04   13.      7.29   +00             4.382
 2.548  -04   13.      6.75   +00             4.382
 2.570  -04   13.      6.94   +00             4.382
 2.591  -04   13.      5.71   +00             4.382
 2.613  -04   13.      7.14   +00             4.382
 2.635  -04   13.      6.52   +00             4.382
 2.657  -04   13.      5.75   +00             4.382
 2.680  -04   13.      5.82   +00             4.382
 2.703  -04   13.      6.21   +00             4.382
 2.726  -04   13.      6.11   +00             4.382
 2.750  -04   13.      6.50   +00 1.80   +00  4.382
 2.765  -04   13.      7.37   +00 1.10   +00  4.382
 2.775  -04   13.      2.886  +01             1.212
 2.783  -04   13.      2.136  +01             1.212
 2.791  -04   13.      3.412  +01             1.212
 2.799  -04   13.      2.804  +01 4.70   +00  1.212
 2.807  -04   13.      5.123  +01             1.212
 2.815  -04   13.      6.662  +01             1.212
 2.824  -04   13.      6.008  +01 4.90   +00  1.212
 2.832  -04   13.      2.750  +01             1.212
 2.840  -04   13.      2.955  +01 4.80   +00  1.212
 2.848  -04   13.      2.488  +01             1.212
 2.857  -04   13.      3.529  +01             1.212
 2.865  -04   13.      2.259  +01 4.70   +00  1.212
 2.872  -04   13.      7.22   +00             4.382
 2.880  -04   13.      5.97   +00             4.382
 2.889  -04   13.      6.65   +00 1.10   +00  4.382
 2.897  -04   13.      6.82   +00             4.382
 2.906  -04   13.      8.70   +00             4.382
 2.914  -04   13.      7.72   +00             4.382
 2.923  -04   13.      7.43   +00 1.00   +00  4.382
 2.932  -04   13.      6.27   +00 1.10   +00  4.382
 2.945  -04   13.      5.09   +00             4.382
 2.967  -04   13.      5.82   +00             4.382
 2.993  -04   13.      6.17   +00             4.382
 3.020  -04   13.      6.29   +00 1.80   +00  4.382
 3.039  -04   12.      6.13   +00 1.20   +00 21.11
 3.057  -04   12.      7.19   +00            21.11
 3.076  -04   12.      5.48   +00            21.11
 3.114  -04   12.      7.31   +00 1.30   +00 21.11
 3.126  -04   12.      7.48   +00            21.11
 3.133  -04   12.      9.87   +00            21.11
 3.139  -04   12.      1.307  +01 8.0    -01 21.11
 3.145  -04   12.      1.524  +01 1.00   +00 21.11
 3.152  -04   12.      1.378  +01 1.10   +00 21.11
 3.158  -04   12.      1.093  +01 9.0    -01 21.11
 3.165  -04   12.      8.77   +00            21.11
 3.171  -04   12.      7.96   +00            21.11
 3.178  -04   12.      5.84   +00            21.11
 3.184  -04   12.      5.32   +00            21.11
 3.191  -04   12.      4.43   +00            21.11
 3.198  -04   12.      5.69   +00            21.11
 3.204  -04   12.      5.17   +00            21.11
 3.211  -04   12.      5.60   +00            21.11
 3.217  -04   12.      6.76   +00            21.11
 3.224  -04   12.      6.44   +00            21.11
 3.231  -04   12.      6.61   +00            21.11
 3.237  -04   12.      7.03   +00            21.11
 3.244  -04   12.      7.19   +00            21.11
 3.251  -04   12.      4.95   +00 8.0    -01 21.11
 3.265  -04   12.      5.58   +00            21.11
 3.285  -04   12.      6.18   +00 1.50   +00 21.11
 3.306  -04   12.      5.18   +00 1.60   +00 21.11
 3.327  -04   12.      4.34   +00            21.11
 3.348  -04   12.      5.92   +00            21.11
 3.369  -04   12.      5.60   +00            21.11
 3.390  -04   12.      5.66   +00 1.70   +00 21.11
 3.412  -04   12.      5.93   +00            21.11
 3.434  -04   12.      5.45   +00 1.60   +00 21.11
 3.456  -04   12.      6.01   +00            21.11
 3.478  -04   12.      5.83   +00            21.11
 3.501  -04   12.      5.63   +00 1.40   +00 21.11
 3.524  -04   12.      5.75   +00            21.11
 3.547  -04   12.      6.09   +00            21.11
 3.570  -04   12.      6.46   +00 1.30   +00 21.11
 3.593  -04   12.      6.47   +00            21.11
 3.617  -04   12.      6.31   +00            21.11
 3.641  -04   12.      6.69   +00 1.20   +00 21.11
 3.665  -04   12.      7.73   +00            21.11
 3.673  -04   12.      7.63   +00            21.11
 3.681  -04   12.      8.08   +00            21.11
 3.690  -04   12.      6.55   +00            21.11
 3.698  -04   12.      6.26   +00            21.11
 3.706  -04   12.      7.64   +00            21.11
 3.714  -04   12.      6.50   +00            21.11
 3.722  -04   12.      7.93   +00            21.11
 3.731  -04   12.      8.03   +00 7.0    -01 21.11
 3.739  -04   12.      1.085  +01            21.11
 3.747  -04   12.      1.146  +01 8.0    -01 21.11
 3.755  -04   12.      1.365  +01            21.11
 3.764  -04   12.      1.224  +01 9.0    -01 21.11
 3.773  -04   12.      1.185  +01            21.11
 3.781  -04   12.      1.128  +01 8.0    -01 21.11
 3.790  -04   12.      9.91   +00            21.11
 3.798  -04   12.      8.74   +00 7.0    -01 21.11
 3.824  -04   12.      6.83   +00            21.11
 3.850  -04   12.      6.51   +00 1.20   +00 21.11
 3.876  -04   12.      6.36   +00            21.11
 3.903  -04   12.      6.35   +00            21.11
 3.929  -04   12.      6.24   +00            21.11
 3.957  -04   12.      5.82   +00            21.11
 3.984  -04   12.      7.20   +00 1.10   +00 21.11
 4.002  -04   12.      9.49   +00            21.11
 4.011  -04   13.      1.107  +01 1.00   +00  4.382
 4.012  -04   12.      9.19   +00            21.11
 4.021  -04   12.      1.076  +01 7.0    -01 21.11
 4.028  -04   13.      4.747  +01 4.40   +00  1.212
 4.047  -04   13.      5.490  +01 4.60   +00  1.212
 4.056  -04   13.      5.447  +01 4.50   +00  1.212
 4.067  -04   13.      1.841  +01             4.382
 4.081  -04   13.      1.224  +01 1.00   +00  4.382
 4.087  -04   12.      9.53   +00            21.11
 4.096  -04   12.      8.21   +00            21.11
 4.106  -04   12.      9.13   +00            21.11
 4.115  -04   12.      7.98   +00            21.11
 4.125  -04   12.      8.34   +00            21.11
 4.135  -04   12.      9.87   +00 7.0    -01 21.11
 4.139  -04   13.      1.321  +01             4.382
 4.154  -04   13.      2.110  +01             4.382
 4.157  -04   13.      4.935  +01 4.50   +00  1.212
 4.168  -04   13.      3.283  +01 1.00   +00  4.382
 4.171  -04   13.      6.809  +01 4.60   +00  1.212
 4.186  -04   13.      7.661  +01 4.70   +00  1.212
 4.201  -04   13.      5.803  +01 4.60   +00  1.212
 4.213  -04   13.      1.864  +01 1.00   +00  4.382
 4.216  -04   13.      3.477  +01 4.40   +00  1.212
 4.228  -04   13.      1.184  +01             4.382
 4.243  -04   13.      1.062  +01 9.0    -01  4.382
 4.253  -04   12.      9.63   +00            21.11
 4.264  -04   12.      8.86   +00            21.11
 4.274  -04   12.      8.62   +00 7.0    -01 21.11
 4.284  -04   12.      8.20   +00            21.11
 4.294  -04   12.      7.51   +00            21.11
 4.305  -04   12.      7.84   +00 6.0    -01 21.11
 4.315  -04   12.      7.84   +00 7.0    -01 21.11
 4.325  -04   12.      8.69   +00 6.0    -01 21.11
 4.336  -04   12.      8.93   +00            21.11
 4.346  -04   12.      9.59   +00 7.0    -01 21.11
 4.367  -04   12.      7.28   +00            21.11
 4.399  -04   12.      7.27   +00            21.11
 4.431  -04   12.      7.29   +00 1.00   +00 21.11
 4.452  -04   12.      7.59   +00            21.11
 4.463  -04   12.      8.58   +00            21.11
 4.474  -04   12.      7.23   +00            21.11
 4.485  -04   12.      7.69   +00 6.0    -01 21.11
 4.507  -04   12.      7.23   +00            21.11
 4.540  -04   12.      6.73   +00            21.11
 4.574  -04   12.      7.06   +00            21.11
 4.608  -04   12.      7.56   +00 1.00   +00 21.11
 4.631  -04   12.      7.83   +00 6.0    -01 21.11
 4.642  -04   12.      1.059  +01            21.11
 4.654  -04   12.      9.80   +00            21.11
 4.665  -04   12.      9.13   +00 7.0    -01 21.11
 4.677  -04   12.      8.69   +00 6.0    -01 21.11
 4.701  -04   12.      7.60   +00            21.11
 4.736  -04   12.      7.25   +00            21.11
 4.772  -04   12.      6.54   +00            21.11
 4.808  -04   12.      7.08   +00            21.11
 4.845  -04   12.      7.91   +00            21.11
 4.882  -04   12.      7.02   +00            21.11
 4.919  -04   12.      7.53   +00            21.11
 4.957  -04   12.      7.94   +00            21.11
 4.996  -04   12.      7.88   +00            21.11
 5.035  -04   12.      7.65   +00 1.00   +00 21.11
 5.061  -04   12.      8.32   +00            21.11
 5.074  -04   12.      9.72   +00            21.11
 5.087  -04   12.      1.242  +01            21.11
 5.100  -04   12.      1.292  +01            21.11
 5.114  -04   12.      1.150  +01 7.0    -01 21.11
 5.127  -04   12.      1.015  +01            21.11
 5.140  -04   12.      9.12   +00            21.11
 5.154  -04   12.      8.98   +00            21.11
 5.167  -04   12.      7.64   +00 6.0    -01 21.11
 5.195  -04   12.      7.41   +00            21.11
 5.236  -04   12.      8.10   +00            21.11
 5.277  -04   12.      7.41   +00            21.11
 5.320  -04   12.      6.58   +00            21.11
 5.362  -04   12.      7.66   +00            21.11
 5.405  -04   12.      7.40   +00            21.11
 5.449  -04   12.      6.97   +00            21.11
 5.493  -04   12.      6.84   +00            21.11
 5.538  -04   12.      6.81   +00            21.11
 5.584  -04   12.      6.89   +00 1.00   +00 21.11
 5.630  -04   12.      7.15   +00            21.11
 5.676  -04   12.      8.15   +00 1.10   +00 21.11
 5.707  -04   12.      9.36   +00 6.0    -01 21.11
 5.723  -04   12.      9.43   +00 8.0    -01 21.11
 5.739  -04   12.      1.137  +01 9.0    -01 21.11
 5.755  -04   12.      1.430  +01 1.10   +00 21.11
 5.771  -04   12.      1.313  +01            21.11
 5.787  -04   12.      1.083  +01 1.00   +00 21.11
 5.803  -04   12.      1.084  +01            21.11
 5.819  -04   12.      8.06   +00 8.0    -01 21.11
 5.835  -04   12.      1.240  +01 7.0    -01 21.11
 5.851  -04   12.      1.028  +01            21.11
 5.868  -04   12.      1.139  +01            21.11
 5.884  -04   12.      1.178  +01            21.11
 5.901  -04   12.      1.168  +01            21.11
 5.917  -04   12.      1.082  +01 7.0    -01 21.11
 5.934  -04   12.      9.37   +00            21.11
 5.951  -04   12.      6.64   +00 6.0    -01 21.11
 5.984  -04   12.      7.09   +00            21.11
 6.035  -04   12.      7.33   +00            21.11
 6.087  -04   12.      7.52   +00            21.11
 6.139  -04   12.      6.70   +00            21.11
 6.192  -04   12.      7.51   +00            21.11
 6.246  -04   12.      7.53   +00            21.11
 6.300  -04   12.      7.14   +00            21.11
 6.355  -04   12.      6.98   +00            21.11
 6.411  -04   12.      7.40   +00 1.00   +00 21.11
 6.448  -04   12.      8.34   +00            21.11
 6.467  -04   12.      9.25   +00            21.11
 6.486  -04   12.      1.022  +01            21.11
 6.505  -04   12.      1.071  +01            21.11
 6.525  -04   12.      9.62   +00            21.11
 6.544  -04   12.      8.06   +00 6.0    -01 21.11
 6.583  -04   12.      7.05   +00            21.11
 6.641  -04   12.      8.08   +00 1.00   +00 21.11
 6.721  -04   12.      7.46   +00 1.30   +00 21.11
 6.823  -04   12.      7.02   +00            21.11
 6.926  -04   12.      7.56   +00            21.11
 7.033  -04   12.      6.94   +00            21.11
 7.141  -04   12.      7.30   +00            21.11
 7.253  -04   12.      7.39   +00            21.11
 7.367  -04   12.      7.36   +00            21.11
 7.483  -04   12.      6.99   +00            21.11
 7.603  -04   12.      6.88   +00            21.11
 7.725  -04   12.      7.41   +00            21.11
 7.850  -04   12.      6.77   +00            21.11
 7.979  -04   12.      7.01   +00            21.11
 8.110  -04   12.      7.12   +00            21.11
 8.259  -04   12.      7.42   +00            21.11
 8.411  -04   12.      6.89   +00 1.20   +00 21.11
 8.525  -04   12.      6.99   +00            21.11
 8.611  -04   12.      7.20   +00 9.0    -01 21.11
 8.670  -04   12.      7.67   +00            21.11
 8.699  -04   12.      8.74   +00 5.0    -01 21.11
 8.729  -04   12.      9.89   +00            21.11
 8.759  -04   12.      1.136  +01            21.11
 8.789  -04   12.      1.160  +01 6.0    -01 21.11
 8.834  -04   12.      1.085  +01            21.11
 8.895  -04   12.      9.12   +00            21.11
 9.003  -04   12.      7.47   +00            21.11
 9.097  -04   12.      7.19   +00            21.11
 9.193  -04   12.      6.89   +00            21.11
 9.290  -04   12.      7.62   +00 8.0    -01 21.11
 9.356  -04   12.      7.98   +00            21.11
 9.389  -04   12.      9.19   +00 5.0    -01 21.11
 9.439  -04   12.      8.57   +00            21.11
 9.523  -04   12.      7.78   +00            21.11
 9.625  -04   12.      7.59   +00            21.11
 9.729  -04   12.      7.60   +00            21.11
 9.835  -04   12.      7.47   +00            21.11
 9.943  -04   12.      6.68   +00            21.11
 1.005  -03   12.      7.09   +00            21.11
 1.016  -03   12.      7.30   +00 8.0    -01 21.11
 1.023  -03   12.      7.84   +00            21.11
 1.027  -03   12.      9.16   +00            21.11
 1.031  -03   12.      8.06   +00            21.11
 1.035  -03   12.      7.64   +00 5.0    -01 21.11
 1.046  -03   12.      7.77   +00            21.11
 1.062  -03   12.      6.92   +00            21.11
 1.074  -03   12.      7.05   +00 8.0    -01 21.11
 1.087  -03   12.      6.67   +00 9.0    -01 21.11
 1.099  -03   12.      7.21   +00            21.11
 1.112  -03   12.      6.74   +00            21.11
 1.125  -03   12.      7.01   +00            21.11
 1.138  -03   12.      7.54   +00            21.11
 1.151  -03   12.      7.99   +00            21.11
 1.165  -03   12.      7.31   +00 8.0    -01 21.11
 1.174  -03   12.      8.15   +00            21.11
 1.179  -03   12.      7.76   +00            21.11
 1.184  -03   12.      8.37   +00            21.11
 1.188  -03   12.      9.21   +00            21.11
 1.193  -03   12.      9.31   +00            21.11
 1.198  -03   12.      1.068  +01            21.11
 1.203  -03   12.      1.000  +01            21.11
 1.207  -03   12.      9.08   +00            21.11
 1.212  -03   12.      8.45   +00            21.11
 1.217  -03   12.      8.29   +00            21.11
 1.222  -03   12.      9.03   +00            21.11
 1.232  -03   12.      8.09   +00            21.11
 1.237  -03   12.      9.24   +00            21.11
 1.237  -03   12.      6.34   +00            21.11
 1.242  -03   12.      7.49   +00            21.11
 1.247  -03   12.      7.48   +00 5.0    -01 21.11
ENDDATA            725
ENDSUBENT          732
ENDENTRY             2
