ENTRY            30309   20090115   20090508   20090506       3134
SUBENT        30309001   20090115   20090508   20090506       3134
BIB                 14         31
INSTITUTE  (3SAFPEL)
REFERENCE  (C,74PETTEN,,319,197409)
AUTHOR     (C.Hofmeyr)
TITLE      Thermal neutron capture in Ni-58.
INC-SOURCE (REAC) SAFARI-1 reactor, 20 MW, at Pelindaba.
INC-SPECT  Well filtered thermal neutron beam, ~ 10**7 n/cm2/sec
SAMPLE     Metallic nickel sample, enriched to 99.9% in Ni-58
METHOD     Neutron capture gamma ray study with
           the Ge(Li) detector.
DETECTOR   (GELI,NAICR) 36 cm3 Ge(Li) detector with a nominal
           resolution of 2.0 keV at 1.3 MeV, also this detector
           was used with 2 well shielded 4 inch * 4 inch NaI in a
           pair spectrometer arrangement.
           .Standard radioactive sources and (ng) in chlorine were
           used for energy calibration.
MONITOR    (24-CR-52(N,G)24-CR-53,,SPC)
            G.Loper et al.,Nucl.Instr,105(1972)453
           (7-N-14(N,G)7-N-15,,SPC)
            G.E.Thomas et al.,Nucl.Instr,56(1967)325
           They were used for the relative detector efficiency
           calibration.
PART-DET   (G) Gammas.
STATUS     (TABLE) Data from Table 3 of 2nd Int.Symp. on
           Neutron Capture Gamma ray Spectroscopy and Related
           Topics, Petten, 2-6 Sept. 1974, p.319.
HISTORY    (19750918C) KO
           (19760513U) KO.-Correct.for 1 col.-Shift in .002 Subent
            00033,00161 and 00162 data-lines.-
           (20090115A) BIB section updated
CORRECTION Self absorption of gamma-rays in the sample was not
           corrected.
ENDBIB              31
NOCOMMON             0          0
ENDSUBENT           34
SUBENT        30309002   20090115   20090508   20090506       3134
BIB                  3         13
REACTION   (28-NI-58(N,G)28-NI-59,,SPC,,MXW)
FLAG       (1.) Level assignment is uncertain.
           (2.) or level  877 keV to  339 keV.
           (3.) or level 3730 keV to 2894 keV.
           (4.) or level 5974 keV to 4794 keV.
           (5.) or level 3025 keV to 1301 keV.
           (6.) or level 3687 keV to 1735 keV.
           (7.) or level 3730 keV to 1301 keV.
           (8.) or level 3564 keV to  877 keV.
           (9.) or level 4974 keV to 1301 keV.
ERR-ANALYS Errors of intensities of strong line (larger than
           1.5 pc/inc) are not better than 15%.
                             No further information.
ENDBIB              13
COMMON               1          3
EN-DUMMY
EV
 2.5300E-02
ENDCOMMON            3
DATA                 6        139
E          DATA       DATA-MAX   E-LVL-INI  E-LVL-FIN  FLAG
KEV        PC/INC     PC/INC     KEV        KEV        NO-DIM
 1.4960E+02            1.0000E-01 1.3380E+03 1.1880E+03 1.0000E+00
 1.5530E+02            1.0000E-01 3.1820E+03 3.0250E+03 1.0000E+00
 2.1700E+02            1.0000E-01
 2.8960E+02            1.0000E-01 3.1820E+03 2.9840E+03 1.0000E+00
 3.1100E+02            1.0000E-01 1.1880E+03 8.7700E+02
 3.3950E+02 7.1000E+00            3.3900E+02 0.0000E+00
 3.5260E+02 1.0000E-01
 3.7300E+02            1.0000E-01
 4.2370E+02 3.0000E-01            1.3010E+03 8.7700E+02
 4.6520E+02 2.8900E+01 4.6500E+02 0.0000E+00
 4.8530E+02            1.0000E-01
 5.3160E+02            1.0000E-01
 5.3870E+02 1.0000E-01            3.5640E+03 3.0250E+03 2.0000E+00
 5.4610E+02 1.0000E-01            1.7350E+03 1.1880E+03
 5.5870E+02 1.0000E-01
 5.6530E+02            1.0000E-01
 6.7120E+02            1.0000E-01
 7.6730E+02 1.0000E-01            3.1820E+03 2.4150E+03
 8.0380E+02            1.0000E-01
 8.3630E+02 3.0000E-01            1.3010E+03 4.6500E+02 3.0000E+00
 8.4990E+02 1.0000E-01            1.1880E+03 3.3900E+02
 8.6240E+02            1.0000E-01
 8.7770E+02 7.9000E+00            8.7700E+02 0.0000E+00
 9.1600E+02            1.0000E-01
 9.7570E+02            1.0000E-01
 9.8900E+02            1.0000E-01
 9.9920E+02 1.0000E-01            1.3380E+03 3.3900E+02 4.0000E+00
 1.0279E+03 1.0000E-01            4.7150E+03 3.6870E+03
 1.1470E+03            1.0000E-01 3.5640E+03 2.4150E+03
 1.1888E+03 1.7000E+00            1.1880E+03 0.0000E+00
 1.2113E+03            1.0000E-01
 1.2134E+03            1.0000E-01 2.8940E+03 1.6800E+03
 1.2258E+03 3.0000E-01            2.4150E+03 1.1880E+03
 1.2337E+03            1.0000E-01 3.1820E+03 1.9490E+03 1.0000E+00
 1.2695E+03 1.0000E-01            1.7350E+03 4.6500E+02
 1.2765E+03            1.0000E-01
 1.3013E+03 1.9000E+00            1.3010E+03 0.0000E+00
 1.3403E+03 7.0000E-01            1.6800E+03 3.3900E+02
 1.3788E+03 1.0000E-01
 1.3953E+03 1.0000E-01            1.7350E+03 3.3900E+02
 1.4476E+03 4.0000E-01            3.1820E+03 1.7350E+03
 1.5018E+03 5.0000E-01            3.1820E+03 1.6800E+03
 1.5365E+03 6.0000E-01            2.4150E+03 8.7700E+02
 1.6633E+03 1.0000E-01
 1.6801E+03 1.0000E-01            1.6800E+03 0.0000E+00
 1.7035E+03 1.0000E-01            2.8940E+03 1.1880E+03
 1.7257E+03 3.0000E-01            4.1400E+03 2.4150E+03 5.0000E+00
 1.7351E+03 5.0000E-01            1.7350E+03 0.0000E+00
 1.8301E+03 1.0000E-01            3.5640E+03 1.7350E+03
 1.8368E+03 1.0000E-01            3.0250E+03 1.1880E+03
 1.8812E+03 1.0000E-01            3.1820E+03 1.3010E+03
 1.9499E+03 1.7000E+00            2.4150E+03 4.6500E+02 6.0000E+00
 1.9932E+03 5.0000E-01            3.1820E+03 1.1880E+03
 2.0157E+03 4.0000E-01            2.8940E+03 8.7700E+02
 2.0417E+03 2.0000E-01
 2.0757E+03 1.0000E-01            2.4150E+03 3.3900E+02
 2.1055E+03 1.0000E-01
 2.1481E+03 4.0000E-01            3.0250E+03 8.7700E+02
 2.2631E+03 1.0000E-01            3.5640E+03 1.3010E+03
 2.3443E+03 2.0000E-01
 2.3851E+03 2.0000E-01            3.6870E+03 1.3010E+03
 2.4153E+03 3.0000E-01            2.4150E+03 0.0000E+00
 2.4292E+03 2.0000E-01            2.8940E+03 4.6500E+02 7.0000E+00
 2.4867E+03            1.0000E-01
 2.4895E+03            1.0000E-01
 2.4990E+03 4.0000E-01            3.6870E+03 1.1880E+03
 2.5543E+03 1.3000E+00            2.8940E+03 3.3900E+02
 2.6868E+03 3.0000E-01            3.0250E+03 3.3900E+02 8.0000E+00
 2.7582E+03 1.0000E-01            5.7820E+03 3.0250E+03
 2.8425E+03 1.6000E+00            3.1820E+03 3.3900E+02
 2.8567E+03 2.0000E-01
 2.8942E+03 3.0000E-01            2.8940E+03 0.0000E+00
 2.9071E+03 2.0000E-01
 2.9690E+03 3.0000E-01
 3.0143E+03 2.0000E-01
 3.0258E+03 3.0000E-01            3.0250E+03 0.0000E+00
 3.1822E+03 3.0000E-01            3.1820E+03 0.0000E+00
 3.1922E+03 1.0000E-01
 3.2195E+03 6.0000E-01            9.0010E+03 5.7820E+03
 3.2264E+03 1.0000E-01            3.5640E+03 3.3900E+02
 3.2378E+03            1.0000E-01 4.9740E+03 1.7350E+03 1.0000E+00
 3.2510E+03 2.0000E-01
 3.2674E+03 2.0000E-01            3.7300E+03 4.6500E+02
 3.2971E+03 3.0000E-01
 3.3837E+03 3.0000E-01
 3.4681E+03 2.0000E-01
 3.5046E+03 2.0000E-01
 3.5644E+03 2.0000E-01            3.5640E+03 0.0000E+00
 3.6184E+03 2.0000E-01
 3.6742E+03 9.0000E-01            4.1400E+03 4.6500E+02 9.0000E+00
 3.6870E+03 3.0000E-01            3.6870E+03 0.0000E+00
 3.7304E+03 2.0000E-01            3.7300E+03 0.0000E+00
 3.7783E+03 2.0000E-01
 3.8741E+03            1.0000E-01
 3.8890E+03            1.0000E-01
 3.9334E+03 2.0000E-01
 3.9584E+03            1.0000E-01
 4.0041E+03            1.0000E-01
 4.0270E+03 5.0000E-01            9.0010E+03 4.9740E+03
 4.0497E+03 4.0000E-01            9.0010E+03 4.9510E+03
 4.1409E+03 3.0000E-01            4.1400E+03 0.0000E+00
 4.2845E+03 5.0000E-01            9.0010E+03 4.7150E+03
 4.3279E+03 2.0000E-01
 4.3769E+03 2.0000E-01            4.7150E+03 3.3900E+02
 4.4624E+03 2.0000E-01
 4.6357E+03 3.0000E-01            4.9740E+03 3.3900E+02
 4.6460E+03 2.0000E-01
 4.6540E+03 2.0000E-01
 4.7156E+03 3.0000E-01            4.7150E+03 0.0000E+00
 4.7498E+03 2.0000E-01
 4.8593E+03 1.5000E+00            9.0010E+03 4.1400E+03
 4.9516E+03 3.0000E-01            4.9510E+03 0.0000E+00
 4.9744E+03 3.0000E-01            4.9740E+03 0.0000E+00
 5.1078E+03 4.0000E-01
 5.1420E+03 2.0000E-01
 5.1511E+03 2.0000E-01
 5.2750E+03 4.0000E-01            9.0010E+03 3.7300E+03
 5.3133E+03 1.8000E+00            9.0010E+03 3.6870E+03
 5.3815E+03 2.0000E-01
 5.4362E+03 7.0000E-01            9.0010E+03 3.5640E+03
 5.4476E+03 2.0000E-01
 5.4910E+03 2.0000E-01
 5.7829E+03 2.0000E-01            5.7820E+03 0.0000E+00
 5.8181E+03 4.3000E+00            9.0010E+03 3.1820E+03
 5.9265E+03 5.0000E-01
 5.9752E+03 8.0000E-01            9.0010E+03 3.0250E+03
 6.1062E+03 2.4000E+00            9.0010E+03 2.8940E+03
 6.1406E+03 2.0000E-01
 6.5605E+03 2.0000E-01
 6.5856E+03 2.5000E+00            9.0010E+03 2.4150E+03
 6.6040E+03 4.0000E-01
 6.6563E+03 4.0000E-01
 6.6745E+03 4.0000E-01
 6.7088E+03 1.0000E+00
 7.2655E+03 5.0000E-01            9.0010E+03 1.7350E+03
 7.6988E+03 1.2000E+00            9.0010E+03 1.3010E+03
 8.1231E+03 4.5000E+00            9.0010E+03 8.7700E+02
 8.5360E+03 2.5400E+01 9.0010E+03 4.6500E+02
 9.0010E+03 5.2700E+01 9.0010E+03 0.0000E+00
ENDDATA            141
ENDSUBENT          163
ENDENTRY             2
