ENTRY            30353     840530
SUBENT        30353001     840530
BIB                 14         21
INSTITUTE  (3BANRAM)
REFERENCE  (P,INDC(SEC)-42,2,7412)NUMERICAL DATA FROM HUSSAIN,'75
AUTHOR     (M.HUSSAIN,E.MOLLA,N.ISLAM MOLLA)
TITLE      -MEASUREMENT OF NEUTRON TOTAL CROSS-SECTION OF
           DYSPROSIUM.-
EXP-YEAR   (74)
FACILITY   (VDG) VAN DE GRAAFF ACCELERATOR AT ATOMIC ENERGY CENTER
           TYPE KN.
SAMPLE     NATURAL, 63 SQUARE PIECES OF DYSPROSIUM TIGHTLY HELD
           TOGETHER.
METHOD     TRANSMISSION METHOD IN STEPS OF NEUTRON ENERGY OF 100
           KEV.  GOOD GEOMETRY.
           BACKGROUND NEUTRONS WERE MEASURED BY PLACING A SHADOW-
           BAR IN THE NEUTRON BEAM PATH.
DETECTOR   (SCIN) ZN-S(AG) PLASTICS SCINTILLATOR, NE 451, WITH
           NEUTRON-GAMMA PULSE SHAPE DISCRIMINATION.
MONITOR    ABSOLUTE, TRANSMISSION.
PART-DET   (N) NEUTRONS.
STATUS     NUMERICAL RESULTS FROM M.HUSSAIN, 75/11/28.
HISTORY    (760927C) KO.
ERR-ANALYS NO FURTHER INFORMATION.
ENDBIB              21
NOCOMMON             0          0
ENDSUBENT           24
SUBENT        30353002     840530
BIB                  2          3
REACTION   (66-DY-0(N,TOT),,SIG)
            LOWER ENERGY RANGE.
INC-SOURCE (D-D) D-2(D,N)HE-3 REACTION.  DEUTERIUM GAS TARGET.
ENDBIB               3
NOCOMMON             0          0
DATA                 4         32
EN         EN-RSL     DATA       DATA-ERR
MEV        MEV        B          B
 3.9800E+00 1.0000E-01 5.4400E+00 2.5000E-01
 4.0500E+00 1.0000E-01 5.4100E+00 2.4000E-01
 4.1300E+00 1.0000E-01 5.6800E+00 2.7000E-01
 4.2000E+00 9.0000E-02 5.6800E+00 2.5000E-01
 4.2800E+00 9.0000E-02 5.5800E+00 2.4000E-01
 4.3600E+00 8.0000E-02 5.7200E+00 2.6000E-01
 4.4500E+00 8.0000E-02 5.4700E+00 2.6000E-01
 4.5200E+00 8.0000E-02 5.2300E+00 2.6000E-01
 4.6000E+00 8.0000E-02 5.1900E+00 2.7000E-01
 4.6400E+00 8.0000E-02 4.6300E+00 2.6000E-01
 4.6900E+00 8.0000E-02 4.6600E+00 2.7000E-01
 4.7300E+00 7.0000E-02 5.0500E+00 2.6000E-01
 4.7700E+00 7.0000E-02 5.5600E+00 2.5000E-01
 4.8100E+00 7.0000E-02 5.4000E+00 2.4000E-01
 4.8600E+00 7.0000E-02 5.1600E+00 2.5000E-01
 4.9000E+00 7.0000E-02 5.2500E+00 2.3000E-01
 4.9500E+00 7.0000E-02 5.1100E+00 2.3000E-01
 4.9900E+00 7.0000E-02 5.2600E+00 2.2000E-01
 5.0400E+00 7.0000E-02 5.1200E+00 2.3000E-01
 5.0800E+00 7.0000E-02 5.0600E+00 2.2000E-01
 5.1300E+00 6.0000E-02 4.9000E+00 2.3000E-01
 5.1700E+00 6.0000E-02 5.3100E+00 2.2000E-01
 5.2200E+00 6.0000E-02 4.4000E+00 2.3000E-01
 5.2600E+00 6.0000E-02 5.1800E+00 2.2000E-01
 5.3100E+00 6.0000E-02 4.4100E+00 2.2000E-01
 5.3600E+00 6.0000E-02 5.4200E+00 2.1000E-01
 5.4100E+00 6.0000E-02 4.6000E+00 2.1000E-01
 5.5000E+00 6.0000E-02 4.3400E+00 2.0000E-01
 5.6000E+00 6.0000E-02 5.4000E+00 2.1000E-01
 5.7000E+00 6.0000E-02 5.0200E+00 1.9000E-01
 5.8000E+00 6.0000E-02 4.8200E+00 2.4000E-01
 5.9000E+00 5.0000E-02 4.7600E+00 2.6000E-01
ENDDATA             34
ENDSUBENT           42
SUBENT        30353003     840530
BIB                  2          4
REACTION   (66-DY-0(N,TOT),,SIG)
            HIGHER ENERGY RANGE.
INC-SOURCE (D-T) T-3(D,N)HE-4 REACTION.  TRITIUM ABSORBED IN
           TITANIUM FILM.
ENDBIB               4
NOCOMMON             0          0
DATA                 4         34
EN         EN-RSL     DATA       DATA-ERR
MEV        MEV        B          B
 1.6210E+01 2.8000E-01 4.8000E+00 1.7000E-01
 1.6270E+01 2.8000E-01 4.7600E+00 1.7000E-01
 1.6320E+01 2.7000E-01 4.6200E+00 2.1000E-01
 1.6440E+01 2.5000E-01 4.6000E+00 2.2000E-01
 1.6550E+01 2.3000E-01 4.7500E+00 1.2000E-01
 1.6680E+01 2.3000E-01 4.9600E+00 1.6000E-01
 1.6770E+01 2.2000E-01 4.9900E+00 1.7000E-01
 1.6890E+01 2.2000E-01 4.9300E+00 1.8000E-01
 1.6990E+01 2.0000E-01 4.8000E+00 1.8000E-01
 1.7080E+01 2.0000E-01 4.8800E+00 1.9000E-01
 1.7160E+01 2.0000E-01 4.6700E+00 1.9000E-01
 1.7310E+01 1.8000E-01 5.0800E+00 2.0000E-01
 1.7350E+01 1.8000E-01 5.1500E+00 2.0000E-01
 1.7450E+01 1.8000E-01 4.7200E+00 2.0000E-01
 1.7560E+01 1.8000E-01 4.8200E+00 2.1000E-01
 1.7640E+01 1.6000E-01 4.9000E+00 2.1000E-01
 1.7700E+01 1.6000E-01 4.6600E+00 2.1000E-01
 1.7820E+01 1.6000E-01 5.2700E+00 2.1000E-01
 1.7890E+01 1.5000E-01 4.7600E+00 2.2000E-01
 1.7980E+01 1.5000E-01 5.0800E+00 2.2000E-01
 1.8040E+01 1.4000E-01 5.1400E+00 2.2000E-01
 1.8120E+01 1.4000E-01 5.0100E+00 2.2000E-01
 1.8190E+01 1.4000E-01 4.9000E+00 2.2000E-01
 1.8260E+01 1.4000E-01 4.8500E+00 2.3000E-01
 1.8340E+01 1.4000E-01 4.7800E+00 2.2000E-01
 1.8490E+01 1.3000E-01 4.4900E+00 2.3000E-01
 1.8570E+01 1.3000E-01 4.8500E+00 2.3000E-01
 1.8650E+01 1.3000E-01 4.5500E+00 2.3000E-01
 1.8720E+01 1.3000E-01 5.0600E+00 2.3000E-01
 1.8800E+01 1.3000E-01 4.7400E+00 2.3000E-01
 1.8880E+01 1.3000E-01 5.0400E+00 2.3000E-01
 1.8960E+01 1.2000E-01 5.1500E+00 2.3000E-01
 1.9040E+01 1.1000E-01 4.9300E+00 2.3000E-01
 1.9120E+01 1.1000E-01 4.8900E+00 2.3000E-01
ENDDATA             36
ENDSUBENT           45
ENDENTRY             3
