ENTRY            F0110   19990412   19990429
SUBENT        F0110001   19990412   19990429
BIB                 10         29
TITLE      Spectroscopy of 10B levels from the 9Be(d,n)10B
           reaction
AUTHOR     (Y.S.PARK,A.NIILER,R.A.LINDGREN)
INSTITUTE  (1USAABD)
REFERENCE  (J,PR/C,8,1557,197311)
SAMPLE     The targets used were self-supporting foils of 9BE with
           thicknesses of 2.75 and 0.13 mg/cm**2
METHOD     (TOF)
FACILITY   (VDGT)
DETECTOR   (SCIN) The neutron detector consisted of a NE-213
           liquid scintillator, 2.5cm thickness and 17.8cm in
           diam., held in a light-tight alumunum can and
           Lucite-coupled toa XP1041 photomultiplier (PM) tube.
           All cross-section measurements were monitored by both
           a 2-mm-thick silicon-surface-barrier detector and the
           beam-current integration.
ERR-ANALYS (ERR-1) The uncertainty in the target thickness
           (ERR-2)  The uncertainty in the neutron detector
           efficiencies
           (ERR-3) The resulting over-all uncertainty on the
           absolute scale factor
           (ANG-ERR) Digitizing error
           (DATA-ERR) Digitizing error
           (DATA-ERR1) Error from graphic bars. Relative errors
           representing mainly counting statistics background
           substraction, and the error associated with the
           computer fitting procedure, are represented by
           vertical bars through the data points.
HISTORY    (19820111C)
ENDBIB              29
COMMON               3          3
ERR-1      ERR-2      ERR-3
PER-CENT   PER-CENT   PER-CENT
  15.0      8.0         20.0
ENDCOMMON            3
ENDSUBENT           36
SUBENT        F0110002   19990412   19990429
BIB                  3          3
REACTION   (4-BE-9(D,N)5-B-10,PAR,DA,,,EXP)
STATUS     (CURVE) fig 4
EN-SEC     (E-LVL,5-B-10)
ENDBIB               3
COMMON               3          3
EN         ANG-ERR    DATA-ERR
MEV        ADEG       PER-CENT
  7.0       0.2        0.1
ENDCOMMON            3
DATA                 4         52
E-LVL      ANG-CM     DATA-CM    DATA-ERR1
MEV        ADEG       MB/SR      MB/SR
     0.         7.569      3.617      0.4921
     0.        13.22       6.173      0.7929
     0.        18.99       8.64       0.8498
     0.        24.29       9.955      1.463
     0.        29.27      10.02       1.141
     0.        35.19       7.113      0.6882
     0.        40.63       6.109      0.5909
     0.        45.71       4.363      0.529
     0.        50.41       2.815      0.3213
     0.        56.06       2.464      0.308
     0.        61.72       2.05       0.2563
     0.        66.53       1.829      0.2082
     0.        71.91       1.913      0.2458
     0.72       8.834      3.075      0.4662
     0.72      14.26       5.887      0.5748
     0.72      19.69       8.664      0.9993
     0.72      26.16      10.06       1.269
     0.72      30.76      10.07       1.326
     0.72      37.02       7.606      0.9863
     0.72      41.82       5.215      0.5692
     0.72      47.25       3.599      0.4407
     0.72      51.84       2.227      0.2727
     0.72      57.48       1.378      0.1892
     0.72      62.9        1.061      0.0997
     0.72      67.91       1.055      0.1271
     0.72      73.13       1.112      0.1277
     1.74       7.2        1.049      0.1147
     1.74      12.46       1.775      0.1644
     1.74      17.99       2.395      0.291
     1.74      23.82       2.462      0.2849
     1.74      29.04       2.356      0.2591
     1.74      35.         1.529      0.2002
     1.74      40.14       0.967      0.1553
     1.74      45.05       0.6565     0.0909
     1.74      49.84       0.3287     0.043
     1.74      55.54       0.2541     0.0352
     1.74      60.93       0.2823     0.0359
     1.74      66.34       0.2902     0.0402
     1.74      71.69       0.3553     0.0472
     2.15       5.997     13.93       2.355
     2.15      10.98      23.77       3.436
     2.15      16.94      29.05       4.907
     2.15      22.68      37.32       5.698
     2.15      28.1       37.39       5.177
     2.15      34.09      26.64       4.174
     2.15      39.02      19.67       2.844
     2.15      44.07      17.83       2.361
     2.15      50.02      13.94       2.1
     2.15      55.09      11.86       1.569
     2.15      60.55      11.07       1.732
     2.15      66.        10.33       1.174
     2.15      71.24       9.843      1.542
ENDDATA             54
ENDSUBENT           66
SUBENT        F0110003   19990412   19990429
BIB                  3          3
REACTION   (4-BE-9(D,N)5-B-10,PAR,DA,,,EXP)
EN-SEC     (E-LVL,5-B-10)
STATUS     (CURVE) Fig.5,6
ENDBIB               3
COMMON               2          3
ANG-ERR    DATA-ERR
ADEG       PER-CENT
 0.3        0.5
ENDCOMMON            3
DATA                 5        494
EN         E-LVL      ANG-CM     DATA       DATA-ERR1
MEV        MEV        ADEG       MB/SR      MB/SR
    12.         0.         9.128      2.422      0.1563
    12.         0.        14.94       5.275      0.2995
    12.         0.        21.04       7.825      0.4027
    12.         0.        26.85       7.71       0.6017
    12.         0.        32.67       6.93       0.5551
    12.         0.        37.66       4.102      0.3289
    12.         0.        42.92       2.967      0.2601
    12.         0.        48.19       2.093      0.1824
    12.         0.        53.73       1.834      0.1929
    12.         0.        58.49       1.496      0.169
    12.         0.        64.25       1.584      0.1268
    12.         0.        70.07       1.342      0.1179
    12.         0.        75.06       1.186      0.0768
    12.         0.        80.04       0.9484     0.0741
    12.         0.        90.02       0.6589     0.0527
    12.         0.72       4.642      3.219      0.1989
    12.         0.72      10.04       6.037      0.6836
    12.         0.72      15.49       7.062      0.4686
    12.         0.72      21.81       7.781      0.5777
    12.         0.72      28.04       6.569      0.7445
    12.         0.72      33.13       3.832      0.3435
    12.         0.72      38.26       2.124      0.1747
    12.         0.72      44.14       1.327      0.1301
    12.         0.72      49.41       0.8962     0.0946
    12.         0.72      54.59       0.6823     0.0875
    12.         0.72      60.05       0.7845     0.0583
    12.         0.72      66.15       0.8        0.0644
    12.         0.72      71.49       0.7295     0.0721
    12.         0.72      76.34       0.6051     0.0546
    12.         0.72      90.17       0.1947     0.0498
    12.         1.74      10.09       1.466      0.1561
    12.         1.74      16.05       2.023      0.164
    12.         1.74      22.11       2.229      0.1807
    12.         1.74      27.42       1.977      0.1162
    12.         1.74      33.11       1.341      0.1007
    12.         1.74      38.67       0.6432     0.0584
    12.         1.74      43.94       0.3166     0.0317
    12.         1.74      49.06       0.2281     0.0243
    12.         1.74      59.98       0.1675     0.0217
    12.         1.74      65.18       0.1995     0.0212
    12.         1.74      71.07       0.1623     0.0148
    12.         1.74      76.11       0.1452     0.0154
    12.         1.74      81.19       0.1131     0.012
    12.         1.74      91.57       0.0816     0.0105
    12.         2.15       2.949      1.038      0.0933
    12.         2.15       8.356      1.699      0.0993
    12.         2.15      13.97       2.149      0.2137
    12.         2.15      20.05       2.137      0.1327
    12.         2.15      25.7        1.819      0.2065
    12.         2.15      31.22       1.304      0.1073
    12.         2.15      36.98       0.9669     0.0873
    12.         2.15      42.71       0.7487     0.0558
    12.         2.15      47.63       0.5697     0.0733
    12.         2.15      53.6        0.4567     0.0518
    12.         2.15      58.85       0.4578     0.0378
    12.         2.15      64.5        0.3897     0.0352
    12.         2.15      69.58       0.3433     0.0341
    12.         2.15      74.77       0.3686     0.0362
    12.         2.15      85.72       0.2961     0.0268
    12.         3.59       6.293      0.9116     0.1073
    12.         3.59      11.42       1.14       0.102
    12.         3.59      17.48       1.192      0.0955
    12.         3.59      23.39       1.006      0.0826
    12.         3.59      29.32       0.8277     0.0997
    12.         3.59      34.71       0.6635     0.0491
    12.         3.59      40.71       0.4841     0.0435
    12.         3.59      46.56       0.4567     0.0324
    12.         3.59      52.02       0.5156     0.0365
    12.         3.59      57.08       0.454      0.0372
    12.         3.59      62.63       0.4394     0.0475
    12.         3.59      67.96       0.3937     0.0354
    12.         3.59      73.29       0.3497     0.0287
    12.         3.59      78.81       0.3593     0.0355
    12.         3.59      89.39       0.3196     0.0312
    12.         4.77       8.213      0.7604     0.0829
    12.         4.77      14.26       0.8473     0.1647
    12.         4.77      19.61       0.6856     0.1048
    12.         4.77      25.68       0.7374     0.1052
    12.         4.77      31.49       0.7518     0.0996
    12.         4.77      37.08       0.659      0.0718
    12.         4.77      43.01       0.4924     0.0419
    12.         4.77      48.45       0.3191     0.0422
    12.         4.77      53.84       0.464      0.0432
    12.         4.77      59.4        0.4446     0.0589
    12.         4.77      64.74       0.3662     0.0412
    12.         4.77      70.32       0.3297     0.0437
    12.         4.77      75.59       0.3215     0.0376
    12.         4.77      81.15       0.308      0.0408
    12.         4.77      91.66       0.3172     0.042
    12.         5.1        6.064     16.46       1.481
    12.         5.1       11.76      12.64       0.8387
    12.         5.1       17.65       7.075      0.4683
    12.         5.1       23.22       4.275      0.3505
    12.         5.1       28.39       3.146      0.2579
    12.         5.1       34.65       2.396      0.2153
    12.         5.1       40.56       2.075      0.154
    12.         5.1       46.02       1.488      0.1337
    12.         5.1       52.13       1.452      0.1418
    12.         5.1       57.27       1.115      0.1208
    12.         5.1       62.37       0.9251     0.0904
    12.         5.1       67.98       0.8288     0.0809
    12.         5.1       73.86       0.7491     0.067
    12.         5.1       79.17       0.6886     0.0511
    12.         5.1       89.59       0.5205     0.0508
    12.         5.92       5.559      9.708      1.589
    12.         5.92      11.87      10.6        0.7458
    12.         5.92      17.22       9.109      0.5999
    12.         5.92      22.71       6.438      0.674
    12.         5.92      28.6        3.838      0.5172
    12.         5.92      34.46       2.327      0.3627
    12.         5.92      40.06       1.399      0.3319
    12.         5.92      45.55       0.9886     0.203
    12.         5.92      51.76       1.247      0.2132
    12.         5.92      57.01       1.271      0.1331
    12.         5.92      62.25       1.296      0.1555
    12.         5.92      67.85       1.182      0.124
    12.         5.92      73.14       1.126      0.1006
    12.         5.92      78.83       0.8888     0.0725
    12.         5.92      89.12       0.5491     0.1164
    12.         6.13       7.17       5.193      0.8333
    12.         6.13      13.21       5.983      0.4038
    12.         6.13      18.48       5.735      0.4798
    12.         6.13      24.65       4.497      0.4127
    12.         6.13      30.28       3.375      0.3624
    12.         6.13      35.95       2.3        0.3861
    12.         6.13      41.59       1.638      0.2507
    12.         6.13      47.28       1.041      0.219
    12.         6.13      53.17       0.8164     0.125
    12.         6.13      58.47       0.7361     0.0962
    12.         6.13      63.99       0.7568     0.0694
    12.         6.13      69.25       0.7513     0.0568
    12.         6.13      74.82       0.6894     0.0632
    12.         6.13      80.39       0.6109     0.0608
    12.         6.13      90.71       0.4837     0.0825
    12.         6.13      95.84       0.3128     0.0169
    12.         6.57       5.728      4.936      0.4791
    12.         6.57      11.56       4.778      0.4637
    12.         6.57      17.29       5.437      0.6105
    12.         6.57      22.97       4.365      0.5229
    12.         6.57      28.62       3.656      0.5979
    12.         6.57      34.64       2.695      0.3631
    12.         6.57      40.11       1.954      0.3195
    12.         6.57      46.13       1.428      0.1943
    12.         6.57      51.84       1.089      0.1548
    12.         6.57      57.16       0.6548     0.0881
    12.         6.57      62.91       0.7201     0.0917
    12.         6.57      68.54       0.6241     0.0701
    12.         6.57      73.96       0.4925     0.067
    12.         6.57      79.46       0.519      0.0808
    12.         6.57      89.78       0.3019     0.0411
    15.         0.         1.017      2.421      0.1833
    15.         0.         5.998      5.419      0.4441
    15.         0.        12.4        7.115      0.5823
    15.         0.        17.6        6.137      0.4144
    15.         0.        23.42       4.808      0.2591
    15.         0.        29.05       3.191      0.1719
    15.         0.        34.39       2.117      0.1257
    15.         0.        40.24       1.56       0.0668
    15.         0.        45.1        1.521      0.1028
    15.         0.        50.83       1.407      0.0719
    15.         0.        56.07       1.132      0.1038
    15.         0.        61.56       0.9763     0.0817
    15.         0.        66.8        0.7852     0.0466
    15.         0.        71.77       0.6098     0.0608
    15.         0.        82.2        0.4305     0.0326
    15.         0.        92.63       0.5182     0.035
    15.         0.       102.6        0.5616     0.0333
    15.         0.       112.2        0.5774     0.0437
    15.         0.       121.5        0.4448     0.0227
    15.         0.       131.         0.3488     0.022
    15.         0.       139.9        0.2907     0.029
    15.         0.       148.6        0.3498     0.0221
    15.         0.72       0.9722     2.779      0.2403
    15.         0.72       6.009      5.628      0.5889
    15.         0.72      12.14       7.253      0.544
    15.         0.72      17.93       6.111      0.4264
    15.         0.72      23.51       4.415      0.2707
    15.         0.72      29.18       2.686      0.2099
    15.         0.72      34.95       1.377      0.0844
    15.         0.72      40.36       0.8005     0.0523
    15.         0.72      45.84       0.712      0.0616
    15.         0.72      51.58       0.6507     0.0509
    15.         0.72      57.06       0.5684     0.0492
    15.         0.72      62.5        0.5387     0.0597
    15.         0.72      67.72       0.4497     0.0351
    15.         0.72      73.26       0.3557     0.0408
    15.         0.72      83.5        0.2107     0.0111
    15.         0.72      94.         0.2287     0.0216
    15.         0.72     103.7        0.2373     0.0178
    15.         0.72     113.         0.282      0.0212
    15.         0.72     122.7        0.2555     0.0216
    15.         0.72     132.1        0.2466     0.0213
    15.         0.72     141.         0.2155     0.0186
    15.         0.72     150.2        0.2042     0.0193
    15.         1.74       2.036      1.379      0.1182
    15.         1.74       7.278      1.922      0.1646
    15.         1.74      12.94       2.048      0.1719
    15.         1.74      18.75       1.595      0.1495
    15.         1.74      24.66       1.011      0.0654
    15.         1.74      30.38       0.5216     0.0489
    15.         1.74      36.37       0.2789     0.0289
    15.         1.74      41.7        0.1816     0.017
    15.         1.74      47.05       0.206      0.0226
    15.         1.74      52.51       0.1835     0.0216
    15.         1.74      57.45       0.1455     0.016
    15.         1.74      63.26       0.1133     0.0151
    15.         1.74      68.5        0.0899 0.8426E-02
    15.         1.74      74.03       0.0693 0.8718E-02
    15.         1.74      84.57       0.0664 0.7827E-02
    15.         1.74      95.         0.0803 0.9461E-02
    15.         1.74     104.8        0.0654 0.5064E-02
    15.         1.74     114.4        0.073  0.6845E-02
    15.         1.74     124.1        0.0405 0.4590E-02
    15.         1.74     133.4        0.0405 0.4454E-02
    15.         1.74     142.4        0.0318 0.4253E-02
    15.         1.74     151.8        0.0292 0.3307E-02
    15.         2.15       9.245      0.792      0.0609
    15.         2.15      15.24       1.49       0.124
    15.         2.15      20.65       1.912      0.1592
    15.         2.15      26.36       1.798      0.1234
    15.         2.15      32.06       1.342      0.092
    15.         2.15      37.77       0.9667     0.0529
    15.         2.15      43.47       0.6841     0.0413
    15.         2.15      48.89       0.4798     0.0369
    15.         2.15      54.31       0.4433     0.0377
    15.         2.15      59.45       0.4205     0.0254
    15.         2.15      64.87       0.3461     0.0288
    15.         2.15      70.29       0.3005     0.0304
    15.         2.15      75.71       0.254      0.0187
    15.         2.15      80.56       0.2128     0.0218
    15.         2.15      91.39       0.1816     0.0125
    15.         2.15     101.7        0.2153     0.0285
    15.         2.15     111.6        0.2044     0.014
    15.         2.15     121.3        0.2102     0.0175
    15.         2.15     130.5        0.1556     0.013
    15.         2.15     139.9        0.1477     0.0114
    15.         2.15     148.7        0.1452     0.0124
    15.         2.15     157.6        0.1882     0.0139
    15.         3.59       3.         0.6045     0.052
    15.         3.59       8.869      0.8069     0.0628
    15.         3.59      14.25       0.8757     0.0754
    15.         3.59      19.77       0.6997     0.0602
    15.         3.59      25.58       0.5346     0.0399
    15.         3.59      31.66       0.435      0.041
    15.         3.59      37.16       0.3571     0.0267
    15.         3.59      42.74       0.2384     0.0225
    15.         3.59      48.16       0.2407     0.0251
    15.         3.59      53.55       0.2565     0.0263
    15.         3.59      59.02       0.2305     0.0254
    15.         3.59      64.5        0.1961     0.0217
    15.         3.59      69.89       0.2109     0.0181
    15.         3.59      75.03       0.2073     0.0195
    15.         3.59      85.97       0.1643     0.0155
    15.         3.59      96.17       0.1935     0.024
    15.         3.59     106.2        0.1803     0.017
    15.         3.59     116.1        0.1905     0.0179
    15.         3.59     125.4        0.151      0.0117
    15.         3.59     134.2        0.1445     0.0136
    15.         3.59     143.7        0.1311     0.0123
    15.         3.59     152.5        0.1277     0.011
    15.         5.1        4.178     11.61       0.7929
    15.         5.1        9.968      8.91       1.378
    15.         5.1       15.29       5.106      0.3065
    15.         5.1       21.51       2.586      0.239
    15.         5.1       26.75       1.882      0.1739
    15.         5.1       32.78       1.649      0.0898
    15.         5.1       38.26       1.334      0.0978
    15.         5.1       44.31       1.099      0.084
    15.         5.1       49.8        0.8968     0.0831
    15.         5.1       55.01       0.7066     0.0655
    15.         5.1       60.52       0.5422     0.0459
    15.         5.1       66.24       0.5009     0.0464
    15.         5.1       71.42       0.4389     0.03
    15.         5.1       76.87       0.3913     0.0438
    15.         5.1       87.5        0.3085     0.0236
    15.         5.1       97.65       0.4244     0.0461
    15.         5.1      107.9        0.4135     0.0303
    15.         5.1      117.3        0.4212     0.0389
    15.         5.1      126.5        0.3233     0.0268
    15.         5.1      136.         0.2909     0.027
    15.         5.1      144.6        0.2233     0.0362
    15.         5.1      153.1        0.2738     0.0209
    15.         5.92       7.701      7.001      0.7205
    15.         5.92      13.39       7.071      1.25
    15.         5.92      18.79       6.013      0.9999
    15.         5.92      24.48       3.863      0.7538
    15.         5.92      29.6        2.206      0.28
    15.         5.92      35.57       1.183      0.1687
    15.         5.92      40.98       0.8318     0.1743
    15.         5.92      46.95       0.7335     0.1945
    15.         5.92      52.64       0.7751     0.1622
    15.         5.92      57.48       0.8646     0.1097
    15.         5.92      63.45       0.7221     0.125
    15.         5.92      68.57       0.6722     0.0853
    15.         5.92      73.97       0.5821     0.0646
    15.         5.92      79.09       0.4646     0.0516
    15.         5.92      89.62       0.2448     0.033
    15.         5.92      99.85       0.2938     0.0373
    15.         5.92     110.1        0.2942     0.0255
    15.         5.92     119.5        0.383      0.0425
    15.         5.92     128.6        0.3941     0.0373
    15.         5.92     138.3        0.432      0.0857
    15.         5.92     147.1        0.4325     0.0716
    15.         5.92     155.3        0.5097     0.0844
    15.         6.13       6.679      4.338      1.037
    15.         6.13      12.06       5.284      1.686
    15.         6.13      17.75       5.835      1.332
    15.         6.13      23.51       3.637      0.7537
    15.         6.13      29.25       2.569      0.3421
    15.         6.13      34.73       1.559      0.2721
    15.         6.13      39.94       0.8425     0.2888
    15.         6.13      45.97       0.5743     0.1428
    15.         6.13      51.69       0.5072     0.1122
    15.         6.13      56.81       0.5213     0.1006
    15.         6.13      62.51       0.5359     0.0995
    15.         6.13      67.92       0.5509     0.0942
    15.         6.13      73.35       0.4822     0.0594
    15.         6.13      78.5        0.3792     0.0505
    15.         6.13      89.39       0.2408     0.042
    15.         6.13      99.62       0.2858     0.0381
    15.         6.13     109.5        0.4394     0.0585
    15.         6.13     119.2        0.4726     0.0518
    15.         6.13     128.4        0.3958     0.0434
    15.         6.13     137.4        0.4532     0.1003
    15.         6.13     146.6        0.4339     0.0742
    15.         6.13     154.8        0.5241     0.1086
    15.         6.57       5.461      5.084      0.6751
    15.         6.57      11.1        6.242      0.877
    15.         6.57      17.13       5.512      0.901
    15.         6.57      22.93       4.038      0.7872
    15.         6.57      28.72       2.957      0.3233
    15.         6.57      34.54       2.035      0.1899
    15.         6.57      39.81       1.304      0.1865
    15.         6.57      46.2        0.8818     0.1306
    15.         6.57      51.72       0.6289     0.1026
    15.         6.57      57.49       0.5126     0.072
    15.         6.57      62.67       0.4368     0.058
    15.         6.57      68.11       0.4033     0.0409
    15.         6.57      73.55       0.3757     0.044
    15.         6.57      79.02       0.3145     0.0324
    15.         6.57      89.44       0.1878     0.0175
    15.         6.57      99.69       0.2036     0.0255
    15.         6.57     109.9        0.2287     0.0232
    15.         6.57     119.3        0.2759     0.0302
    15.         6.57     128.4        0.2736     0.0277
    15.         6.57     137.5        0.2993     0.0421
    15.         6.57     146.3        0.3273     0.0435
    16.         0.         1.987      1.869      0.1401
    16.         0.         4.113      5.1        0.4612
    16.         0.        10.2        7.146      0.5125
    16.         0.        15.63       6.608      0.5478
    16.         0.        21.14       4.922      0.5387
    16.         0.        26.18       3.03       0.2752
    16.         0.        31.74       1.982      0.1485
    16.         0.        36.97       1.528      0.1526
    16.         0.        42.68       1.377      0.1032
    16.         0.        47.57       1.273      0.0954
    16.         0.        53.03       1.099      0.1084
    16.         0.        59.03       0.9318     0.0755
    16.         0.        64.78       0.7502     0.0608
    16.         0.        69.73       0.5988     0.0496
    16.         0.        75.19       0.4991     0.0499
    16.         0.        80.12       0.4233     0.0611
    16.         0.        85.28       0.3847     0.0458
    16.         0.        90.68       0.3846     0.0533
    16.         0.72       6.673      2.018      0.1965
    16.         0.72      12.14       4.898      0.4318
    16.         0.72      17.83       6.203      0.49
    16.         0.72      23.49       5.371      0.4766
    16.         0.72      29.4        3.895      0.3433
    16.         0.72      35.03       2.211      0.2359
    16.         0.72      40.39       1.203      0.095
    16.         0.72      45.49       0.8017     0.0834
    16.         0.72      50.87       0.6488     0.0454
    16.         0.72      57.08       0.6165     0.0641
    16.         0.72      61.93       0.5522     0.0538
    16.         0.72      67.32       0.5031     0.0446
    16.         0.72      73.25       0.4141     0.0462
    16.         0.72      77.83       0.338      0.0351
    16.         0.72      82.94       0.2782     0.0331
    16.         0.72      87.51       0.2177     0.0232
    16.         0.72      93.18       0.195      0.0188
    16.         0.72      98.31       0.1966     0.0234
    16.         1.74       3.624      0.9104     0.0553
    16.         1.74       9.223      1.6        0.126
    16.         1.74      14.61       1.755      0.1383
    16.         1.74      20.85       1.433      0.1269
    16.         1.74      26.32       0.8357     0.0811
    16.         1.74      31.79       0.4751     0.0421
    16.         1.74      38.34       0.277      0.0243
    16.         1.74      43.5        0.2114     0.0235
    16.         1.74      48.9        0.2078     0.02
    16.         1.74      54.31       0.1926     0.0169
    16.         1.74      59.75       0.1446     0.015
    16.         1.74      65.19       0.1049     0.0112
    16.         1.74      70.88       0.0948 0.9837E-02
    16.         1.74      76.04       0.0749 0.9441E-02
    16.         1.74      81.18       0.0694 0.8750E-02
    16.         1.74      86.32       0.0637 0.7093E-02
    16.         1.74      91.15       0.0767 0.8536E-02
    16.         1.74      96.57       0.0681 0.8091E-02
    16.         2.15       5.502      0.5147     0.0473
    16.         2.15      11.44       1.535      0.1085
    16.         2.15      17.38       1.921      0.1358
    16.         2.15      23.05       1.741      0.162
    16.         2.15      29.26       1.286      0.0966
    16.         2.15      34.66       0.9226     0.1178
    16.         2.15      40.33       0.6553     0.0609
    16.         2.15      46.01       0.4222     0.0393
    16.         2.15      51.14       0.3681     0.0338
    16.         2.15      57.08       0.3644     0.0465
    16.         2.15      62.21       0.2854     0.0265
    16.         2.15      67.34       0.2393     0.0297
    16.         2.15      73.01       0.2256     0.0364
    16.         2.15      77.87       0.1856     0.0173
    16.         2.15      83.         0.1541     0.0143
    16.         2.15      88.4        0.133      0.0124
    16.         2.15      93.8        0.1438     0.0163
    16.         2.15      98.66       0.1396     0.0173
    16.         5.1        4.698      8.128      0.5636
    16.         5.1       11.18       6.11       0.4914
    16.         5.1       16.85       3.725      0.2995
    16.         5.1       22.52       2.003      0.1569
    16.         5.1       28.19       1.531      0.0873
    16.         5.1       34.4        1.273      0.1121
    16.         5.1       40.07       1.094      0.1047
    16.         5.1       46.01       0.9248     0.0725
    16.         5.1       51.41       0.7189     0.0629
    16.         5.1       57.08       0.5828     0.0469
    16.         5.1       62.48       0.4968     0.04
    16.         5.1       67.61       0.4307     0.0313
    16.         5.1       73.28       0.4026     0.0385
    16.         5.1       78.68       0.3764     0.0303
    16.         5.1       83.82       0.3519     0.0256
    16.         5.1       88.68       0.3        0.0332
    16.         5.1       94.35       0.3127     0.0251
    16.         5.1       99.21       0.326      0.0262
    16.         5.92       8.075      5.082      0.3954
    16.         5.92      14.28       4.914      0.4267
    16.         5.92      19.64       4.408      0.4194
    16.         5.92      25.47       2.979      0.3498
    16.         5.92      31.27       1.883      0.1933
    16.         5.92      36.5        1.042      0.0753
    16.         5.92      42.3        0.6374     0.0509
    16.         5.92      47.68       0.5961     0.0518
    16.         5.92      53.64       0.637      0.0553
    16.         5.92      59.07       0.7155     0.0686
    16.         5.92      64.46       0.6804     0.0647
    16.         5.92      69.82       0.6003     0.0571
    16.         5.92      74.93       0.5614     0.0576
    16.         5.92      80.49       0.389      0.0303
    16.         5.92      85.6        0.3639     0.0291
    16.         5.92      90.36       0.2585     0.0265
    16.         5.92      95.45       0.2225     0.0161
    16.         5.92     100.3        0.2338     0.0224
    16.         6.13       5.946      3.678      0.2714
    16.         6.13      11.35       4.038      0.266
    16.         6.13      17.57       4.071      0.438
    16.         6.13      23.24       2.798      0.3543
    16.         6.13      28.65       1.973      0.1917
    16.         6.13      30.54       1.636      0.1077
    16.         6.13      32.7        1.391      0.0855
    16.         6.13      33.78       1.235      0.1097
    16.         6.13      34.59       1.115      0.0786
    16.         6.13      40.27       0.6088     0.1069
    16.         6.13      45.68       0.531      0.0637
    16.         6.13      51.35       0.4147     0.0407
    16.         6.13      57.03       0.4476     0.0365
    16.         6.13      62.43       0.4629     0.0454
    16.         6.13      67.84       0.4511     0.0485
    16.         6.13      73.24       0.4666     0.0415
    16.         6.13      78.65       0.377      0.0308
    16.         6.13      83.24       0.3072     0.0298
    16.         6.13      88.38       0.2461     0.0242
    16.         6.13      93.51       0.2241     0.0218
    16.         6.13      98.92       0.204      0.0214
    16.         6.57       5.075      3.778      0.3319
    16.         6.57      11.01       4.071      0.2951
    16.         6.57      16.68       4.104      0.2655
    16.         6.57      22.1        3.274      0.2854
    16.         6.57      29.35       2.402      0.2653
    16.         6.57      36.1        1.739      0.1984
    16.         6.57      41.34       0.9332     0.1371
    16.         6.57      45.79       0.5697     0.0755
    16.         6.57      51.48       0.4699     0.041
    16.         6.57      56.64       0.3595     0.0313
    16.         6.57      62.31       0.3624     0.0349
    16.         6.57      67.72       0.3533     0.0364
    16.         6.57      73.38       0.3776     0.0389
    16.         6.57      78.83       0.2506     0.022
    16.         6.57      83.96       0.2403     0.0229
    16.         6.57      88.58       0.1808     0.0159
    16.         6.57      93.47       0.1479     0.0141
    16.         6.57      98.88       0.1371     0.0145
ENDDATA            496
ENDSUBENT          508
ENDENTRY             3
