ENTRY            F0132   19990409   19990428
SUBENT        F0132001   19990409   19990428
BIB                 11         19
TITLE      Proton scattering from 9Be between 6 and 30 MeV and
           the structure of 9Be
AUTHOR     (H.J.VOTAVA,T.B.CLEGG,E.J.LUDWIG,W.J.THOMPSON)
INSTITUTE  (1USATNL)
REFERENCE  (J,NP/A,204,529,197304)
SAMPLE     Self-supporting 9Be foil of thickness 1.31+-0.25mg/cm2
FACILITY   (VDG)
METHOD     (EDE)
DETECTOR   (TELES) DeltaE and E-DeltaE silicon surface detectors
           A monitor detector at angle=90 degr. was used to check
           the beam current integration during the angular
           distribution measurements.
ERR-ANALYS (ERR-1) Absolute error
COMMENT    For the unpolarized-beam measurements the two
           telescopes were placed on the same side of the incident
           beam and the integrated current was monitored by a
           Brookhaven currrent integrator
HISTORY    (19840531C)
           (19990409A) CNPD: corrected 4-dig. year
ENDBIB              19
COMMON               1          3
ERR-1
PER-CENT
  7.0
ENDCOMMON            3
ENDSUBENT           26
SUBENT        F0132002   19990409   19990428
BIB                  4          9
REACTION   (4-BE-9(P,EL)4-BE-9,,DA,,,EXP)
ERR-ANALYS (EN-ERR) Digitizing error
           (ERR-S) statistical error
DETECTOR   (TELES) At angle=86.9,120 degr. the E-detectors were
           50 mu-m thick for E=6 to 11 MeV and 100 mu-m thick for
           E=11 to 15 MeV. The E-deltaE detectors used for
           angle=86.9, 120 degr. were 1500 mu-m thick while at
            angle=140, 160 degr. single 2000 mu-m thick E-detect.
STATUS     (CURVE) fig 2
ENDBIB               9
COMMON               2          3
EN-ERR     DATA-ERR
MEV        MB/SR
 0.015      0.1
ENDCOMMON            3
DATA                 4        361
EN         ANG        DATA       ERR-S
MEV        ADEG       MB/SR      MB/SR
     5.993     93.3       14.36       0.4656
     6.022    125.5       23.04       0.4706
     6.029    144.1       18.41       0.4694
     6.095     93.3       13.89       0.3492
     6.123    125.5       22.56       0.5882
     6.123    162.2       16.01       0.5926
     6.131    144.1       17.35       0.4703
     6.196     93.3       13.65       0.3492
     6.211    125.5       22.55       0.5882
     6.223    162.2       15.17       0.4747
     6.232    144.1       17.11       0.4703
     6.298     93.3       13.18       0.4656
     6.312    125.5       21.84       0.4706
     6.324    162.2       14.46       0.4747
     6.334    144.1       16.75       0.5878
     6.385     93.3       13.17       0.3492
     6.414    125.5       21.83       0.5871
     6.425    162.2       13.98       0.4747
     6.435    144.1       16.74       0.4703
     6.501     93.3       12.58       0.3492
     6.511    162.2       13.38       0.4747
     6.53     125.5       22.06       0.4706
     6.551    144.1       16.85       0.4694
     6.603     93.3       12.23       0.3492
     6.631    125.5       21.82       0.5882
     6.642    162.2       13.37       0.4747
     6.653    144.1       16.85       0.4703
     6.704     93.3       12.34       0.3492
     6.719    125.5       18.4        0.4706
     6.729    162.2       13.73       0.5926
     6.754    144.1       13.79       0.4703
     6.806     93.3       12.68       0.4656
     6.82     125.5       17.33       0.4717
     6.841    144.1       12.14       0.3527
     6.843    162.2       11.82       0.4747
     6.908     93.3       12.21       0.3492
     6.922    125.5       17.79       0.5882
     6.927    162.2        9.562      0.4747
     6.943    144.1       12.48       0.3527
     6.995     93.3       12.09       0.3492
     7.023    125.5       17.9        0.5882
     7.029    162.2        9.675      0.356
     7.03     144.1       12.48       0.3527
     7.096     93.3       11.85
     7.11     125.5       18.01
     7.116    162.2        9.552      0.4739
     7.146    144.1       12.94
     7.183     93.3       11.61
     7.212    125.5       18.12
     7.218    162.2        9.666
     7.233    144.1       12.82
     7.285     93.3       11.37
     7.314    125.5       18.
     7.319    162.2        9.542
     7.334    144.1       12.58
     7.387     93.3       11.13
     7.421    162.2        9.537
     7.43     125.5       17.99
     7.45     144.1       12.57
     7.503     93.3       11.01
     7.531    125.5       17.86
     7.537    162.2        9.531
     7.552    144.1       12.57
     7.604     93.3       11.
     7.618    125.5       17.62
     7.638    162.2        9.289
     7.639    144.1       12.44
     7.706     93.3       10.99
     7.72     125.5       17.14
     7.725    162.2        9.285
     7.74     144.1       12.2
     7.808     93.3       10.99
     7.812    162.2        9.043
     7.822    125.5       17.14
     7.857    144.1       11.84
     7.909     93.3       11.33
     7.923    125.5       17.48
     7.928    162.2        9.274
     7.958    144.1       11.84
     8.011     93.3       11.21       0.3492
     8.039    125.5       17.71       0.4706
     8.044    162.2        9.031
     8.059    144.1       11.83       0.3535
     8.113     93.3       11.32
     8.126    125.5       17.58
     8.131    162.2        8.79       0.356
     8.147    144.1       11.83
     8.214     93.3       11.54
     8.214    125.5       17.46
     8.232    162.2        8.666
     8.263    144.1       11.47
     8.301     93.3       11.89
     8.315    125.5       17.45
     8.334    162.2        8.542
     8.35     144.1       11.23
     8.403     93.3       11.76
     8.417    125.5       17.33
     8.435    162.2        8.418
     8.437    144.1       11.1
     8.518    125.5       17.44
     8.519     93.3       11.99
     8.522    162.2        8.295
     8.538    144.1       10.63
     8.605    125.5       17.43
     8.606     93.3       12.1
     8.623    162.2        7.934
     8.64     144.1       10.62
     8.708     93.3       12.44
     8.722    125.5       17.07
     8.724    162.2        7.573
     8.809     93.3       12.43
     8.826    162.2        7.45
     8.838    125.5       17.06
     8.843    144.1       10.26
     8.911     93.3       12.78
     8.925    125.5       16.7
     8.927    162.2        7.326
     8.944    144.1        9.783
     9.012     93.3       12.77       0.4656
     9.014    162.2        6.965
     9.026    125.5       16.69       0.4717
     9.06     144.1        9.424      0.4711
     9.1       93.3       12.88
     9.128    125.5       16.68
     9.13     162.2        6.841      0.356
     9.147    144.1        9.419
     9.201     93.3       12.88
     9.215    125.5       16.44
     9.231    162.2        6.48
     9.234    144.1        9.179
     9.303     93.3       12.87
     9.316    125.5       16.2
     9.318    162.2        6.238
     9.336    144.1        8.703
     9.39      93.3       13.1
     9.404    125.5       16.19
     9.419    162.2        5.877
     9.437    144.1        8.579
     9.492     93.3       13.21
     9.52     125.5       15.83
     9.539    144.1        8.338
     9.593     93.3       13.2
     9.621    125.5       15.7
     9.621    162.2        5.511
     9.64     144.1        8.097
     9.709     93.3       13.19
     9.723    125.5       15.46
     9.723    162.2        5.387
     9.742    144.1        7.621
     9.811     93.3       13.3
     9.824    162.2        5.145
     9.825    125.5       15.1
     9.829    144.1        7.499
     9.898     93.3       13.53
     9.911    162.2        4.903
     9.912    125.5       15.21
     9.93     144.1        7.493
    10.        93.3       13.29       0.3492
    10.03     125.5       14.85       0.3529
    10.03     162.2        4.66
    10.05     144.1        7.251      0.3527
    10.12      93.3       13.51
    10.13     125.5       14.73
    10.13     162.2        4.418      0.356
    10.15     144.1        7.128
    10.22      93.3       13.28
    10.23     125.5       14.36
    10.23     162.2        4.294
    10.25     144.1        7.005
    10.3       93.3       13.27
    10.32     125.5       14.36
    10.33     162.2        4.17
    10.35     144.1        6.999
    10.41      93.3       13.26
    10.42     125.5       14.23
    10.43     162.2        3.928
    10.44     144.1        6.877
    10.52      93.3       13.14
    10.52     125.5       13.87
    10.52     144.1        6.636
    10.52     162.2        4.042
    10.54     144.1        6.518
    10.61      93.3       13.13
    10.61     125.5       13.98
    10.62     162.2        4.037
    10.63     144.1        6.513
    10.71      93.3       13.01
    10.71     125.5       13.74
    10.72     162.2        3.913
    10.73     144.1        6.625
    10.81      93.3       13.35
    10.81     125.5       13.61
    10.82     162.2        3.552
    10.83     144.1        6.384
    10.91      93.3       12.88
    10.91     125.5       13.49
    10.91     162.2        3.548
    10.93     144.1        6.026
    11.01     162.2        3.543
    11.02      93.3       12.87       0.3492
    11.03     125.5       13.01       0.3529
    11.03     144.1        6.02       0.3527
    11.1       93.3       13.33
    11.11     162.2        3.419      0.4747
    11.12     125.5       12.89
    11.13     144.1        6.249
    11.2       93.3       13.21
    11.22     125.5       12.64
    11.22     162.2        3.414
    11.24     144.1        5.891
    11.31      93.3       13.09
    11.32     125.5       12.63
    11.32     144.1        5.886
    11.32     162.2        3.409
    11.4      162.2        3.405
    11.41      93.3       13.32
    11.41     125.5       12.51
    11.42     144.1        6.115
    11.51      93.3       13.19
    11.51     125.5       11.91
    11.52     162.2        3.399
    11.53     144.1        5.522
    11.6       93.3       13.19
    11.61     125.5       11.91
    11.61     162.2        3.157
    11.63     144.1        5.516
    11.69     162.2        3.153
    11.7       93.3       13.3
    11.71     125.5       11.78
    11.71     144.1        5.511
    11.8       93.3       13.29
    11.8      125.5       11.77
    11.8      162.2        3.148
    11.82     144.1        5.387
    11.9       93.3       13.28
    11.91     125.5       11.41
    11.91     162.2        3.023
    11.92     144.1        5.029
    12.        93.3       13.39       0.4656
    12.01     162.2        3.018
    12.02     125.5       11.4        0.3529
    12.03     144.1        5.14       0.3527
    12.1       93.3       13.62
    12.11     162.2        3.013      0.2373
    12.12     125.5       11.28
    12.12     144.1        5.135
    12.2      125.5       10.92
    12.2      162.2        3.009
    12.21      93.3       13.26
    12.21     144.1        5.013
    12.3      162.2        3.004
    12.31      93.3       13.37
    12.32     125.5       11.03
    12.34     144.1        4.888
    12.41      93.3       13.37
    12.42     125.5       10.67
    12.42     162.2        2.998
    12.44     144.1        4.647
    12.51      93.3       13.36
    12.52     125.5       10.54
    12.52     162.2        2.874
    12.53     144.1        4.642
    12.61      93.3       13.35
    12.61     125.5       10.3
    12.61     162.2        2.989
    12.63     144.1        4.636
    12.69     162.2        2.865
    12.71      93.3       13.35
    12.71     125.5       10.29
    12.73     144.1        4.395
    12.8       93.3       13.34
    12.8      162.2        2.742
    12.81     125.5       10.28
    12.83     144.1        4.272
    12.89     144.1        4.269
    12.9       93.3       13.34
    12.91     162.2        2.736
    12.92     125.5       10.04
    13.        93.3       13.21       0.3492
    13.       162.2        2.732
    13.01     144.1        4.027      0.3527
    13.02     125.5        9.916      0.3518
    13.09     144.1        4.14
    13.1      162.2        2.727      0.3567
    13.12      93.3       13.21
    13.12     125.5        9.673
    13.2      162.2        2.603
    13.22     144.1        4.132
    13.24      93.3       13.08
    13.24     125.5        9.547
    13.32      93.3       13.08
    13.32     144.1        4.126
    13.32     162.2        2.597
    13.34     125.5        9.304
    13.41      93.3       12.95
    13.43     144.1        4.003
    13.44     125.5        9.414
    13.49     162.2        2.588
    13.51      93.3       13.3
    13.51     125.5        9.055
    13.51     144.1        4.116
    13.6       93.3       13.29
    13.61     125.5        9.047
    13.61     144.1        3.875
    13.61     162.2        2.582
    13.69      93.3       13.05
    13.69     144.1        3.871
    13.71     125.5        8.804
    13.71     162.2        2.577
    13.77      93.3       13.05
    13.79     144.1        3.63
    13.8      125.5        8.68
    13.8      162.2        2.573
    13.88      93.3       13.04
    13.88     162.2        2.569
    13.89     144.1        3.506
    13.9      125.5        8.555
    13.99      93.3       12.92       0.4656
    13.99     125.5        8.431      0.354
    13.99     162.2        2.445
    14.02     144.1        3.264      0.3527
    14.09     162.2        2.44       0.3567
    14.11     125.5        8.422
    14.12      93.3       12.79
    14.12     144.1        3.376
    14.2      162.2        2.197
    14.21      93.3       12.55
    14.22     144.1        3.37
    14.29     162.2        2.311
    14.31      93.3       12.55
    14.31     144.1        3.365
    14.32     125.5        8.17
    14.39     162.2        2.306
    14.4       93.3       12.66
    14.41     125.5        8.045
    14.43     144.1        3.241
    14.51      93.3       12.65
    14.51     125.5        8.038
    14.51     162.2        2.538
    14.53     144.1        3.235
    14.61     125.5        8.03
    14.61     162.2        2.533
    14.62      93.3       12.53
    14.63     144.1        3.229
    14.7       93.3       12.64
    14.71     162.2        2.646
    14.72     144.1        3.107
    14.73     125.5        7.786
    14.79      93.3       12.63
    14.83     125.5        7.543
    14.83     144.1        2.865
    14.83     162.2        2.878
    14.89      93.3       12.39
    14.9      125.5        7.537
    14.91     162.2        2.873
    14.93     144.1        2.977
    15.       162.2        2.988
    15.02      93.3       12.27       0.4656
    15.02     125.5        7.293      0.354
    15.02     144.1        2.854      0.3527
    15.1      162.2        2.864      0.356
ENDDATA            363
ENDSUBENT          381
SUBENT        F0132003   19990409   19990428
BIB                  4          8
REACTION   (4-BE-9(P,EL)4-BE-9,,DA,,,EXP)
ERR-ANALYS (ANG-ERR) Digitizing error
DETECTOR   (TELES)Delta-E and E-deltaE detectors of thickness
           200 mu-m and 2000 mu-m,respectively, were used at 13.0,
           14.0 and 15.0 MeV while at 21.35 and 30.3 MeV delta-E
           and E-deltaE detectors of thicknesses 400 mu-m and
           2000 mu-m, respectively, were used.
STATUS     (CURVE) fig.9,10,11,12
ENDBIB               8
COMMON               2          3
ANG-ERR    DATA-ERR
ADEG       PER-CENT
 0.25       0.3
ENDCOMMON            3
DATA                 3        102
EN         ANG-CM     DATA
MEV        ADEG       MB/SR
    13.        21.21     433.7
    13.        27.5      327.5
    13.        32.21     241.8
    13.        39.12     170.8
    13.        43.82     112.9
    13.        49.78      65.78
    13.        55.11      37.21
    13.        60.42      18.84
    13.        66.05       8.79
    13.        76.11       5.356
    13.        86.54       9.691
    13.        96.64      13.63
    13.       107.        14.91
    13.       117.1       12.58
    13.       125.6        9.432
    13.       135.         6.665
    13.       143.5        4.405
    13.       152.7        3.302
    13.       162.1        3.161
    14.        20.91     517.5
    14.        33.57     247.6
    14.        44.55     112.4
    14.        55.04      35.41
    14.        66.4        8.343
    14.        75.88       5.591
    14.        86.11       9.642
    14.        96.23      12.83
    14.       105.9       13.28
    14.       117.1       11.26
    14.       125.1        9.28
    14.       136.2        5.543
    14.       145.3        3.659
    14.       153.5        2.793
    14.       163.5        2.825
    15.        21.58     506.
    15.        32.67     277.4
    15.        45.01     112.2
    15.        55.04      34.59
    15.        64.39       6.047
    15.        76.86       5.565
    15.        86.49       9.889
    15.        96.3       12.75
    15.       106.3       12.85
    15.       116.2       10.63
    15.       126.8        7.771
    15.       134.8        5.191
    15.       144.9        3.246
    15.       153.3        2.556
    15.       162.3        2.751
    21.35      21.73     509.6
    21.35      27.29     360.7
    21.35      32.81     242.8
    21.35      38.61     146.7
    21.35      43.31      86.45
    21.35      48.93      40.99
    21.35      53.82      19.29
    21.35      59.52      10.03
    21.35      64.31       6.753
    21.35      71.22       6.779
    21.35      76.07       7.985
    21.35      80.85       8.581
    21.35      85.23       8.701
    21.35      90.28       8.318
    21.35      95.31       7.628
    21.35     100.7        6.652
    21.35     105.3        5.66
    21.35     110.6        4.617
    21.35     115.9        3.83
    21.35     121.2        3.177
    21.35     125.4        2.593
    21.35     130.7        2.116
    21.35     136.4        1.725
    21.35     140.7        1.544
    21.35     146.1        1.451
    21.35     149.6        1.354
    21.35     154.4        1.317
    21.35     159.1        1.38
    21.35     163.5        1.459
    21.35     167.9        1.53
    30.3       20.59     456.6
    30.3       27.08     326.2
    30.3       32.34     190.9
    30.3       38.68      93.71
    30.3       43.39      43.25
    30.3       48.8       18.77
    30.3       53.17       8.797
    30.3       55.59       7.21
    30.3       56.67       6.187
    30.3       59.04       5.689
    30.3       64.38       5.563
    30.3       69.33       6.056
    30.3       75.32       6.108
    30.3       79.74       5.124
    30.3       84.5        4.234
    30.3       94.72       2.616
    30.3      105.         1.419
    30.3      116.6        0.8
    30.3      126.1        0.5461
    30.3      135.2        0.4279
    30.3      144.7        0.3592
    30.3      155.1        0.3016
    30.3      165.2        0.2043
ENDDATA            104
ENDSUBENT          121
SUBENT        F0132004   19990409   19990428
BIB                  4          4
REACTION   (4-BE-9(P,INL)4-BE-9,PAR,DA,,,EXP)
ERR-ANALYS (ANG-ERR) Digitizing error
EN-SEC     (E-LVL,4-BE-9)
STATUS     (CURVE) fig.9,10,11,12
ENDBIB               4
COMMON               3          3
E-LVL      ANG-ERR    DATA-ERR
MEV        ADEG       PER-CENT
 4.429      0.25       0.3
ENDCOMMON            3
DATA                 3         96
EN         ANG-CM     DATA
MEV        ADEG       MB/SR
    13.        21.65      14.54
    13.        27.38      13.39
    13.        33.1       12.61
    13.        39.13      12.15
    13.        44.22      11.36
    13.        49.        10.54
    13.        54.69      10.46
    13.        61.06       9.562
    13.        67.1        8.939
    13.        76.35       7.525
    13.        86.86       6.577
    13.        96.41       5.662
    13.       104.7        4.767
    13.       116.2        4.166
    13.       126.         3.924
    13.       134.9        3.614
    13.       145.4        3.182
    13.       153.3        2.997
    13.       161.6        2.719
    14.        20.73      13.27
    14.        32.34      11.23
    14.        39.97      10.2
    14.        55.29       9.379
    14.        64.91       8.254
    14.        75.51       6.878
    14.        87.43       5.641
    14.        94.38       4.856
    14.       107.7        4.137
    14.       116.9        3.67
    14.       126.2        3.205
    14.       135.5        2.932
    14.       145.5        2.58
    14.       154.8        2.219
    14.       163.4        2.062
    15.        22.93      12.95
    15.        33.58      11.77
    15.        45.29      10.24
    15.        55.59       9.153
    15.        65.49       7.641
    15.        76.11       6.27
    15.        86.37       5.189
    15.        96.66       4.558
    15.       107.3        4.003
    15.       116.5        3.487
    15.       126.1        3.09
    15.       135.3        2.515
    15.       145.2        2.154
    15.       153.7        1.798
    15.       162.5        1.553
    21.35      21.96      10.86
    21.35      28.1       10.29
    21.35      35.         9.997
    21.35      40.44       9.719
    21.35      45.87       9.293
    21.35      50.5        8.316
    21.35      55.5        7.439
    21.35      61.93       6.486
    21.35      66.13       5.43
    21.35      71.02       4.323
    21.35      76.71       3.708
    21.35      81.98       3.026
    21.35      86.94       2.596
    21.35      93.03       2.341
    21.35      98.05       2.129
    21.35     102.7        2.02
    21.35     107.8        1.932
    21.35     111.4        1.803
    21.35     116.8        1.696
    21.35     122.2        1.608
    21.35     127.6        1.512
    21.35     132.2        1.331
    21.35     136.8        1.171
    21.35     142.2        1.03
    21.35     146.4        0.8991
    21.35     151.         0.7847
    21.35     155.7        0.6848
    21.35     160.         0.6337
    21.35     164.6        0.5766
    30.3       38.77      10.77
    30.3       43.54       9.105
    30.3       48.65       7.754
    30.3       53.45       6.164
    30.3       58.95       4.716
    30.3       63.72       3.986
    30.3       68.67       2.461
    30.3       74.92       1.603
    30.3       80.04       1.324
    30.3       86.85       1.061
    30.3       96.34       0.8434
    30.3      106.8        0.7409
    30.3      115.9        0.6361
    30.3      125.4        0.4721
    30.3      135.3        0.3451
    30.3      145.4        0.2744
    30.3      155.2        0.2448
    30.3      166.2        0.2394
ENDDATA             98
ENDSUBENT          111
ENDENTRY             4
