ENTRY            F0141   19990409   19990427
SUBENT        F0141001   19990409   19990427
BIB                  9         12
TITLE      Elastic scattering of deuterons by beryllium
AUTHOR     (J.H.RENKEN)
INSTITUTE  (1USACAL)
REFERENCE  (J,PR,132,2627,196312)
SAMPLE     Be target
METHOD     (PHD)
FACILITY   (VDG)
DETECTOR   (MAGSP,SOLST) Double-focusing magnetic spectrometer.
           The particles were counted by using a silicon p-n
           junction solid-state detector.
HISTORY    (19840604C)
           (19990407A) CNPD: corrected 4-dig. year
ENDBIB              12
NOCOMMON
ENDSUBENT           15
SUBENT        F0141002   19990409   19990427
BIB                  3          4
REACTION   (4-BE-9(D,EL)4-BE-9,,DA,,RTH,EXP)
ERR-ANALYS (EN-ERR) Digitizing error
           (DATA-ERR) Digitizing error
STATUS     (CURVE) FIG.2
ENDBIB               4
COMMON               2          3
EN-ERR     DATA-ERR
MEV        NO-DIM
 0.003      0.01
ENDCOMMON            3
DATA                 3        174
EN         ANG-CM     DATA-CM
MEV        ADEG       NO-DIM
     0.3592    90.         0.9488
     0.3796    90.         0.9473
     0.3929   125.3        0.843
     0.4001    90.         0.9708
     0.4184   125.3        0.8152
     0.4205    90.         0.9692
     0.4338   125.3        0.8656
     0.4409    90.         0.9677
     0.4491   125.3        0.8644
     0.4613    90.         0.9661
     0.4739   163.5        0.8712
     0.4799   125.3        0.9135
     0.4817    90.         0.9646
     0.4943   163.5        0.8696
     0.495    125.3        0.8349
     0.497     90.         0.9635
     0.5147   163.5        0.868
     0.5208   125.3        0.936
     0.5226    90.         0.9865
     0.536    125.3        0.909
     0.5403   163.5        0.9177
     0.5429    90.         0.96
     0.5581    90.         0.9338
     0.5607   163.5        0.8903
     0.5617   125.3        0.9586
     0.5769   125.3        0.9316
     0.5785    90.         0.9323
     0.5811   163.5        0.9145
     0.5966   163.5        0.9649
     0.5974   125.3        0.9557
     0.599     90.         0.9558
     0.612    163.5        0.9895
     0.6178   125.3        0.9541
     0.6194    90.         0.9292
     0.622    163.5        0.9114
     0.6323   163.5        0.9622
     0.6347    90.         0.9281
     0.6383   125.3        0.9783
     0.6528   163.5        0.9864
     0.6551    90.         0.9265
     0.6587   125.3        0.9767
     0.6786   163.5        1.062
     0.6806    90.         0.9246
     0.6842   125.3        0.9747
     0.6988   163.5        1.009
     0.6997   125.3        1.025
     0.7011    90.         0.9481
     0.7141   163.5        1.007
     0.7165    90.         0.9969
     0.72     125.3        0.9976
     0.7397   163.5        1.031
     0.7406   125.3        1.048
     0.742     90.         0.995
     0.7601   163.5        1.03
     0.761    125.3        1.046
     0.7624    90.         0.9685
     0.7727    90.         1.018
     0.7807   163.5        1.105
     0.7815   125.3        1.07
     0.7958   163.5        1.027
     0.7982    90.         0.9908
     0.8017   125.3        1.017
     0.8135    90.         1.015
     0.8171   125.3        1.041
     0.8215   163.5        1.077
     0.8341    90.         1.063
     0.8418   163.5        1.049
     0.8427   125.3        1.065
     0.8477   125.3        1.039
     0.8572   163.5        1.074
     0.8595    90.         1.036
     0.8733   125.3        1.063
     0.8801    90.         1.085
     0.8825   163.5        1.02
     0.8952    90.         1.033
     0.9004    90.         1.058
     0.903    163.5        1.044
     0.9038   125.3        1.035
     0.9142   125.3        1.085
     0.9157    90.         1.032
     0.9183   163.5        1.018
     0.9293   125.3        1.033
     0.931     90.         1.056
     0.9386   163.5        0.9901
     0.9498   125.3        1.057
     0.9514    90.         1.054
     0.954    163.5        1.015
     0.972     90.         1.103
     0.9755   125.3        1.106
     0.9794   163.5        0.9869
     0.9975    90.         1.101
     0.9999   163.5        1.011
     1.001    125.3        1.104
     1.013     90.         1.125
     1.02     163.5        1.01
     1.021    125.3        1.103
     1.037    125.3        1.101
     1.038     90.         1.123
     1.041    163.5        1.008
     1.057    125.3        1.126
     1.059     90.         1.146
     1.061    163.5        1.032
     1.074     90.         1.145
     1.078    125.3        1.124
     1.082    163.5        1.005
     1.095     90.         1.193
     1.098    125.3        1.097
     1.102    163.5        0.9775
     1.115     90.         1.192
     1.117    163.5        1.028
     1.118    125.3        1.121
     1.134    125.3        1.12
     1.136     90.         1.215
     1.138    163.5        0.9747
     1.154    125.3        1.118
     1.156     90.         1.239
     1.158    163.5        1.025
     1.173    163.5        1.049
     1.176     90.         1.237
     1.18     125.3        1.142
     1.194    163.5        1.022
     1.195    125.3        1.14
     1.197     90.         1.211
     1.214    163.5        1.02
     1.215    125.3        1.165
     1.23     163.5        1.019
     1.241    125.3        1.163
     1.255    163.5        1.069
     1.256    125.3        1.187
     1.276    163.5        1.093
     1.277    125.3        1.16
     1.292    125.3        1.184
     1.296    163.5        1.066
     1.317    125.3        1.156
     1.317    163.5        1.116
     1.338    125.3        1.155
     1.342    163.5        1.114
     1.348    125.3        1.206
     1.357    163.5        1.138
     1.374    125.3        1.204
     1.378    163.5        1.163
     1.393    163.5        1.187
     1.399    125.3        1.202
     1.41     125.3        1.278
     1.414    163.5        1.237
     1.434    163.5        1.21
     1.435    125.3        1.25
     1.455    163.5        1.234
     1.456    125.3        1.275
     1.475    163.5        1.232
     1.476    125.3        1.299
     1.491    163.5        1.283
     1.497    125.3        1.349
     1.511    163.5        1.255
     1.517    125.3        1.321
     1.537    163.5        1.331
     1.538    125.3        1.32
     1.547    125.3        1.216
     1.557    163.5        1.304
     1.567    163.5        1.354
     1.568    125.3        1.291
     1.593    163.5        1.327
     1.594    125.3        1.367
     1.613    163.5        1.351
     1.614    125.3        1.417
     1.634    163.5        1.375
     1.649    163.5        1.426
     1.675    163.5        1.475
     1.69     163.5        1.448
     1.71     163.5        1.421
     1.731    163.5        1.445
     1.751    163.5        1.418
     1.772    163.5        1.468
     1.787    163.5        1.492
ENDDATA            176
ENDSUBENT          189
ENDENTRY             2
