ENTRY            F0158   20200510   20200819   20200818       F078
SUBENT        F0158001   20200510   20200819   20200818       F078
BIB                 10         21
TITLE       (p,d) and (p,alpha) reaction in 9Be
AUTHOR     (G.Weber,L.W.Davis,J.B.Marion)
INSTITUTE  (1USACAL)
REFERENCE  (J,PR,104,1307,1956)
FACILITY   (VDG,1USACAL) Electrostatic generator. No information
           of the facility in the article, probably, Van de Graaf
DETECTOR   (CSICR)
METHOD     (TTM) Thick-target technique was used for
           observation angles greater or equal 70. degr.
REL-REF    (M,A1457001,A.B.Brown+,J,PR,82,159,1951)
ERR-ANALYS (ERR-1) uncertainty in the spectrometer constants;
           (ERR-2) uncertainty in the effective stopping power;
           (ERR-3) uncertainty in the target angles;
           (ERR-4) the integrator calibration;
           (ERR-S) uncertainty in counting statistics (generally
                                                     about 3%)
HISTORY    (19840829C)
           (19990412U) corrected 4-dig. year and lower cases.
           (20200510A) SD: Corrections in all Subents according to
           new EXFOR rules. BIB updated. EN-ERR -> EN-ERR-DIG.
           Numerical data revised.
ENDBIB              21
COMMON               6          3
EN-ERR-DIG ERR-1      ERR-2      ERR-3      ERR-4      ERR-S
MEV        PER-CENT   PER-CENT   PER-CENT   PER-CENT   PER-CENT
 0.0015      1.5          5.0        2.0        1.0       3.
ENDCOMMON            3
ENDSUBENT           28
SUBENT        F0158002   20200510   20200819   20200818       F078
BIB                  4         10
REACTION   (4-BE-9(P,D)4-BE-8,PAR,DA)
SAMPLE     At theta greater 70 degr. the target was a
           3/4in.x3/4in. in plate of metallic beryllium about
            1/8 in. thick.
           For observation angles forward of 70 degr., a thin
            (10 keV) layer of metallic beryllium, evaporated onto
           a thin (50 keV) Cu foil, was used.
STATUS     (CURVE) fig 1,2 from Phys.Rev.,104(1956)1307
HISTORY    (20200510A) SD: SF9=EXP deleted from REACTION code.
           DATA-ERR2 -> ERR-DIG. EN-SEC deleted.
ENDBIB              10
COMMON               2          3
E-LVL      ERR-DIG
MEV        MB/SR
 0.0        0.03
ENDCOMMON            3
DATA                 3        440
ANG        EN         DATA
ADEG       MEV        MB/SR
        15.     0.7805      37.52
        15.     0.8198      42.04
        15.     0.8670      45.76
        15.     0.8875      47.27
        15.     0.9109      50.63
        15.     0.9314      52.31
        15.     0.9555      49.89
        15.     0.9780      47.60
        15.     1.0000      46.54
        15.     1.0260      45.38
        15.     1.0460      45.51
        15.     1.0690      45.54
        15.     1.0940      47.93
        15.     1.1160      48.77
        15.     1.1350      49.84
        15.     1.1590      49.71
        15.     1.1860      50.58
        15.     1.2100      49.03
        15.     1.2520      44.45
        15.     1.2790      40.77
        15.     1.3230      33.45
        15.     1.3680      28.61
        15.     1.3900      28.19
        15.     1.4140      27.96
        15.     1.4660      32.61
        15.     1.5050      35.62
        15.     1.5530      36.91
        15.     1.6000      38.24
        15.     1.6410      37.69
        15.     1.6920      37.85
        15.     1.7340      37.05
        15.     1.7840      37.18
        15.     1.8270      35.79
        15.     1.8860      35.93
        15.     1.9180      35.73
        15.     1.9620      35.74
        15.     2.0070      36.09
        15.     2.0510      36.90
        15.     2.1000      39.10
        15.     2.1430      40.55
        15.     2.1890      41.69
        15.     2.2300      41.88
        15.     2.2810      40.88
        15.     2.3240      41.08
        15.     2.3720      41.11
        15.     2.3910      39.86
        15.     2.4110      40.31
        15.     2.4380      39.31
        15.     2.4640      39.15
        15.     2.5050      39.38
        15.     2.5510      39.57
        15.     2.5770      38.83
        15.     2.5880      39.28
        15.     2.6010      39.25
        15.     2.6230      38.96
        15.     2.6640      38.16
        15.     2.7120      38.84
        15.     2.7560      39.32
        15.     2.8010      40.00
        15.     2.8430      41.27
        15.     2.8890      42.69
        15.     2.9340      44.08
        15.     2.9780      46.02
        15.     3.0250      46.99
        45.     0.7787      30.31
        45.     0.8245      32.25
        45.     0.8687      34.94
        45.     0.8907      36.59
        45.     0.9113      37.43
        45.     0.9351      37.56
        45.     0.9574      36.76
        45.     0.9798      34.56
        45.     1.0020      33.13
        45.     1.0260      31.65
        45.     1.0470      31.65
        45.     1.0670      31.84
        45.     1.0990      32.26
        45.     1.1180      33.01
        45.     1.1390      33.56
        45.     1.1630      33.53
        45.     1.1890      33.17
        45.     1.2130      32.82
        45.     1.2310      30.88
        45.     1.2530      29.75
        45.     1.2810      27.36
        45.     1.3210      21.95
        45.     1.3620      18.98
        45.     1.3850      18.82
        45.     1.4120      19.01
        45.     1.4570      20.38
        45.     1.5020      21.35
        45.     1.5490      21.35
        45.     1.6000      21.90
        45.     1.6410      21.35
        45.     1.6860      20.38
        45.     1.7310      19.03
        45.     1.7780      18.19
        45.     1.8230      17.16
        45.     1.8630      16.41
        45.     1.9130      16.06
        45.     1.9610      15.25
        45.     2.0040      14.67
        45.     2.0500      14.80
        45.     2.0930      14.58
        45.     2.1380      14.74
        45.     2.1840      14.84
        45.     2.2280      15.30
        45.     2.2800      15.46
        45.     2.3220      16.08
        45.     2.3630      16.08
        45.     2.4090      16.37
        45.     2.4580      16.15
        45.     2.5010      15.66
        45.     2.5470      15.63
        45.     2.5930      15.54
        45.     2.6140      15.31
        45.     2.6610      14.96
        45.     2.7040      14.70
        45.     2.7490      14.48
        45.     2.7930      14.25
        45.     2.8380      14.06
        45.     2.8870      13.84
        45.     2.9270      13.71
        45.     2.9740      13.52
        45.     3.0200      13.29
        70.     0.7701      21.74
        70.     0.8175      23.22
        70.     0.8662      25.38
        70.     0.8834      26.48
        70.     0.9100      27.99
        70.     0.9292      27.77
        70.     0.9534      26.00
        70.     0.9731      23.26
        70.     0.9960      20.65
        70.     1.0200      19.66
        70.     1.0390      19.50
        70.     1.0600      18.98
        70.     1.0890      18.56
        70.     1.1140      18.56
        70.     1.1320      17.89
        70.     1.1590      17.60
        70.     1.1810      16.83
        70.     1.2250      15.03
        70.     1.2740      12.64
        70.     1.3130      10.20
        70.     1.3640       8.43
        70.     1.4110       7.95
        70.     1.4540       7.95
        70.     1.5010       7.63
        70.     1.5470       7.12
        70.     1.5940       6.76
        70.     1.6380       6.34
        70.     1.6840       5.32
        70.     1.7260       5.00
        70.     1.7770       4.77
        70.     1.8210       4.39
        70.     1.8690       4.16
        70.     1.9120       3.84
        70.     1.9570       3.88
        70.     2.0030       3.88
        70.     2.0470       3.82
        70.     2.0930       4.04
        70.     2.1380       4.43
        70.     2.1840       4.46
        70.     2.2300       4.47
        70.     2.2750       5.82
        70.     2.3200       5.95
        70.     2.3660       6.66
        70.     2.4100       7.02
        70.     2.4600       6.02
        70.     2.4980       6.50
        70.     2.5490       5.99
        70.     2.5920       5.90
        70.     2.6360       5.74
        70.     2.6820       5.45
        70.     2.7240       5.39
        70.     2.7740       5.20
        70.     2.8170       4.62
        70.     2.8640       4.42
        90.     0.7882      16.30
        90.     0.8109      16.82
        90.     0.8337      17.48
        90.     0.8565      18.16
        90.     0.8784      19.61
        90.     0.8994      19.96
        90.     0.9164      21.34
        90.     0.9246      21.63
        90.     0.9456      20.16
        90.     0.9708      16.27
        90.     0.9988      13.74
        90.     1.0230      11.91
        90.     1.0330      11.32
        90.     1.0430      11.06
        90.     1.0530      10.60
        90.     1.0690      10.26
        90.     1.0880      10.05
        90.     1.0890       9.82
        90.     1.1000       9.67
        90.     1.1110       9.46
        90.     1.1300       9.32
        90.     1.1620       9.24
        90.     1.1840       8.90
        90.     1.2040       8.66
        90.     1.2280       8.44
        90.     1.2500       8.63
        90.     1.2750       8.13
        90.     1.2970       8.31
        90.     1.3170       8.52
        90.     1.3400       8.45
        90.     1.3690       8.15
        90.     1.3890       8.13
        90.     1.4100       7.63
        90.     1.4280       7.35
        90.     1.4550       7.22
        90.     1.4740       6.98
        90.     1.4910       6.74
        90.     1.4990       6.44
        90.     1.5230       6.48
        90.     1.5450       6.54
        90.     1.5670       6.29
        90.     1.5920       6.13
        90.     1.6160       6.19
        90.     1.6320       6.14
        90.     1.6570       6.01
        90.     1.6770       6.16
        90.     1.7030       5.96
        90.     1.7210       5.90
        90.     1.7460       5.87
        90.     1.7730       5.87
        90.     1.7940       6.07
        90.     1.8180       5.87
        90.     1.8370       6.20
        90.     1.8620       6.17
        90.     1.8830       6.15
        90.     1.9040       6.16
        90.     1.9290       6.34
        90.     1.9510       6.32
        90.     1.9740       6.43
        90.     1.9980       6.69
        90.     2.0220       6.76
        90.     2.0440       6.94
        90.     2.0650       7.08
        90.     2.0920       7.27
        90.     2.1130       7.29
        90.     2.1340       7.56
        90.     2.1610       7.81
        90.     2.1800       7.95
        90.     2.2010       8.16
        90.     2.2260       8.21
        90.     2.2460       8.67
        90.     2.2710       8.65
        90.     2.2950       8.73
        90.     2.3110       8.71
        90.     2.3410       8.58
        90.     2.3650       8.41
        90.     2.3820       8.22
        90.     2.4090       8.18
        90.     2.4320       7.78
        90.     2.4520       7.21
        90.     2.4710       6.87
        90.     2.4930       6.32
        90.     2.5200       6.25
        90.     2.5420       5.88
        90.     2.5640       5.83
        90.     2.5840       5.56
        90.     2.6180       5.53
        90.     2.6320       5.26
        90.     2.6570       5.18
        90.     2.6790       5.11
        90.     2.7040       4.94
        90.     2.7200       4.90
        90.     2.7490       4.73
        90.     2.7760       4.63
        90.     2.7940       4.36
        90.     2.8150       4.28
        90.     2.8390       4.17
        90.     2.8670       4.00
        90.     2.8830       3.99
        90.     2.9100       4.02
        90.     2.9290       3.86
        90.     2.9540       3.83
        90.     2.9770       3.99
        90.     3.0020       3.78
       110.     0.7896      10.88
       110.     0.8116      11.10
       110.     0.8385      11.03
       110.     0.8627      12.51
       110.     0.8818      13.80
       110.     0.9010      15.17
       110.     0.9131      15.91
       110.     0.9299      15.91
       110.     0.9396      15.00
       110.     0.9509      14.12
       110.     0.9735      12.00
       110.     0.9990       9.12
       110.     1.0220       7.06
       110.     1.0410       6.08
       110.     1.0850       5.11
       110.     1.1300       5.04
       110.     1.1770       5.46
       110.     1.2230       6.47
       110.     1.2750       8.63
       110.     1.3160      10.69
       110.     1.3370      11.62
       110.     1.3670      12.20
       110.     1.3820      11.93
       110.     1.4100      11.35
       110.     1.4370      10.91
       110.     1.4560      10.79
       110.     1.4760      10.53
       110.     1.4970      10.38
       110.     1.5430      10.39
       110.     1.5900      10.54
       110.     1.6320      10.66
       110.     1.6780      10.88
       110.     1.7230      11.08
       110.     1.7700      11.55
       110.     1.8140      11.24
       110.     1.8590      11.05
       110.     1.9050      11.25
       110.     1.9520      11.39
       110.     1.9960      11.18
       110.     2.0380      11.33
       110.     2.0860      10.89
       110.     2.1300      11.00
       110.     2.1760      11.51
       110.     2.2210      11.40
       110.     2.2670      11.64
       110.     2.3120      11.28
       110.     2.3620      10.99
       110.     2.4040      10.02
       110.     2.4270       9.40
       110.     2.4470       8.72
       110.     2.4930       7.58
       110.     2.5860       6.68
       110.     2.6740       6.03
       110.     2.7710       5.10
       110.     2.8330       4.63
       110.     2.8940       4.39
       110.     2.9490       4.14
       110.     3.0000       3.95
       135.     0.7809       7.76
       135.     0.8134       7.64
       135.     0.8362       7.69
       135.     0.8560       8.41
       135.     0.8678       9.35
       135.     0.8961      10.69
       135.     0.9210      12.02
       135.     0.9359      12.41
       135.     0.9519      11.93
       135.     0.9614      11.31
       135.     0.9722       9.90
       135.     0.9937       6.96
       135.     1.0200       4.55
       135.     1.0390       3.60
       135.     1.0570       3.06
       135.     1.0830       2.98
       135.     1.1020       2.96
       135.     1.1170       3.08
       135.     1.1320       3.40
       135.     1.1550       3.91
       135.     1.1780       4.89
       135.     1.2030       5.89
       135.     1.2220       7.69
       135.     1.2480       9.05
       135.     1.2690      10.92
       135.     1.2930      13.23
       135.     1.3160      15.44
       135.     1.3360      16.46
       135.     1.3630      17.02
       135.     1.3810      17.59
       135.     1.4070      17.78
       135.     1.4330      17.59
       135.     1.4590      17.24
       135.     1.4780      17.11
       135.     1.5090      17.39
       135.     1.5220      17.89
       135.     1.5420      18.32
       135.     1.5620      18.32
       135.     1.5860      18.56
       135.     1.6140      18.97
       135.     1.6340      19.20
       135.     1.6580      19.40
       135.     1.6830      19.48
       135.     1.6990      19.31
       135.     1.7240      20.02
       135.     1.7460      19.51
       135.     1.7720      19.42
       135.     1.7900      19.03
       135.     1.8190      18.60
       135.     1.8430      18.36
       135.     1.8590      17.63
       135.     1.8820      17.52
       135.     1.9050      17.62
       135.     1.9340      16.98
       135.     1.9490      16.12
       135.     1.9710      16.20
       135.     2.0000      15.46
       135.     2.0240      15.14
       135.     2.0390      14.89
       135.     2.0640      14.64
       135.     2.0890      13.85
       135.     2.1370      13.39
       135.     2.1510      12.74
       135.     2.1760      12.33
       135.     2.1970      12.39
       135.     2.2260      12.23
       135.     2.2470      12.08
       135.     2.2680      11.85
       135.     2.2910      11.57
       135.     2.3150      11.60
       135.     2.3330      10.84
       135.     2.3650      10.69
       135.     2.3810       9.94
       135.     2.4040       9.69
       135.     2.4310       9.20
       135.     2.4520       8.56
       135.     2.4750       8.49
       135.     2.4960       8.12
       135.     2.5380       7.67
       135.     2.5640       7.42
       135.     2.5870       7.13
       135.     2.6090       6.87
       135.     2.6350       6.75
       135.     2.6580       6.40
       135.     2.6890       6.34
       135.     2.7100       5.98
       135.     2.7310       5.84
       135.     2.7500       5.76
       135.     2.7710       5.30
       135.     2.7990       5.45
       135.     2.8200       5.20
       135.     2.8390       5.05
       135.     2.8660       5.10
       135.     2.8880       4.92
       135.     2.9110       4.87
       135.     2.9320       4.69
       135.     2.9580       4.75
       135.     2.9780       4.52
       135.     3.0050       4.39
ENDDATA            442
ENDSUBENT          461
SUBENT        F0158003   20200510   20200819   20200818       F078
BIB                  5         14
REACTION   (4-BE-9(P,D)4-BE-8,PAR,SIG)
SAMPLE     At theta greater 70 degr. the target was a
           3/4in.x3/4in. in plate of metallic beryllium about
            1/8 in. thick.
           For observation angles forward of 70 degr., a thin
            (10 keV) layer of metallic beryllium, evaporated onto
           a thin (50 keV) Cu foil, was used.
ANALYSIS   (INTAD) Cr.sect. obtained by integrating the angular
           distributions which had been constructed from the
           differential cross sections (see Subent 002)
STATUS     (CURVE) fig 3 from Phys.Rev.,104(1956)1307
           (DEP,F0158002) differential cross sections
HISTORY    (20200510A) SD: SF5=PAR added. SF9=EXP deleted from
           REACTION code. DATA-ERR2 -> ERR-DIG.
ENDBIB              14
COMMON               2          3
E-LVL      ERR-DIG
MEV        MB
   0.0       0.3
ENDCOMMON            3
DATA                 2         64
EN         DATA
MEV        MB
     0.7628      224.8
     0.8107      239.1
     0.8590      262.2
     0.8787      265.1
     0.9059      288.8
     0.9228      303.5
     0.9497      285.5
     0.9697      257.1
     0.9943      225.1
     1.0270      199.0
     1.0370      194.4
     1.0660      194.7
     1.0860      190.4
     1.1100      193.0
     1.1350      193.3
     1.1560      193.2
     1.1820      193.5
     1.2030      194.4
     1.2460      195.0
     1.2720      191.7
     1.3150      176.0
     1.3690      172.3
     1.3830      171.7
     1.4060      172.0
     1.4520      180.4
     1.4980      176.7
     1.5440      186.4
     1.5890      178.2
     1.6330      179.8
     1.6820      180.0
     1.7210      182.6
     1.7710      177.3
     1.8170      171.0
     1.8620      167.0
     1.9060      166.9
     1.9550      162.9
     1.9970      153.7
     2.0440      153.3
     2.0920      153.3
     2.1320      146.4
     2.1800      153.5
     2.2220      155.7
     2.2730      157.6
     2.3190      159.8
     2.3620      155.1
     2.3860      147.6
     2.4110      150.8
     2.4320      146.5
     2.4600      141.0
     2.5000      134.7
     2.5450      131.0
     2.5680      125.5
     2.5840      128.0
     2.5910      123.5
     2.6120      119.2
     2.6590      115.2
     2.7040      113.5
     2.7490      114.7
     2.7940      113.0
     2.8430      108.7
     2.8860      103.4
     2.9320      105.0
     2.9760      107.2
     3.0250      100.6
ENDDATA             66
ENDSUBENT           89
SUBENT        F0158004   20200510   20200819   20200818       F078
BIB                  4         10
REACTION   (4-BE-9(P,D)4-BE-8,PAR,DA,,COS)
SAMPLE     At theta greater 70 degr. the target was a
           3/4in.x3/4in. in plate of metallic beryllium about
            1/8 in. thick.
           For observation angles forward of 70 degr., a thin
            (10 keV) layer of metallic beryllium, evaporated onto
           a thin (50 keV) Cu foil, was used.
STATUS     (CURVE) fig.5 from Phys.Rev.,104(1956)1307
HISTORY    (20200510A) SD: SF5=PAR added. SF9=EXP deleted from
           REACTION code. DATA-ERR2 -> ERR-DIG.
ENDBIB              10
COMMON               2          3
E-LVL      ERR-DIG
MEV        MB/SR
   0.0       0.018
ENDCOMMON            3
DATA                 3         96
NUMBER     EN         DATA
NO-DIM     MEV        MB/SR
         0.     0.7717     17.340
         0.     0.8219     18.360
         0.     0.8689     19.950
         0.     0.8874     20.250
         0.     0.9096     22.070
         0.     0.9313     22.440
         0.     0.9559     20.980
         0.     0.9758     18.310
         0.     1.0030     15.620
         0.     1.0310     14.010
         0.     1.0500     13.380
         0.     1.0710     13.290
         0.     1.0890     12.310
         0.     1.1180     12.330
         0.     1.1390     11.960
         0.     1.1640     11.490
         0.     1.1890     10.180
         0.     1.2070     10.490
         0.     1.2520      9.984
         0.     1.2770      9.310
         0.     1.3180      7.940
         0.     1.3630      7.525
         0.     1.3880      6.982
         0.     1.4120      6.742
         0.     1.4530      6.588
         0.     1.5000      5.543
         0.     1.5460      5.542
         0.     1.5960      5.170
         0.     1.6350      5.321
         0.     1.6860      5.058
         0.     1.7240      4.383
         0.     1.7790      4.641
         0.     1.8200      4.184
         1.     0.7811     10.610
         1.     0.8189     13.470
         1.     0.8647     14.160
         1.     0.8876     14.510
         1.     0.9125     14.290
         1.     0.9329     13.440
         1.     0.9535     13.140
         1.     0.9796     13.200
         1.     1.0040     15.150
         1.     1.0270     16.320
         1.     1.0660     17.320
         1.     1.0870     17.530
         1.     1.1170     18.120
         1.     1.1360     18.480
         1.     1.1620     17.720
         1.     1.1790     17.070
         1.     1.2040     15.660
         1.     1.2530     10.340
         1.     1.2770      7.802
         1.     1.3220      1.834
         1.     1.3630     -2.138
         1.     1.3820     -2.594
         1.     1.4080     -2.292
         1.     1.4560     -1.124
         1.     1.5000     -0.693
         1.     1.5430     -0.999
         1.     1.5930     -0.221
         1.     1.6370     -0.658
         1.     1.6870     -0.379
         1.     1.7270     -0.360
         1.     1.7760     -0.731
         1.     1.8220     -0.214
         2.     0.7792      1.659
         2.     0.8218      2.395
         2.     0.8696      2.459
         2.     0.8850      3.132
         2.     0.9111      3.239
         2.     0.9344      5.171
         2.     0.9552      5.800
         2.     0.9783      6.647
         2.     0.9979      6.841
         2.     1.0290      6.124
         2.     1.0440      6.775
         2.     1.0730      6.795
         2.     1.0920      8.619
         2.     1.1120      9.422
         2.     1.1870     13.630
         2.     1.2090     14.780
         2.     1.2500     16.300
         2.     1.2750     18.020
         2.     1.3150     18.410
         2.     1.3650     18.750
         2.     1.3820     20.250
         2.     1.4060     20.860
         2.     1.4530     22.530
         2.     1.4950     25.780
         2.     1.5410     27.190
         2.     1.5850     27.600
         2.     1.6310     27.320
         2.     1.6760     28.250
         2.     1.7240     29.710
         2.     1.7710     29.550
         2.     1.8160     29.310
ENDDATA             98
ENDSUBENT          117
SUBENT        F0158005   20200510   20200819   20200818       F078
BIB                  5         12
REACTION   (4-BE-9(P,A)3-LI-6,PAR,DA)
SAMPLE     An unsupported Be foil was used, which was thin
           enough to give a line profile for the deuteron group
           but thick enough to give a step profile for the alpha
           particles.
COMMENT     The thick-target technique and integral biasing
           could be used, since the tail of the deuteron peak did
           not interfere with the alpha profile.
STATUS     (CURVE) fig 6 from Phys.Rev.,104(1956)1307
HISTORY    (20200510A) SD: SF9=EXP deleted from REACTION code.
           DATA-ERR2 -> ERR-DIG. EN-SEC, ERR-ANALYS deleted.
           Data re-digitized. METHOD moved to Subent 001.
ENDBIB              12
COMMON               3          3
E-LVL      ANG        ERR-DIG
MEV        ADEG       MB/SR
 0.0         90.0      0.02
ENDCOMMON            3
DATA                 2        118
EN         DATA
MEV        MB/SR
     0.7948      25.67
     0.8163      25.86
     0.8406      25.68
     0.8637      26.45
     0.8894      26.44
     0.9097      27.25
     0.9280      26.44
     0.9533      24.73
     0.9745      23.63
     0.9972      22.95
     1.0214      22.81
     1.0430      22.95
     1.0701      22.73
     1.0714      22.25
     1.0802      23.26
     1.0900      22.44
     1.0942      22.15
     1.1016      22.76
     1.1086      22.33
     1.1170      21.84
     1.1398      21.28
     1.1585      21.57
     1.1783      20.95
     1.2012      20.87
     1.2251      19.56
     1.2462      18.07
     1.2743      16.36
     1.2923      14.24
     1.3159      11.51
     1.3382       9.74
     1.3621       8.00
     1.3819       7.14
     1.4075       6.85
     1.4305       6.95
     1.4521       7.55
     1.4736       7.75
     1.5009       8.14
     1.5181       8.33
     1.5426       8.84
     1.5669       8.93
     1.5885       9.34
     1.6114       9.32
     1.6314       9.23
     1.6588       9.74
     1.6788       9.83
     1.7031       9.75
     1.7204      10.25
     1.7461       9.84
     1.7704      10.06
     1.7891      10.23
     1.8163      10.33
     1.8406      10.36
     1.8621      10.23
     1.8864      10.22
     1.8893      10.33
     1.9064      10.32
     1.9279      10.46
     1.9508      10.24
     1.9765      10.23
     2.0009      10.36
     2.0194      10.17
     2.0424      10.33
     2.0653      10.34
     2.0896      10.25
     2.1125      10.37
     2.1340      10.54
     2.1612      10.66
     2.1782      10.05
     2.2026      10.16
     2.2254       9.84
     2.2510       9.23
     2.2738       9.05
     2.2909       8.64
     2.3165       8.37
     2.3408       8.06
     2.3636       7.67
     2.3864       7.37
     2.4121       7.26
     2.4335       7.17
     2.4549       6.85
     2.4778       6.86
     2.4992       6.75
     2.5011       6.75
     2.5228       6.38
     2.5249       6.48
     2.5330       6.48
     2.5364       6.57
     2.5464       6.24
     2.5555       6.07
     2.5563       6.19
     2.5688       6.05
     2.5691       6.03
     2.5792       6.17
     2.5835       6.25
     2.5908       6.44
     2.5921       6.47
     2.6029       6.43
     2.6127       6.39
     2.6193       6.48
     2.6207       6.32
     2.6253       6.27
     2.6377       6.34
     2.6436       6.33
     2.6588       6.34
     2.6594       6.35
     2.6851       6.38
     2.7066       6.27
     2.7294       6.16
     2.7509       6.17
     2.7752       6.15
     2.7981       6.05
     2.8209       5.96
     2.8438       5.95
     2.8653       5.95
     2.8867       5.85
     2.9096       5.79
     2.9324       5.60
     2.9553       5.57
ENDDATA            120
ENDSUBENT          141
ENDENTRY             5
