ENTRY            F0159   19990409   19990428
SUBENT        F0159001   19990409   19990428
BIB                 10         19
TITLE      Reaction 9Be(a,n)12C from 1.7 to 6.4 MeV
AUTHOR     (A.W.OBST,T.B.GRANDY,J.L.WEIL)
INSTITUTE  (1USAKTY)
REFERENCE  (J,PR/C,5,738,197203)
SAMPLE     Thin beryllium targets were evaporated onto 0.02-in.-
           thick tantalum disks
ERR-ANALYS (ERR-1) Standard deviation in the absolute
           normalization of the cross sections.
           The relative error in the cross sections for the
           discrete neutron groups depends on target
           nonuniformity, counting statistics, variations in
           current integration, and the relative error in
           detector efficiency.
METHOD     (TOF)
FACILITY   (VDG)
DETECTOR   (SCIN) NE213 cylindrical encapsulated liquid
           scintillator
HISTORY    (19801104C)
           (19990409A) CNPD: corrected 4-dig. year
ENDBIB              19
COMMON               1          3
ERR-1
PER-CENT
  10.0
ENDCOMMON            3
ENDSUBENT           26
SUBENT        F0159002   19990409   19990428
BIB                  4          7
REACTION   (4-BE-9(A,N)6-C-12,PAR,DA,,,EXP)
ERR-ANALYS (EN-ERR) Digitizing error
           (DATA-ERR)Digitizing error
           (DATA-ERR1) Error from graphic bars in a few points
             (relative error)
STATUS     (CURVE) fig 6,7
EN-SEC     (E-LVL,6-C-12)
ENDBIB               7
COMMON               3          3
EN-ERR     ANG        DATA-ERR
MEV        ADEG       MB/SR
 0.01       0.         0.2
ENDCOMMON            3
DATA                 4        421
EN         E-LVL      DATA       DATA-ERR1
MEV        MEV        MB/SR      MB/SR
     1.681      0.         1.967
     1.682      4.433      2.876
     1.728      0.         4.399
     1.734      4.433      5.304
     1.765      4.433      6.923
     1.812      4.433      9.351
     1.812      4.433     10.97
     1.817      0.         9.467
     1.829      0.        11.09
     1.843      4.433     12.59
     1.869      4.433     14.61
     1.89       4.433     16.64
     1.898      0.        16.56
     1.936      4.433     16.64
     1.939      0.        18.39
     1.972      4.433     14.21
     1.981      0.        19.4
     1.992      4.433     11.37
     1.996      0.        18.39
     2.012      0.        20.62
     2.012      4.433      8.944
     2.028      0.        20.62
     2.049      0.        20.82
     2.053      4.433      7.729
     2.089      4.433      6.918
     2.095      0.        19.8
     2.115      0.        18.59
     2.12       4.433      6.108
     2.125      0.        17.77
     2.156      0.        18.58
     2.161      0.        19.8
     2.182      4.433      5.703
     2.193      0.        21.63
     2.213      4.433      5.298
     2.224      0.        22.84
     2.254      4.433      5.297
     2.256      0.        25.07
     2.26       0.        21.42
     2.28       4.433      4.892
     2.293      0.        26.08
     2.316      4.433      4.891
     2.352      4.433      4.891
     2.354      0.        25.88
     2.382      4.433      4.89
     2.395      0.        25.47       1.217
     2.418      4.433      4.485
     2.431      0.        25.27
     2.455      4.433      5.294
     2.462      0.        25.88
     2.486      4.433      7.318
     2.494      0.        27.9
     2.517      4.433      8.532
     2.536      0.        28.92
     2.558      4.433     11.37
     2.562      0.        29.93
     2.594      4.433     14.6
     2.603      0.        29.93
     2.636      4.433     15.82
     2.643      0.        26.48
     2.667      4.433     17.84
     2.672      0.        22.63
     2.706      0.        18.37
     2.708      4.433     17.84
     2.741      0.        15.32
     2.744      4.433     18.24
     2.775      4.433     17.84
     2.801      0.        10.66
     2.811      4.433     17.84
     2.846      0.         8.425
     2.852      4.433     17.43
     2.877      0.         7.208
     2.883      4.433     18.24
     2.928      0.         5.786
     2.929      4.433     17.84
     2.946      7.656      0.183
     2.948      0.         5.583
     2.955      4.433     18.24
     2.958      0.         4.975
     2.982      7.656      0.2633
     2.984      0.         4.568
     2.986      4.433     18.24
     3.004      0.         3.959
     3.023      7.656      0.1023
     3.03       0.         3.756
     3.037      4.433     18.24
     3.05       0.         2.944
     3.053      4.433     18.24
     3.064      7.656      0.1826
     3.084      4.433     19.05
     3.1        7.656      0.1021
     3.101      0.         2.334
     3.104      4.433     19.86
     3.131      7.656      0.1825
     3.132      0.         1.928
     3.141      4.433     20.67
     3.162      7.656      0.2628
     3.163      0.         1.318
     3.182      4.433     21.88
     3.188      0.         1.115
     3.188      7.656      0.4237
     3.214      0.         0.9113
     3.219      7.656      0.4236
     3.233      4.433     21.48
     3.244      7.656      0.3431
     3.245      0.         0.5049
     3.254      4.433     21.07
     3.275      7.656      0.2625
     3.276      0.         0.5041
     3.285      4.433     23.09
     3.296      0.         0.3007
     3.305      4.433     23.5
     3.306      7.656      0.2625
     3.327      0.         0.2999
     3.332      7.656      0.1015
     3.336      4.433     24.31
     3.342      0.         0.5022
     3.363      0.         0.2989
     3.367      4.433     25.12
     3.368      7.656      0.1818
     3.378      4.433     25.12
     3.398      4.433     25.93       2.024
     3.399      0.         0.9063
     3.43       0.         1.311
     3.43       7.656      0.1817
     3.434      4.433     26.74
     3.461      0.         1.513
     3.461      7.656      0.1011
     3.47       4.433     27.14
     3.508      0.         2.526
     3.512      4.433     27.95
     3.517      7.656      0.0205
     3.527      7.656      0.0205
     3.534      0.         3.336
     3.537      4.433     29.16
     3.558      7.656      0.0204
     3.56       0.         3.944
     3.568      4.433     28.76
     3.589      7.656      0.1008
     3.592      0.         5.363
     3.6        4.433     32.4
     3.618      0.         6.782
     3.62       7.656      0.1007
     3.626      4.433     35.24
     3.66       0.         8.606
     3.661      7.656      0.1006
     3.667      4.433     35.64
     3.681      0.        10.23
     3.682      4.433     36.45
     3.713      7.656      0.02
     3.718      0.        12.66
     3.728      7.656      0.0199
     3.729      4.433     38.07
     3.744      7.656     -0.141
     3.75       0.        14.69
     3.765      4.433     38.07
     3.774      7.656      0.2612
     3.787      0.        17.32
     3.801      4.433     38.88
     3.805      7.656      0.422
     3.811      7.656      1.066
     3.814      0.        20.77
     3.826      7.656      1.227
     3.836      7.656      2.434
     3.836      7.656      1.79
     3.841      0.        23.81
     3.847      0.        26.45
     3.852      4.433     38.07
     3.862      7.656      2.675
     3.868      0.        26.85
     3.873      4.433     38.07
     3.878      7.656      3.882
     3.883      7.656      3.56
     3.885      0.        30.3
     3.898      7.656      6.054
     3.898      7.656      4.928
     3.902      0.        34.15
     3.914      4.433     39.28
     3.935      0.        41.25
     3.935      4.433     43.33
     3.95       7.656      6.698
     3.951      0.        41.45
     3.955      7.656      6.939
     3.961      0.        42.26
     3.961      4.433     45.76
     3.966      4.433     44.14
     3.97       7.656      7.583
     3.97       7.656      7.341
     3.972      0.        41.86
     3.977      4.433     55.07
     3.98       7.656      8.065
     3.983      0.        45.1
     3.983      4.433     55.07
     3.99       4.433     83.
     4.001      7.656      8.468
     4.011      7.656      9.111
     4.012      4.433     95.14
     4.014      0.        44.09
     4.015      0.        46.32
     4.022      7.656      8.468
     4.023      4.433    107.3
     4.027      7.656      8.789
     4.028      4.433    102.8
     4.029      4.433    109.7
     4.034      0.        43.48
     4.037      7.656     10.08
     4.048      4.433    100.
     4.051      0.        46.52
     4.054      4.433    103.6
     4.058      7.656      9.514
     4.058      7.656      9.192
     4.061      0.        47.74
     4.062      0.        49.36
     4.063      4.433     95.95
     4.065      0.        44.9
     4.068      7.656     11.12
     4.073      7.656     10.72
     4.079      4.433     92.31
     4.079      4.433     93.93
     4.084      0.        51.79
     4.088      0.        50.58
     4.094      4.433     86.24
     4.094      7.656     11.36
     4.103      4.433     78.95
     4.104      0.        51.59
     4.114      4.433     83.
     4.114      7.656     11.28
     4.125      0.        51.79
     4.13       7.656     11.85
     4.134      4.433     81.38
     4.135      0.        51.79
     4.136      0.        53.21
     4.14       7.656     12.65
     4.146      0.        52.4
     4.155      4.433     79.35
     4.155      7.656     12.81
     4.16       4.433     81.38
     4.162      0.        53.82
     4.166      7.656     12.97
     4.173      0.        55.44
     4.188      0.        54.02
     4.191      4.433     79.76
     4.202      0.        51.79
     4.207      0.        52.4
     4.207      7.656     11.93
     4.216      4.433     79.76
     4.226      0.        48.34
     4.226      4.433     76.92
     4.227      0.        50.17
     4.233      7.656     11.93       0.7242
     4.242      4.433     78.95
     4.242      4.433     81.38
     4.252      0.        48.54
     4.253      0.        49.56
     4.253      7.656     12.17
     4.268      0.        49.15
     4.268      4.433     83.
     4.273      0.        48.95
     4.278      0.        47.53
     4.279      7.656     11.93
     4.294      7.656     11.36
     4.297      0.        45.7
     4.299      4.433     85.02
     4.305      7.656     11.93
     4.306      0.        42.05
     4.315      4.433     86.23
     4.317      0.        43.27
     4.33       7.656     11.04
     4.335      7.656     11.44
     4.341      7.656     10.96
     4.347      0.        41.65
     4.351      4.433     88.26
     4.361      7.656     10.8
     4.377      0.        39.21
     4.382      4.433     88.66
     4.382      7.656      9.915
     4.392      0.        37.18
     4.392      7.656     10.16
     4.407      0.        36.57
     4.418      7.656      9.834
     4.427      0.        34.75
     4.428      7.656      9.432
     4.433      7.656      9.352
     4.444      4.433     88.26
     4.447      0.        33.73
     4.464      4.433     88.66
     4.464      7.656      9.191
     4.469      7.656      8.708
     4.477      0.        31.1
     4.478      0.        33.33
     4.485      4.433     90.28
     4.49       4.433     85.42
     4.51       7.656      8.547
     4.513      0.        30.89
     4.526      4.433     87.44
     4.562      7.656      8.386
     4.562      7.656      7.823
     4.569      0.        29.27       1.217
     4.572      4.433     84.21
     4.603      7.656      7.742
     4.609      0.        26.43
     4.618      4.433     77.73
     4.623      0.        24.6
     4.628      0.        24.6
     4.653      0.        21.36
     4.66       7.656      6.374      0.4023
     4.663      4.433     66.39
     4.683      0.        20.34
     4.696      7.656      6.615
     4.698      0.        19.12
     4.709      4.433     64.77       3.239
     4.747      7.656      6.856
     4.749      0.        16.49
     4.756      4.433     67.61
     4.794      0.        14.66
     4.799      0.        13.65
     4.799      7.656      8.626
     4.813      4.433     74.49
     4.844      0.        10.81
     4.855      7.656     10.64
     4.86       4.433     78.13
     4.89       0.         7.964
     4.897      7.656     13.13
     4.912      4.433     85.82
     4.935      0.         5.935
     4.943      7.656     15.3
     4.959      4.433     93.51
     4.986      0.         4.717
     4.999      7.656     17.07       0.8046
     5.011      4.433    100.4
     5.031      0.         2.282
     5.041      7.656     15.63
     5.052      4.433     99.99
     5.083      0.         3.092
     5.097      7.656     14.34
     5.113      4.433     93.1
     5.125      0.         5.321
     5.143      7.656     12.89
     5.154      4.433     88.65
     5.162      0.         6.537
     5.183      0.         7.956
     5.19       7.656     10.48
     5.219      0.         9.172
     5.236      7.656      9.189
     5.252      4.433     86.22
     5.272      0.        11.
     5.282      7.656      8.545
     5.298      4.433     87.03
     5.349      4.433     83.39
     5.38       0.        12.01
     5.385      7.656      8.786
     5.4        4.433     80.55
     5.426      0.        11.4
     5.442      7.656      8.705
     5.451      4.433     78.12
     5.477      0.         9.774
     5.494      7.656      7.257
     5.497      4.433     72.45
     5.523      0.         9.164
     5.54       7.656      6.693
     5.549      4.433     75.69
     5.574      0.         7.946
     5.591      7.656      5.969
     5.606      4.433     79.33
     5.625      0.         6.525
     5.643      7.656      5.969
     5.658      4.433     86.21
     5.681      0.         5.104
     5.689      7.656      4.681      0.3218
     5.715      4.433     88.64
     5.732      0.         4.291
     5.751      7.656      4.44
     5.767      4.433     92.29
     5.768      0.         4.29
     5.782      7.656      3.555
     5.813      4.433     91.88       4.453
     5.835      0.         5.302
     5.854      7.656      2.911
     5.869      4.433     90.26
     5.882      0.         5.909
     5.905      7.656      2.589
     5.915      4.433     84.59
     5.934      0.         6.516
     5.942      9.64       0.9198     0.1831
     5.957      7.656      1.704
     5.971      4.433     71.64
     5.986      0.         7.732
     6.001      9.64       2.545      0.2663
     6.018      7.656      1.06
     6.032      4.433     66.37
     6.048      0.         8.744
     6.052      9.64       2.61       0.3348
     6.07       7.656      0.7378
     6.073      4.433     59.9
     6.1        0.         9.351
     6.102      9.64       1.92       0.2852
     6.116      7.656      0.7376
     6.123      4.433     50.58
     6.146      0.        10.16
     6.157      7.656      0.3352
     6.157      9.64       5.271      0.3331
     6.178      7.656      0.5766
     6.179      4.433     47.35
     6.203      0.        10.57
     6.211      9.64       4.298      0.3664
     6.235      7.656      0.4959
     6.26       0.        10.56
     6.266      9.64       5.274      0.233
     6.287      4.433     38.84
     6.291      7.656      0.4958
     6.316      0.        10.16
     6.323      9.64       6.1        0.3664
     6.343      4.433     32.77       2.024
     6.348      7.656      0.5761
     6.372      0.         9.75
     6.373      9.64       6.942      0.4
     6.399      4.433     28.32
     6.405      7.656      1.059
     6.43       9.64       7.718      0.3831
     6.434      0.         8.328
     6.46       4.433     23.46
     6.461      7.656      1.219
ENDDATA            423
ENDSUBENT          439
SUBENT        F0159003   19990409   19990428
BIB                  4          6
REACTION   (4-BE-9(A,N)6-C-12,PAR,DA,,,EXP)
ERR-ANALYS (ANG-ERR) Digitizing error
           (DATA-ERR) Digitizing error
           (DATA-ERR1) Relative error
EN-SEC     (E-LVL,6-C-12)
STATUS     (CURVE) fig 8
ENDBIB               6
COMMON               1          3
ANG-ERR
ADEG
 0.6
ENDCOMMON            3
DATA                 6        928
EN         E-LVL      ANG        DATA       DATA-ERR   DATA-ERR1
MEV        MEV        ADEG       MB/SR      MB/SR      MB/SR
     3.21       0.         0.6509     1.143      0.2        0.7362
     3.21       0.        10.12       1.717      0.2        0.5535
     3.21       0.        21.3        3.033      0.2        0.7362
     3.21       0.        30.83       4.528      0.2        0.7375
     3.21       0.        40.92       6.208      0.2        0.5521
     3.21       0.        50.42       7.335      0.2        0.7362
     3.21       0.        61.01       8.097      0.2        0.7362
     3.21       0.        70.98       7.753      0.2        0.7375
     3.21       0.        80.34       6.671      0.2        0.5521
     3.21       4.439      0.8402    22.35       0.8        1.585
     3.21       4.439      9.991     22.37       0.8        1.584
     3.21       4.439     20.14      18.43       0.8        1.584
     3.21       4.439     30.31      13.7        0.8        2.376
     3.21       4.439     40.45       9.768      0.8        2.376
     3.21       4.439     50.55       7.415      0.8        1.584
     3.21       4.439     60.63       5.854      0.8        1.584
     3.21       4.439     70.66       5.878      0.8        2.376
     3.21       4.439     80.1        5.9        0.8        2.376
     3.21       7.656      0.4426     0.4478     0.1        0.2446
     3.21       7.656      9.609      0.6331     0.1        0.2676
     3.21       7.656     19.33       0.7297     0.1        0.2174
     3.21       7.656     29.59       0.7374     0.1        0.5348
     3.21       7.656     40.45       0.8348     0.1        0.1784
     3.21       7.656     48.99       0.7521     0.1        0.2676
     3.21       7.656     59.81       0.6711     0.1        0.5352
     3.21       7.656     70.03       0.5005     0.1        0.2676
     3.99       0.         0.786     45.4        0.2        2.394
     3.99       0.        10.78      39.9        0.2        2.027
     3.99       0.        20.77      29.43       0.2        1.84
     3.99       0.        31.31      14.91       0.2        1.472
     3.99       0.        40.74       6.281      0.2        0.738
     3.99       0.        50.18       4.649      0.2        0.5524
     3.99       0.        60.72       6.702      0.2        0.738
     3.99       0.        70.71      10.23       0.2        0.7365
     3.99       0.        80.15      12.65       0.2        0.738
     3.99       0.        91.25      12.86       0.2        0.7365
     3.99       0.       101.2       11.78       0.2        0.9207
     3.99       0.       110.7        9.595      0.2        0.7351
     3.99       0.       120.1        7.411      0.2        0.7365
     3.99       0.       131.2        7.256      0.2        0.5524
     3.99       0.       140.6       10.59       0.2        0.9192
     3.99       0.       150.6       16.15       0.2        1.289
     3.99       4.439      0.8154    93.6        0.8        7.199
     3.99       4.439     10.29      86.46       0.8        4.796
     3.99       4.439     19.8       73.71       0.8        4.
     3.99       4.439     29.93      56.97       0.8        3.2
     3.99       4.439     40.04      42.63       0.8        3.2
     3.99       4.439     50.71      33.89       0.8        1.6
     3.99       4.439     60.17      29.14       0.8        1.6
     3.99       4.439     70.22      24.4        0.8        2.397
     3.99       4.439     79.69      18.85       0.8        2.4
     3.99       4.439     89.73      16.5        0.8        2.403
     3.99       4.439     99.17      16.56       0.8        4.
     3.99       4.439    110.4       18.22       0.8        2.4
     3.99       4.439    119.8       20.67       0.8        1.6
     3.99       4.439    129.8       23.13       0.8        1.6
     3.99       4.439    139.8       23.98       0.8        1.6
     3.99       4.439    149.8       24.04       0.8        2.4
     3.99       7.656      0.5543     8.462      0.1        0.3852
     3.99       7.656     10.25       7.607      0.1        0.4807
     3.99       7.656     19.37       7.424      0.1        0.3846
     3.99       7.656     30.2        6.57       0.1        0.4807
     3.99       7.656     39.9        6.291      0.1        0.3846
     3.99       7.656     49.59       6.109      0.1        0.3846
     3.99       7.656     59.85       6.215      0.1        0.4807
     3.99       7.656     70.12       5.457      0.1        0.4813
     3.99       7.656     79.81       4.313      0.1        0.3846
     3.99       7.656     89.5        3.457      0.1        0.3846
     3.99       7.656     99.77       2.41       0.1        0.2884
     3.99       7.656    109.5        1.843      0.1        0.2884
     3.99       7.656    119.7        1.469      0.1        0.1923
     3.99       7.656    130.         1.287      0.1        0.1923
     3.99       7.656    139.7        1.201      0.1        0.2884
     3.99       7.656    150.5        1.404      0.1        0.2884
     4.21       0.         0.8188    51.44       0.2        2.583
     4.21       0.         9.758     46.67       0.2        2.398
     4.21       0.        19.39      29.72       0.2        1.291
     4.21       0.        29.52      16.28       0.2        1.107
     4.21       0.        39.59       7.997      0.2        0.7379
     4.21       0.        49.6        3.963      0.2        0.7379
     4.21       0.        59.55       5.278      0.2        0.5548
     4.21       0.        69.46       9.177      0.2        0.7379
     4.21       0.        80.49      12.52       0.2        0.7379
     4.21       0.        89.32      14.21       0.2        0.7379
     4.21       0.        99.85      13.12       0.2        0.9224
     4.21       0.       109.8       11.12       0.2        0.9224
     4.21       0.       119.8        8.192      0.2        0.7379
     4.21       0.       129.8        8.031      0.2        0.5535
     4.21       0.       140.3       12.67       0.2        1.107
     4.21       0.       149.6       21.18       0.2        1.476
     4.21       4.439      0.8852    82.4        0.8        6.396
     4.21       4.439     11.51      79.26       0.8        5.596
     4.21       4.439     21.53      59.32       0.8        3.999
     4.21       4.439     30.96      45.78       0.8        3.196
     4.21       4.439     40.98      33.85       0.8        3.2
     4.21       4.439     50.99      21.11       0.8        3.2
     4.21       4.439     60.42      14.77       0.8        1.6
     4.21       4.439     71.03      10.83       0.8        2.4
     4.21       4.439     80.45      10.09       0.8        1.6
     4.21       4.439     90.47      10.15       0.8        1.6
     4.21       4.439    100.5       10.21       0.8        1.6
     4.21       4.439    109.9       10.27       0.8        1.6
     4.21       4.439    119.9       11.13       0.8        1.6
     4.21       4.439    129.9       10.39       0.8        2.4
     4.21       4.439    140.6       10.45       0.8        2.4
     4.21       4.439    149.4        9.708      0.8        2.4
     4.21       7.656      0.518     12.78       0.1        0.6665
     4.21       7.656      9.76      12.31       0.1        0.7617
     4.21       7.656     20.1       10.51       0.1        0.7623
     4.21       7.656     30.41       9.286      0.1        0.6671
     4.21       7.656     40.12       8.915      0.1        0.4761
     4.21       7.656     50.4        8.259      0.1        0.6665
     4.21       7.656     60.67       8.08       0.1        0.6665
     4.21       7.656     70.39       7.233      0.1        0.5713
     4.21       7.656     80.1        6.767      0.1        0.6665
     4.21       7.656     89.86       5.254      0.1        0.3808
     4.21       7.656     99.61       3.836      0.1        0.3808
     4.21       7.656    109.3        3.275      0.1        0.3808
     4.21       7.656    119.6        2.429      0.1        0.2856
     4.21       7.656    129.9        2.249      0.1        0.2856
     4.21       7.656    140.7        1.975      0.1        0.2856
     4.21       7.656    150.4        1.89       0.1        0.2856
     4.4        0.         0.8213    40.49       0.2        1.853
     4.4        0.         8.254     36.63       0.2        2.222
     4.4        0.        19.1       22.95       0.2        1.112
     4.4        0.        24.2       18.15       0.2        1.111
     4.4        0.        29.86      12.98       0.2        1.112
     4.4        0.        34.42       7.622      0.2        0.7406
     4.4        0.        39.47       5.042      0.2        0.5554
     4.4        0.        43.95       3.572      0.2        0.7406
     4.4        0.        49.51       3.215      0.2        0.5554
     4.4        0.        58.9        4.904      0.2        0.5568
     4.4        0.        68.29       7.334      0.2        0.5568
     4.4        0.        79.33      10.14       0.2        0.7419
     4.4        0.        89.3       11.09       0.2        0.5568
     4.4        0.       100.4       11.11       0.2        0.5568
     4.4        0.       109.3        8.915      0.2        0.5554
     4.4        0.       119.9        7.089      0.2        0.5554
     4.4        0.       129.9        7.298      0.2        0.5568
     4.4        0.       139.8       11.03       0.2        0.9257
     4.4        0.       149.6       19.01       0.2        1.296
     4.4        4.439      0.7909    97.86       0.8        4.795
     4.4        4.439     11.54      91.51       0.8        3.999
     4.4        4.439     21.55      76.37       0.8        3.999
     4.4        4.439     26.26      67.6        0.8        3.999
     4.4        4.439     31.57      57.23       0.8        2.399
     4.4        4.439     37.46      46.87       0.8        2.399
     4.4        4.439     42.17      40.5        0.8        1.599
     4.4        4.439     46.88      34.13       0.8        2.399
     4.4        4.439     52.19      29.36       0.8        2.399
     4.4        4.439     61.61      25.41       0.8        1.599
     4.4        4.439     71.04      21.47       0.8        1.599
     4.4        4.439     82.23      19.13       0.8        1.599
     4.4        4.439     90.48      18.38       0.8        2.399
     4.4        4.439    100.5       16.83       0.8        2.399
     4.4        4.439    110.5       16.89       0.8        1.599
     4.4        4.439    119.9       16.14       0.8        1.603
     4.4        4.439    130.5       16.2        0.8        1.599
     4.4        4.439    140.6       14.66       0.8        2.403
     4.4        4.439    150.        12.31       0.8        1.599
     4.4        7.656      0.5462    11.02       0.1        0.4806
     4.4        7.656      9.072     10.55       0.1        1.153
     4.4        7.656     18.89       9.021      0.1        0.4806
     4.4        7.656     23.5        8.544      0.1        0.7686
     4.4        7.656     28.66       8.163      0.1        0.3845
     4.4        7.656     33.28       7.493      0.1        0.3849
     4.4        7.656     38.42       7.593      0.1        0.3841
     4.4        7.656     43.         7.404      0.1        0.4802
     4.4        7.656     48.73       7.216      0.1        0.4806
     4.4        7.656     58.99       7.512      0.1        0.4806
     4.4        7.656     69.31       7.135      0.1        0.5768
     4.4        7.656     78.55       5.604      0.1        0.4806
     4.4        7.656     88.33       4.746      0.1        0.4802
     4.4        7.656     98.68       3.792      0.1        0.3849
     4.4        7.656    108.5        2.934      0.1        0.3849
     4.4        7.656    119.3        2.461      0.1        0.2884
     4.4        7.656    129.6        2.372      0.1        0.2884
     4.4        7.656    138.2        2.09       0.1        0.1922
     4.4        7.656    149.1        2.098      0.1        0.1922
     4.65       0.         0.8332    26.79       0.2        1.509
     4.65       0.         2.84      25.5        0.2        1.322
     4.65       0.        13.81      17.79       0.2        0.9444
     4.65       0.        24.17      11.03       0.2        0.7558
     4.65       0.        34.43       6.146      0.2        0.7544
     4.65       0.        43.43       4.093      0.2        0.7544
     4.65       0.        54.         3.554      0.2        0.5658
     4.65       0.        63.91       5.087      0.2        0.7544
     4.65       0.        74.38       6.433      0.2        0.7544
     4.65       0.        83.16       8.341      0.2        0.5672
     4.65       0.        93.69       8.556      0.2        0.5658
     4.65       0.       104.3        6.696      0.2        0.7544
     4.65       0.       113.9        4.833      0.2        0.7544
     4.65       0.       124.4        4.671      0.2        0.5658
     4.65       0.       133.7        7.523      0.2        0.5672
     4.65       0.       144.        13.02       0.2        0.7544
     4.65       4.439      0.8758    79.99       0.8        3.845
     4.65       4.439      5.79      78.52       0.8        4.614
     4.65       4.439     16.59      66.28       0.8        3.076
     4.65       4.439     26.82      53.27       0.8        2.307
     4.65       4.439     37.66      38.73       0.8        2.307
     4.65       4.439     46.02      31.86       0.8        1.538
     4.65       4.439     57.35      24.25       0.8        2.303
     4.65       4.439     67.41      22.77       0.8        2.307
     4.65       4.439     76.89      20.53       0.8        1.538
     4.65       4.439     86.34      19.82       0.8        3.076
     4.65       4.439     96.38      19.12       0.8        1.538
     4.65       4.439    106.4       19.18       0.8        2.307
     4.65       4.439    116.5       18.48       0.8        1.538
     4.65       4.439    126.5       19.31       0.8        2.307
     4.65       4.439    135.9       22.45       0.8        2.303
     4.65       4.439    146.5       22.52       0.8        2.307
     4.65       7.656      0.5911     8.241      0.1        0.6546
     4.65       7.656      6.955      8.438      0.1        0.3738
     4.65       7.656     16.17       7.7        0.1        0.5606
     4.65       7.656     27.01       7.71       0.1        0.3738
     4.65       7.656     36.73       7.439      0.1        0.3738
     4.65       7.656     46.35       8.197      0.1        0.5606
     4.65       7.656     56.74       7.085      0.1        0.4678
     4.65       7.656     66.54       6.254      0.1        0.4672
     4.65       7.656     75.79       5.142      0.1        0.4672
     4.65       7.656     86.8        3.658      0.1        0.3738
     4.65       7.656     97.15       2.92       0.1        0.2803
     4.65       7.656    106.3        2.556      0.1        0.1869
     4.65       7.656    116.6        2.566      0.1        0.2803
     4.65       7.656    127.4        2.857      0.1        0.2803
     4.65       7.656    136.5        3.333      0.1        0.2803
     4.65       7.656    146.7        3.717      0.1        0.3738
     4.86       0.         0.7264    10.74       0.2        0.5556
     4.86       0.        11.78      12.41       0.2        0.7407
     4.86       0.        22.28      13.15       0.2        0.9259
     4.86       0.        33.34      14.07       0.2        0.7407
     4.86       0.        42.41      11.85       0.2        0.7407
     4.86       0.        51.2        7.037      0.2        0.7407
     4.86       0.        60.13       3.519      0.2        0.5556
     4.86       0.        69.92       2.778      0.2        0.5556
     4.86       0.        80.56       4.815      0.2        0.5556
     4.86       0.        90.63       6.667      0.2        0.5556
     4.86       0.       101.7        7.222      0.2        0.5556
     4.86       0.       110.9        6.111      0.2        0.5556
     4.86       0.       120.5        3.704      0.2        0.5556
     4.86       0.       129.6        2.407      0.2        0.5556
     4.86       0.       140.2        4.074      0.2        0.7407
     4.86       0.       150.1        8.704      0.2        0.5556
     4.86       4.439      0.8752    76.48       0.8        3.463
     4.86       4.439     11.33      75.08       0.8        4.156
     4.86       4.439     21.59      59.83       0.8        3.072
     4.86       4.439     31.78      48.73       0.8        2.078
     4.86       4.439     41.42      34.87       0.8        2.078
     4.86       4.439     52.17      25.85       0.8        1.385
     4.86       4.439     61.1       20.3        0.8        2.078
     4.86       4.439     71.74      18.9        0.8        1.385
     4.86       4.439     81.78      17.5        0.8        1.385
     4.86       4.439     91.22      17.49       0.8        1.385
     4.86       4.439    100.7       16.09       0.8        1.385
     4.86       4.439    111.3       15.38       0.8        1.385
     4.86       4.439    120.7       16.06       0.8        1.385
     4.86       4.439    131.3       16.74       0.8        1.385
     4.86       4.439    141.3       18.81       0.8        1.385
     4.86       4.439    151.3       20.87       0.8        1.385
     4.86       7.656      0.706     11.7        0.1        0.5704
     4.86       7.656      8.997     11.33       0.1        0.6656
     4.86       7.656     18.84       8.869      0.1        0.5727
     4.86       7.656     28.57       8.216      0.1        0.2856
     4.86       7.656     38.84       7.754      0.1        0.3808
     4.86       7.656     47.89       8.624      0.1        0.5712
     4.86       7.656     58.2        7.781      0.1        0.476
     4.86       7.656     69.14       5.988      0.1        0.3816
     4.86       7.656     77.8        4.191      0.1        0.3808
     4.86       7.656     88.72       2.588      0.1        0.2856
     4.86       7.656     98.47       1.554      0.1        0.1904
     4.86       7.656    109.3        1.284      0.1        0.2856
     4.86       7.656    119.         1.583      0.1        0.2856
     4.86       7.656    128.6        2.072      0.1        0.2864
     4.86       7.656    138.8        2.848      0.1        0.2856
     4.86       7.656    148.4        3.337      0.1        0.2856
     4.98       0.         0.8355     5.032      0.2        0.9089
     4.98       0.         5.781      5.585      0.2        0.5453
     4.98       0.        10.61       8.137      0.2        0.7279
     4.98       0.        20.68      15.97       0.2        0.9081
     4.98       0.        24.42      18.34       0.2        0.9097
     4.98       0.        29.87      19.62       0.2        0.9089
     4.98       0.        34.31      19.44       0.2        1.273
     4.98       0.        40.07      15.27       0.2        0.9089
     4.98       0.        50.44       7.834      0.2        0.7279
     4.98       0.        59.         3.12       0.2        0.9089
     4.98       0.        64.05       1.855      0.2        0.7271
     4.98       0.        69.56       2.227      0.2        0.5453
     4.98       0.        79.92       4.788      0.2        0.7279
     4.98       0.        89.18       7.165      0.2        0.7271
     4.98       0.        99.11       7.543      0.2        0.7271
     4.98       0.       109.2        5.741      0.2        0.5453
     4.98       0.       118.7        3.028      0.2        0.7271
     4.98       0.       128.7        1.952      0.2        0.7271
     4.98       0.       139.1        3.604      0.2        0.7271
     4.98       0.       144.6        5.248      0.2        0.9089
     4.98       0.       149.4        8.346      0.2        0.7279
     4.98       4.439      0.7657    95.71       0.8        3.96
     4.98       4.439      4.049     94.12       0.8        5.544
     4.98       4.439      8.884     90.16       0.8        5.544
     4.98       4.439     18.63      74.32       0.8        4.752
     4.98       4.439     23.5       66.4        0.8        3.96
     4.98       4.439     28.99      56.1        0.8        3.168
     4.98       4.439     34.45      48.98       0.8        2.376
     4.98       4.439     39.35      37.89       0.8        2.376
     4.98       4.439     49.05      26.8        0.8        2.376
     4.98       4.439     59.3       22.05       0.8        1.584
     4.98       4.439     64.1       21.25       0.8        1.584
     4.98       4.439     70.11      20.46       0.8        1.584
     4.98       4.439     79.71      20.46       0.8        1.584
     4.98       4.439     89.92      19.7        0.8        1.584
     4.98       4.439    100.1       18.88       0.8        1.584
     4.98       4.439    109.7       18.08       0.8        1.584
     4.98       4.439    119.3       18.88       0.8        1.584
     4.98       4.439    130.1       21.25       0.8        1.584
     4.98       4.439    140.3       24.42       0.8        2.376
     4.98       4.439    145.7       26.01       0.8        2.376
     4.98       4.439    150.4       27.59       0.8        2.376
     4.98       7.656      0.5853    16.04       0.1        0.6676
     4.98       7.656      3.668     15.66       0.1        0.5723
     4.98       7.656      8.314     14.42       0.1        0.763
     4.98       7.656     18.27      10.71       0.1        0.5723
     4.98       7.656     23.5        9.285      0.1        0.4769
     4.98       7.656     28.18       7.571      0.1        0.4765
     4.98       7.656     33.39       6.431      0.1        0.3815
     4.98       7.656     39.13       5.767      0.1        0.1908
     4.98       7.656     48.21       6.251      0.1        0.2861
     4.98       7.656     58.98       6.832      0.1        0.4769
     4.98       7.656     62.99       6.549      0.1        0.4769
     4.98       7.656     68.78       5.313      0.1        0.3815
     4.98       7.656     78.57       3.795      0.1        0.3815
     4.98       7.656     88.38       1.99       0.1        0.2861
     4.98       7.656     98.14       0.9483     0.1        0.1908
     4.98       7.656    108.4        0.8608     0.1        0.2861
     4.98       7.656    118.6        1.345      0.1        0.2861
     4.98       7.656    128.8        1.735      0.1        0.2861
     4.98       7.656    139.1        2.124      0.1        0.2861
     4.98       7.656    143.6        2.319      0.1        0.2861
     4.98       7.656    148.7        2.513      0.1        0.2861
     5.11       0.         0.8116     3.876      0.2        0.5404
     5.11       0.         5.535      4.602      0.2        0.5404
     5.11       0.        11.06       6.771      0.2        0.7212
     5.11       0.        15.49      10.38       0.2        0.7212
     5.11       0.        21.01      13.99       0.2        0.9013
     5.11       0.        25.99      16.34       0.2        0.9013
     5.11       0.        30.97      19.58       0.2        1.261
     5.11       0.        35.39      19.05       0.2        1.261
     5.11       0.        40.92      16.54       0.2        0.9006
     5.11       0.        50.32      10.42       0.2        0.7205
     5.11       0.        59.72       3.951      0.2        0.7205
     5.11       0.        70.23       1.984      0.2        0.5411
     5.11       0.        79.63       3.977      0.2        0.7212
     5.11       0.        90.13       5.972      0.2        0.7205
     5.11       0.       100.1        7.065      0.2        0.7205
     5.11       0.       110.         5.457      0.2        0.7205
     5.11       0.       118.9        2.947      0.2        0.7205
     5.11       0.       129.9        2.06       0.2        0.5404
     5.11       0.       139.3        3.333      0.2        0.7212
     5.11       0.       149.3        6.949      0.2        0.7212
     5.11       4.439      0.659     89.36       0.8        4.87
     5.11       4.439      5.424     86.92       0.8        4.058
     5.11       4.439     10.78      84.47       0.8        4.87
     5.11       4.439     15.62      77.16       0.8        4.87
     5.11       4.439     19.84      71.47       0.8        4.058
     5.11       4.439     25.87      63.34       0.8        4.058
     5.11       4.439     30.68      57.65       0.8        4.06
     5.11       4.439     35.56      47.9        0.8        1.623
     5.11       4.439     40.39      40.59       0.8        2.435
     5.11       4.439     50.57      31.64       0.8        1.623
     5.11       4.439     60.69      26.75       0.8        2.435
     5.11       4.439     70.78      24.29       0.8        1.623
     5.11       4.439     80.85      22.65       0.8        2.435
     5.11       4.439     90.32      21.82       0.8        1.623
     5.11       4.439    100.4       20.18       0.8        1.623
     5.11       4.439    109.9       18.54       0.8        1.623
     5.11       4.439    120.5       18.51       0.8        1.623
     5.11       4.439    130.5       20.12       0.8        2.435
     5.11       4.439    140.        22.54       0.8        1.623
     5.11       4.439    149.4       26.58       0.8        1.623
     5.11       7.656      0.4298    13.56       0.1        0.6731
     5.11       7.656      4.152     13.17       0.1        0.7692
     5.11       7.656      9.872     12.79       0.1        0.6731
     5.11       7.656     14.52      11.44       0.1        0.5769
     5.11       7.656     19.16      10.29       0.1        0.6731
     5.11       7.656     23.78       9.327      0.1        0.5769
     5.11       7.656     29.55       8.269      0.1        0.5769
     5.11       7.656     34.19       7.115      0.1        0.3846
     5.11       7.656     39.38       6.154      0.1        0.3846
     5.11       7.656     49.1        5.673      0.1        0.3846
     5.11       7.656     59.39       5.         0.1        0.2885
     5.11       7.656     69.14       3.942      0.1        0.2885
     5.11       7.656     78.9        2.789      0.1        0.1923
     5.11       7.656     89.24       1.538      0.1        0.2885
     5.11       7.656     98.96       0.9615     0.1        0.1923
     5.11       7.656    109.2        0.7692     0.1        0.2885
     5.11       7.656    119.4        1.058      0.1        0.2885
     5.11       7.656    129.7        1.346      0.1        0.2885
     5.11       7.656    139.3        1.635      0.1        0.2885
     5.11       7.656    150.1        1.827      0.1        0.2885
     5.29       0.         0.8527    11.09       0.2        0.7266
     5.29       0.         5.513     11.09       0.2        0.9096
     5.29       0.        11.09      12.74       0.2        0.909
     5.29       0.        21.68      16.57       0.2        1.091
     5.29       0.        26.58      16.98       0.2        0.9621
     5.29       0.        31.16      17.49       0.2        0.909
     5.29       0.        41.2       14.95       0.2        1.091
     5.29       0.        50.68       8.417      0.2        0.5454
     5.29       0.        60.72       3.338      0.2        0.7272
     5.29       0.        70.19       1.894      0.2        0.5454
     5.29       0.        80.79       2.269      0.2        0.5454
     5.29       0.        90.27       3.733      0.2        0.546
     5.29       0.       100.3        4.29       0.2        0.5454
     5.29       0.       110.3        3.755      0.2        0.546
     5.29       0.       120.4        3.402      0.2        0.7272
     5.29       0.       130.4        2.686      0.2        0.7272
     5.29       0.       140.4        3.061      0.2        0.546
     5.29       0.       151.6        4.345      0.2        0.5454
     5.29       4.439      0.4348    86.51       0.8        4.085
     5.29       4.439      5.669     85.74       0.8        7.338
     5.29       4.439     10.32      85.79       0.8        5.711
     5.29       4.439     19.62      74.45       0.8        5.706
     5.29       4.439     24.86      67.97       0.8        4.079
     5.29       4.439     29.51      59.85       0.8        3.258
     5.29       4.439     39.97      47.71       0.8        4.064
     5.29       4.439     49.28      33.92       0.8        2.448
     5.29       4.439     60.33      26.68       0.8        2.448
     5.29       4.439     69.63      21.06       0.8        1.637
     5.29       4.439     78.93      18.69       0.8        2.448
     5.29       4.439     89.4       18.79       0.8        1.637
     5.29       4.439     99.29      18.88       0.8        2.442
     5.29       4.439    109.2       18.2        0.8        2.448
     5.29       4.439    119.1       21.5        0.8        1.632
     5.29       4.439    128.9       20.78       0.8        1.632
     5.29       4.439    138.3       23.31       0.8        2.448
     5.29       4.439    148.7       24.22       0.8        2.448
     5.29       7.656      0.5624     8.518      0.1        0.5713
     5.29       7.656      4.277      8.808      0.1        0.3809
     5.29       7.656      9.219      9.765      0.1        0.4761
     5.29       7.656     19.15      11.3        0.1        0.6665
     5.29       7.656     24.72      11.68       0.1        0.5713
     5.29       7.656     29.77      11.69       0.1        0.4761
     5.29       7.656     39.98      10.65       0.1        0.5713
     5.29       7.656     49.89       7.421      0.1        0.4761
     5.29       7.656     59.7        4.954      0.1        0.3809
     5.29       7.656     69.46       3.059      0.1        0.2857
     5.29       7.656     80.82       1.831      0.1        0.2857
     5.29       7.656     90.4        1.459      0.1        0.3809
     5.29       7.656     99.97       1.182      0.1        0.1904
     5.29       7.656    110.         1.381      0.1        0.2857
     5.29       7.656    119.5        1.771      0.1        0.2857
     5.29       7.656    129.6        1.971      0.1        0.2857
     5.29       7.656    139.7        2.17       0.1        0.2857
     5.29       7.656    149.2        2.464      0.1        0.2857
     5.38       0.         0.7572    12.63       0.2        0.5504
     5.38       0.         6.206     13.92       0.2        0.5508
     5.38       0.        10.65      14.84       0.2        0.9177
     5.38       0.        16.77      17.96       0.2        1.101
     5.38       0.        21.22      20.9        0.2        1.468
     5.38       0.        26.78      21.09       0.2        1.101
     5.38       0.        31.78      18.52       0.2        1.101
     5.38       0.        41.23      12.66       0.2        0.9177
     5.38       0.        51.24       7.709      0.2        0.7335
     5.38       0.        61.25       3.496      0.2        0.7339
     5.38       0.        71.25       1.668      0.2        0.5504
     5.38       0.        80.15       1.49       0.2        0.5504
     5.38       0.        90.72       2.598      0.2        0.5508
     5.38       0.       100.7        3.155      0.2        0.5504
     5.38       0.       110.7        3.712      0.2        0.5504
     5.38       0.       120.7        3.352      0.2        0.7339
     5.38       0.       131.3        2.625      0.2        0.5504
     5.38       0.       141.3        2.632      0.2        0.5504
     5.38       0.       151.3        3.372      0.2        0.7339
     5.38       4.439      0.5145    86.72       0.8        2.376
     5.38       4.439      4.842     88.34       0.8        4.752
     5.38       4.439      9.506     83.62       0.8        5.539
     5.38       4.439     14.72      84.45       0.8        4.752
     5.38       4.439     19.35      85.28       0.8        5.543
     5.38       4.439     24.04      75.81       0.8        5.543
     5.38       4.439     29.35      60.8        0.8        5.543
     5.38       4.439     39.29      45.81       0.8        3.168
     5.38       4.439     48.62      36.39       0.8        2.376
     5.38       4.439     59.67      28.56       0.8        1.584
     5.38       4.439     70.13      23.88       0.8        1.584
     5.38       4.439     79.42      22.37       0.8        1.584
     5.38       4.439     89.86      20.85       0.8        2.376
     5.38       4.439     98.54      22.5        0.8        1.584
     5.38       4.439    109.        22.58       0.8        1.584
     5.38       4.439    118.8       22.66       0.8        1.584
     5.38       4.439    128.7       22.73       0.8        2.376
     5.38       4.439    138.5       25.97       0.8        1.584
     5.38       4.439    148.9       26.05       0.8        2.376
     5.38       7.656      0.7675     9.618      0.1        0.5713
     5.38       7.656      4.512     10.         0.1        0.5713
     5.38       7.656     10.05      10.58       0.1        0.6666
     5.38       7.656     14.96      12.2        0.1        0.6669
     5.38       7.656     20.4       14.3        0.1        0.7614
     5.38       7.656     24.88      13.92       0.1        0.6669
     5.38       7.656     30.05      11.73       0.1        0.4761
     5.38       7.656     39.67       9.642      0.1        0.6669
     5.38       7.656     49.3        7.363      0.1        0.3809
     5.38       7.656     59.67       5.109      0.1        0.3799
     5.38       7.656     69.08       3.376      0.1        0.3809
     5.38       7.656     79.74       2.43       0.1        0.2857
     5.38       7.656     89.25       1.96       0.1        0.2857
     5.38       7.656     99.31       1.681      0.1        0.2857
     5.38       7.656    109.3        1.877      0.1        0.2857
     5.38       7.656    119.9        2.074      0.1        0.2857
     5.38       7.656    129.4        1.985      0.1        0.3809
     5.38       7.656    138.9        2.277      0.1        0.2857
     5.38       7.656    148.3        2.664      0.1        0.2857
     5.52       0.         0.8915    10.74       0.2        0.5552
     5.52       0.         9.027     12.61       0.2        0.9254
     5.52       0.        18.91      15.41       0.2        0.7416
     5.52       0.        29.44      15.81       0.2        0.7416
     5.52       0.        39.55      11.76       0.2        0.7403
     5.52       0.        48.59       6.783      0.2        0.5552
     5.52       0.        58.69       3.291      0.2        0.5552
     5.52       0.        77.61       1.301      0.2        0.5566
     5.52       0.        98.1        1.906      0.2        0.5552
     5.52       0.       117.5        3.619      0.2        0.7403
     5.52       0.       138.5        2.93       0.2        0.7403
     5.52       0.       148.         2.767      0.2        0.5552
     5.52       0.       158.5        2.423      0.2        0.5552
     5.52       4.439      0.5789    85.89       0.8        3.959
     5.52       4.439     10.88      81.97       0.8        4.753
     5.52       4.439     20.19      67.76       0.8        3.17
     5.52       4.439     30.66      56.72       0.8        3.164
     5.52       4.439     40.54      43.31       0.8        1.584
     5.52       4.439     50.43      33.85       0.8        1.584
     5.52       4.439     60.9       26.77       0.8        1.584
     5.52       4.439     80.67      24.49       0.8        2.375
     5.52       4.439    101.        24.58       0.8        1.584
     5.52       4.439    120.2       23.09       0.8        2.375
     5.52       4.439    139.4       20.8        0.8        1.584
     5.52       4.439    149.3       20.06       0.8        1.584
     5.52       4.439    160.3       19.32       0.8        1.584
     5.52       7.656      0.6649     8.347      0.1        0.5713
     5.52       7.656      9.579      9.687      0.1        0.5713
     5.52       7.656     19.61      10.36       0.1        0.5713
     5.52       7.656     30.26      10.08       0.1        0.6666
     5.52       7.656     39.95       7.516      0.1        0.6662
     5.52       7.656     49.05       5.331      0.1        0.2857
     5.52       7.656     59.79       3.719      0.1        0.2857
     5.52       7.656     80.6        2.208      0.1        0.2857
     5.52       7.656     99.65       1.935      0.1        0.2857
     5.52       7.656    119.8        1.662      0.1        0.2857
     5.52       7.656    139.4        2.245      0.1        0.2857
     5.52       7.656    148.9        2.251      0.1        0.2857
     5.52       7.656    155.6        2.16       0.1        0.2857
     5.66       0.         0.7978     6.715      0.2        0.5553
     5.66       0.         8.108      9.132      0.2        0.5553
     5.66       0.        18.53      14.51       0.2        1.11
     5.66       0.        28.56      14.89       0.2        0.7404
     5.66       0.        38.72      11.57       0.2        0.5553
     5.66       0.        48.37       6.77       0.2        0.5553
     5.66       0.        58.52       3.635      0.2        0.5553
     5.66       0.        78.71       0.6954     0.2        1.11
     5.66       0.        98.2        2.013      0.2        0.7404
     5.66       0.       117.7        3.515      0.2        0.7404
     5.66       0.       138.3        3.723      0.2        0.5553
     5.66       0.       149.5        3.55       0.2        0.5553
     5.66       0.       159.5        3.191      0.2        0.5553
     5.66       4.439      0.4366    97.52       0.8        4.755
     5.66       4.439     11.14      93.6        0.8        5.547
     5.66       4.439     21.01      78.6        0.8        3.957
     5.66       4.439     30.87      59.63       0.8        3.96
     5.66       4.439     41.32      44.63       0.8        1.584
     5.66       4.439     43.64      40.69       0.8        1.584
     5.66       4.439     51.76      32.01       0.8        1.584
     5.66       4.439     59.31      26.5        0.8        1.584
     5.66       4.439     61.05      25.72       0.8        1.584
     5.66       4.439     80.78      23.43       0.8        1.584
     5.66       4.439    101.1       24.32       0.8        2.376
     5.66       4.439    121.4       22.83       0.8        1.584
     5.66       4.439    140.5       16.58       0.8        2.376
     5.66       4.439    151.        15.84       0.8        1.584
     5.66       4.439    160.3       13.5        0.8        1.584
     5.66       7.656      0.5803     5.991      0.1        0.4677
     5.66       7.656     12.51       7.682      0.1        0.5607
     5.66       7.656     22.58      10.4        0.1        0.5607
     5.66       7.656     32.09       9.756      0.1        0.5607
     5.66       7.656     42.72       8.083      0.1        0.6541
     5.66       7.656     52.22       4.728      0.1        0.2803
     5.66       7.656     62.29       3.428      0.1        0.2803
     5.66       7.656     81.87       2.138      0.1        0.2803
     5.66       7.656    102.         1.595      0.1        0.2803
     5.66       7.656    122.1        1.8        0.1        0.2803
     5.66       7.656    141.7        2.098      0.1        0.2803
     5.66       7.656    151.2        2.013      0.1        0.2803
     5.66       7.656    161.9        1.742      0.1        0.2803
     5.8        0.         0.8978     4.386      0.2        0.7018
     5.8        0.         6.897      4.561      0.2        0.7018
     5.8        0.        11.29       5.614      0.2        0.7018
     5.8        0.        17.83       8.07       0.2        0.7018
     5.8        0.        22.77       9.298      0.2        0.8772
     5.8        0.        27.13      11.05       0.2        0.7018
     5.8        0.        32.16      10.7        0.2        0.7018
     5.8        0.        36.05      10.7        0.2        0.5263
     5.8        0.        41.67       9.825      0.2        0.5263
     5.8        0.        46.78       8.07       0.2        0.5263
     5.8        0.        51.89       6.14       0.2        0.7018
     5.8        0.        61.5        3.509      0.2        0.5263
     5.8        0.        71.62       1.754      0.2        0.5263
     5.8        0.        81.1        1.403      0.2        0.5263
     5.8        0.        91.68       1.228      0.2        0.5263
     5.8        0.       101.1        1.754      0.2        0.5263
     5.8        0.       111.6        2.807      0.2        0.7018
     5.8        0.       122.2        3.684      0.2        0.8772
     5.8        0.       131.1        3.86       0.2        0.5263
     5.8        0.       142.7        4.035      0.2        0.8772
     5.8        0.       152.2        4.035      0.2        0.5263
     5.8        4.439      0.4289    86.85       0.8        4.704
     5.8        4.439      3.613     86.87       0.8        6.273
     5.8        4.439      8.896     79.84       0.8        4.707
     5.8        4.439     13.55      78.3        0.8        5.488
     5.8        4.439     18.28      68.14       0.8        3.136
     5.8        4.439     23.57      60.32       0.8        4.704
     5.8        4.439     28.3       50.94       0.8        5.485
     5.8        4.439     32.97      47.05       0.8        2.349
     5.8        4.439     38.24      42.37       0.8        1.571
     5.8        4.439     43.51      36.13       0.8        2.352
     5.8        4.439     48.2       31.45       0.8        2.352
     5.8        4.439     58.69      26.02       0.8        2.352
     5.8        4.439     68.6       20.58       0.8        1.568
     5.8        4.439     77.89      19.85       0.8        1.568
     5.8        4.439     87.75      19.9        0.8        1.568
     5.8        4.439     98.19      20.74       0.8        1.568
     5.8        4.439    108.6       20.8        0.8        2.352
     5.8        4.439    117.9       20.85       0.8        2.352
     5.8        4.439    127.2       18.55       0.8        1.568
     5.8        4.439    137.1       17.04       0.8        1.568
     5.8        4.439    147.6       15.53       0.8        1.568
     5.8        7.656      0.6333     3.863      0.1        0.2829
     5.8        7.656      4.385      4.151      0.1        0.2829
     5.8        7.656      8.836      4.532      0.1        0.3773
     5.8        7.656     14.33       6.046      0.1        0.3773
     5.8        7.656     19.31       6.9        0.1        0.3773
     5.8        7.656     25.42       7.66       0.1        0.2829
     5.8        7.656     29.89       7.664      0.1        0.2829
     5.8        7.656     34.93       7.668      0.1        0.3773
     5.8        7.656     40.02       6.918      0.1        0.4716
     5.8        7.656     44.58       5.696      0.1        0.3773
     5.8        7.656     49.13       4.569      0.1        0.3773
     5.8        7.656     59.31       3.069      0.1        0.3773
     5.8        7.656     69.99       2.324      0.1        0.2835
     5.8        7.656     79.52       2.144      0.1        0.2835
     5.8        7.656     89.61       1.776      0.1        0.2829
     5.8        7.656    100.3        1.502      0.1        0.2829
     5.8        7.656    109.2        1.322      0.1        0.2829
     5.8        7.656    118.8        1.236      0.1        0.1886
     5.8        7.656    129.4        1.151      0.1        0.2829
     5.8        7.656    139.5        1.349      0.1        0.2829
     5.8        7.656    149.         1.357      0.1        0.2829
     5.9        0.         0.8188     5.893      0.2        0.5357
     5.9        0.         6.181      5.714      0.2        0.5357
     5.9        0.        11.68       6.964      0.2        0.5357
     5.9        0.        17.14       8.75       0.2        0.5357
     5.9        0.        22.07      10.18       0.2        0.7143
     5.9        0.        27.        11.61       0.2        0.8929
     5.9        0.        32.01      11.61       0.2        0.7143
     5.9        0.        36.54      10.18       0.2        0.7143
     5.9        0.        42.22       8.214      0.2        0.5357
     5.9        0.        46.76       6.607      0.2        0.5357
     5.9        0.        51.27       5.536      0.2        0.7143
     5.9        0.        61.43       3.036      0.2        0.7143
     5.9        0.        71.52       1.786      0.2        0.5357
     5.9        0.        82.1        1.607      0.2        0.5357
     5.9        0.        91.57       1.429      0.2        0.5357
     5.9        0.       101.6        1.786      0.2        0.5357
     5.9        0.       111.         2.5        0.2        0.5357
     5.9        0.       121.         3.393      0.2        0.5357
     5.9        0.       131.         3.75       0.2        0.3571
     5.9        0.       140.9        4.643      0.2        1.071
     5.9        0.       152.1        4.643      0.2        0.5357
     5.9        4.439      0.5669    83.1        0.8        5.492
     5.9        4.439      3.442     79.99       0.8        4.708
     5.9        4.439      8.665     80.01       0.8        6.277
     5.9        4.439     13.35      74.54       0.8        3.921
     5.9        4.439     18.67      64.37       0.8        3.137
     5.9        4.439     23.34      60.47       0.8        4.703
     5.9        4.439     27.47      52.65       0.8        4.706
     5.9        4.439     33.36      43.26       0.8        2.355
     5.9        4.439     38.05      37.01       0.8        2.353
     5.9        4.439     43.33      30.76       0.8        1.569
     5.9        4.439     48.57      28.43       0.8        1.569
     5.9        4.439     59.07      22.2        0.8        2.353
     5.9        4.439     68.4       17.54       0.8        1.569
     5.9        4.439     78.27      16.8        0.8        2.353
     5.9        4.439     88.72      16.07       0.8        1.569
     5.9        4.439     98.58      16.89       0.8        1.569
     5.9        4.439    107.9       17.72       0.8        2.353
     5.9        4.439    117.7       16.98       0.8        1.569
     5.9        4.439    127.        17.02       0.8        1.569
     5.9        4.439    137.5       13.94       0.8        1.571
     5.9        4.439    146.8       13.19       0.8        2.353
     5.9        7.656      0.5069     2.688      0.1        0.283
     5.9        7.656      4.182      2.691      0.1        0.283
     5.9        7.656      9.149      3.92       0.1        0.283
     5.9        7.656     14.66       5.433      0.1        0.4719
     5.9        7.656     19.61       6.945      0.1        0.4716
     5.9        7.656     24.57       8.269      0.1        0.6602
     5.9        7.656     29.63       7.989      0.1        0.5659
     5.9        7.656     35.31       7.049      0.1        0.4716
     5.9        7.656     39.84       6.392      0.1        0.3773
     5.9        7.656     44.41       5.168      0.1        0.3773
     5.9        7.656     49.53       4.228      0.1        0.283
     5.9        7.656     59.72       2.82       0.1        0.283
     5.9        7.656     69.31       2.071      0.1        0.283
     5.9        7.656     79.42       1.889      0.1        0.283
     5.9        7.656     89.53       1.706      0.1        0.283
     5.9        7.656     99.09       1.429      0.1        0.283
     5.9        7.656    109.2        1.153      0.1        0.283
     5.9        7.656    118.8        0.9698     0.1        0.1886
     5.9        7.656    129.4        0.9764     0.1        0.1886
     5.9        7.656    139.         0.9823     0.1        0.283
     5.9        7.656    148.5        1.271      0.1        0.283
     6.         0.         0.8049     7.636      0.2        0.5455
     6.         0.         5.878      7.273      0.2        0.5455
     6.         0.        11.4        8.         0.2        0.7273
     6.         0.        16.35       9.091      0.2        0.5455
     6.         0.        21.31      10.         0.2        0.5455
     6.         0.        26.28      10.73       0.2        0.7273
     6.         0.        31.83      10.91       0.2        0.5455
     6.         0.        36.4        8.909      0.2        0.5455
     6.         0.        40.92       7.636      0.2        0.5455
     6.         0.        46.01       6.182      0.2        0.7273
     6.         0.        51.1        4.727      0.2        0.5455
     6.         0.        60.67       2.727      0.2        0.5455
     6.         0.        70.75       1.636      0.2        0.7273
     6.         0.        81.36       1.091      0.2        0.5455
     6.         0.        90.82       1.091      0.2        0.5455
     6.         0.       100.8        1.454      0.2        0.7273
     6.         0.       110.2        2.         0.2        0.7273
     6.         0.       120.2        2.909      0.2        0.5455
     6.         0.       130.2        3.454      0.2        0.5455
     6.         0.       141.3        3.818      0.2        0.7273
     6.         0.       151.3        4.545      0.2        0.7273
     6.         4.439      0.638     65.41       0.8        3.92
     6.         4.439      5.651     63.84       0.8        3.136
     6.         4.439     10.36      62.3        0.8        3.136
     6.         4.439     15.14      55.98       0.8        3.92
     6.         4.439     20.52      48.91       0.8        2.352
     6.         4.439     25.21      48.91       0.8        2.352
     6.         4.439     29.96      44.98       0.8        3.92
     6.         4.439     35.36      36.34       0.8        2.352
     6.         4.439     40.11      32.42       0.8        2.353
     6.         4.439     45.44      28.49       0.8        2.352
     6.         4.439     50.75      26.13       0.8        1.568
     6.         4.439     61.39      19.83       0.8        1.568
     6.         4.439     70.83      15.9        0.8        1.568
     6.         4.439     81.41      14.31       0.8        1.568
     6.         4.439     90.79      14.29       0.8        1.568
     6.         4.439    101.3       14.27       0.8        1.568
     6.         4.439    110.1       15.04       0.8        1.568
     6.         4.439    120.7       15.01       0.8        1.568
     6.         4.439    130.1       15.         0.8        1.568
     6.         4.439    140.        14.2        0.8        2.352
     6.         4.439    150.        12.61       0.8        1.568
     6.         7.656      0.5624     1.401      0.1        0.2912
     6.         7.656      3.361      1.602      0.1        0.2912
     6.         7.656      8.983      2.581      0.1        0.3883
     6.         7.656     14.03       3.656      0.1        0.2912
     6.         7.656     19.04       5.702      0.1        0.5824
     6.         7.656     24.66       6.681      0.1        0.4853
     6.         7.656     29.72       7.659      0.1        0.3883
     6.         7.656     34.87       6.502      0.1        0.4853
     6.         7.656     39.98       6.121      0.1        0.4845
     6.         7.656     45.14       4.867      0.1        0.2912
     6.         7.656     49.13       4.29       0.1        0.2912
     6.         7.656     58.84       2.654      0.1        0.2912
     6.         7.656     69.07       1.893      0.1        0.2912
     6.         7.656     79.85       1.617      0.1        0.2912
     6.         7.656     89.49       1.535      0.1        0.2912
     6.         7.656     99.14       1.063      0.1        0.1941
     6.         7.656    109.3        0.9813     0.1        0.2912
     6.         7.656    119.6        0.8022     0.1        0.2912
     6.         7.656    129.2        0.8163     0.1        0.2912
     6.         7.656    138.8        0.8305     0.1        0.2912
     6.         7.656    149.         0.9426     0.1        0.2912
     6.24       0.         1.888      9.828      0.2        0.5172
     6.24       0.         6.078     10.         0.2        0.5172
     6.24       0.        11.06      10.34       0.2        0.5172
     6.24       0.        16.06      10.34       0.2        0.3448
     6.24       0.        20.49      10.52       0.2        0.5172
     6.24       0.        26.07      10.17       0.2        0.3448
     6.24       0.        31.13       9.138      0.2        0.6897
     6.24       0.        36.21       7.586      0.2        0.5172
     6.24       0.        41.86       5.862      0.2        0.5172
     6.24       0.        45.83       4.483      0.2        0.5172
     6.24       0.        50.88       3.621      0.2        0.6897
     6.24       0.        60.39       2.414      0.2        0.6897
     6.24       0.        70.98       1.724      0.2        0.5172
     6.24       0.        80.99       1.552      0.2        0.3448
     6.24       0.        90.43       1.552      0.2        0.3448
     6.24       0.       100.4        1.552      0.2        0.6897
     6.24       0.       108.7        2.069      0.2        0.6897
     6.24       0.       120.4        2.414      0.2        0.5172
     6.24       0.       130.4        2.414      0.2        0.5172
     6.24       0.       140.3        3.103      0.2        0.6897
     6.24       0.       150.9        3.621      0.2        0.5172
     6.24       4.439      0.3194    41.97       0.8        1.632
     6.24       4.439      5.033     40.33       0.8        1.632
     6.24       4.439      9.735     39.51       0.8        1.632
     6.24       4.439     15.64      36.23       0.8        1.632
     6.24       4.439     19.76      35.41       0.8        2.448
     6.24       4.439     25.08      32.13       0.8        2.448
     6.24       4.439     29.79      31.31       0.8        1.632
     6.24       4.439     35.12      27.22       0.8        2.448
     6.24       4.439     39.83      25.58       0.8        2.448
     6.24       4.439     45.73      23.12       0.8        2.448
     6.24       4.439     51.04      20.66       0.8        2.448
     6.24       4.439     61.06      17.38       0.8        2.448
     6.24       4.439     69.9       14.1        0.8        1.632
     6.24       4.439     80.47      12.45       0.8        2.448
     6.24       4.439     91.03      12.43       0.8        1.632
     6.24       4.439    101.        12.41       0.8        1.632
     6.24       4.439    109.8       10.76       0.8        1.632
     6.24       4.439    119.8        9.921      0.8        1.632
     6.24       4.439    130.3        9.901      0.8        1.632
     6.24       4.439    139.7        9.882      0.8        1.632
     6.24       4.439    150.3        9.86       0.8        2.448
     6.24       7.656      0.5467     1.017      0.1        0.2881
     6.24       7.656      4.132      1.402      0.1        0.2881
     6.24       7.656     10.34       2.46       0.1        0.2881
     6.24       7.656     15.41       3.902      0.1        0.3843
     6.24       7.656     19.36       5.247      0.1        0.2881
     6.24       7.656     24.43       6.305      0.1        0.4802
     6.24       7.656     30.08       6.786      0.1        0.3842
     6.24       7.656     35.16       6.499      0.1        0.2881
     6.24       7.656     39.67       6.212      0.1        0.2881
     6.24       7.656     44.76       5.253      0.1        0.2881
     6.24       7.656     49.84       4.39       0.1        0.2881
     6.24       7.656     60.57       3.336      0.1        0.2881
     6.24       7.656     69.61       2.474      0.1        0.2881
     6.24       7.656     79.77       1.996      0.1        0.2881
     6.24       7.656     89.93       1.518      0.1        0.2881
     6.24       7.656     98.96       1.04       0.1        0.2881
     6.24       7.656    109.1        0.6587     0.1        0.2881
     6.24       7.656    118.7        0.5649     0.1        0.2881
     6.24       7.656    128.9        0.6634     0.1        0.2881
     6.24       7.656    139.         0.6658     0.1        0.1921
     6.24       7.656    148.6        0.9562     0.1        0.2881
     6.24       9.638      0.3982     4.656      0.013      0.3761
     6.24       9.638      5.578      4.718      0.013      0.4031
     6.24       9.638     10.47       4.551      0.013      0.2821
     6.24       9.638     15.52       4.6        0.013      0.3627
     6.24       9.638     20.4        4.259      0.013      0.2955
     6.24       9.638     25.42       4.052      0.013      0.2687
     6.24       9.638     30.26       3.361      0.013      0.2284
     6.24       9.638     35.24       2.684      0.013      0.2687
     6.24       9.638     39.97       2.182      0.013      0.2284
     6.24       9.638     45.         1.989      0.013      0.1879
     6.24       9.638     50.03       1.876      0.013      0.1882
     6.44       0.         0.9039     7.5        0.2        0.5357
     6.44       0.         5.913      7.5        0.2        0.5357
     6.44       0.        10.9        7.857      0.2        0.5357
     6.44       0.        15.31       8.571      0.2        0.7143
     6.44       0.        20.3        8.929      0.2        0.5357
     6.44       0.        25.33       8.571      0.2        0.5357
     6.44       0.        30.39       7.679      0.2        0.5357
     6.44       0.        35.46       6.607      0.2        0.5357
     6.44       0.        41.11       5.179      0.2        0.5357
     6.44       0.        45.61       4.286      0.2        0.5357
     6.44       0.        50.68       3.214      0.2        0.5357
     6.44       0.        60.75       2.143      0.2        0.7143
     6.44       0.        70.25       1.607      0.2        0.5357
     6.44       0.        80.25       1.786      0.2        0.5357
     6.44       0.        90.28       1.607      0.2        0.5357
     6.44       0.       100.3        1.964      0.2        0.5357
     6.44       0.       110.3        2.143      0.2        0.5357
     6.44       0.       120.3        2.143      0.2        0.5357
     6.44       0.       129.2        1.964      0.2        0.5357
     6.44       0.       140.9        1.964      0.2        0.8929
     6.44       0.       150.3        2.857      0.2        0.5357
     6.44       4.439      0.38      40.         0.8        3.077
     6.44       4.439      6.031     40.         0.8        3.077
     6.44       4.439     10.68      40.         0.8        3.077
     6.44       4.439     15.35      38.46       0.8        4.615
     6.44       4.439     20.05      35.38       0.8        3.077
     6.44       4.439     25.33      32.31       0.8        3.077
     6.44       4.439     30.56      32.31       0.8        3.077
     6.44       4.439     34.65      30.77       0.8        3.077
     6.44       4.439     39.9       29.23       0.8        3.077
     6.44       4.439     45.14      29.23       0.8        3.077
     6.44       4.439     50.97      27.69       0.8        3.077
     6.44       4.439     60.3       26.15       0.8        3.077
     6.44       4.439     70.76      26.15       0.8        3.077
     6.44       4.439     79.5       24.61       0.8        3.077
     6.44       4.439     90.57      23.08       0.8        3.077
     6.44       4.439    100.5       20.         0.8        4.615
     6.44       4.439    110.4       18.46       0.8        3.077
     6.44       4.439    119.7       18.46       0.8        3.077
     6.44       4.439    130.2       15.38       0.8        3.077
     6.44       4.439    139.5       15.38       0.8        3.077
     6.44       4.439    150.        13.85       0.8        3.077
     6.44       7.656      0.4607     1.584      0.1        0.2883
     6.44       7.656      4.496      1.681      0.1        0.2883
     6.44       7.656     10.12       2.547      0.1        0.2883
     6.44       7.656     14.62       3.222      0.1        0.2883
     6.44       7.656     19.68       4.761      0.1        0.2883
     6.44       7.656     25.87       5.436      0.1        0.2883
     6.44       7.656     30.37       6.014      0.1        0.2883
     6.44       7.656     34.87       5.823      0.1        0.2883
     6.44       7.656     40.5        5.824      0.1        0.2883
     6.44       7.656     45.56       5.345      0.1        0.2883
     6.44       7.656     50.62       4.866      0.1        0.2883
     6.44       7.656     60.75       3.812      0.1        0.2883
     6.44       7.656     70.32       2.853      0.1        0.2883
     6.44       7.656     79.88       1.991      0.1        0.2883
     6.44       7.656     90.01       1.321      0.1        0.2883
     6.44       7.656     99.58       0.747      0.1        0.2883
     6.44       7.656    109.7        0.5577     0.1        0.2883
     6.44       7.656    119.8        0.4645     0.1        0.2883
     6.44       7.656    128.8        0.371      0.1        0.4806
     6.44       7.656    138.4        0.2776     0.1        0.3845
     6.44       7.656    149.1        0.3768     0.1        0.3845
     6.44       9.638      0.4486     6.038      0.013      0.3899
     6.44       9.638      5.838      6.031      0.013      0.3899
     6.44       9.638     10.75       5.862      0.013      0.3763
     6.44       9.638     15.65       5.559      0.013      0.3227
     6.44       9.638     20.67       5.122      0.013      0.4033
     6.44       9.638     25.63       3.757      0.013      0.309
     6.44       9.638     30.45       4.166      0.013      0.3092
     6.44       9.638     35.49       3.917      0.013      0.3227
     6.44       9.638     40.43       4.139      0.013      0.3092
     6.44       9.638     45.39       2.867      0.013      0.2956
     6.44       9.638     50.31       2.833      0.013      0.242
     6.44       9.638     55.21       2.49       0.013      0.3361
     6.44       9.638     60.05       1.381      0.013      0.1613
ENDDATA            930
ENDSUBENT          945
SUBENT        F0159004   19990409   19990428
BIB                  3          3
REACTION   (4-BE-9(A,N)6-C-12,,SIG,,,EXP)
ERR-ANALYS (ERR-T) Total error
STATUS     (TABLE) Table 1
ENDBIB               3
NOCOMMON
DATA                 3         10
EN         DATA       ERR-T
MEV        MB         MB
     4.86     448.        50.
     4.98     477.        53.
     5.11     496.        55.
     5.29     514.        57.
     5.38     557.        62.
     5.8      532.        60.
     5.9      505.        57.
     6.       488.        55.
     6.24     464.        55.
     6.44     453.        55.
ENDDATA             12
ENDSUBENT           20
ENDENTRY             4
