ENTRY            F0163   20030715   20031024
SUBENT        F0163001   20030715   20031024
BIB                  8         13
TITLE      Regge pole analysis of the elastic scattering
           of alpha-particles from 16O
AUTHOR     (A.A.Cowley,G.Heymann)
INSTITUTE  (3SAFNLP)
REFERENCE  (J,NP/A,146,465,1970)
FACILITY   (CYCLO)
SAMPLE     Two types of targets containing 16O were used:
           commercially available polyster film (C10H8O4)
           and aluminium oxide, which was prepared according
           to method described by Hauser and Kerler
           Rev.Sci.Instr. 29,380,1958
DETECTOR   (SOLST) Three semiconductor detectors
HISTORY    (20030711C)
ENDBIB              13
NOCOMMON             0          0
ENDSUBENT           16
SUBENT        F0163002   20030715   20031024
BIB                  3          5
REACTION   (8-O-16(A,EL)8-O-16,,DA)
ERR-ANALYS (EN-ERR)     Digitizing error
           (DATA-ERR)   Digitizing error
           (DATA-ERR1) Experimental error from graphic bars
STATUS     (CURVE)FIG.1
ENDBIB               5
COMMON               2          3
EN-ERR     DATA-ERR
MEV        PER-CENT
  0.1         0.3
ENDCOMMON            3
DATA                 4         14
ANG        EN         DATA       DATA-ERR1
ADEG       MEV        MB/SR      MB/SR
  150.0      25.39      24.40      2.286
  150.0      26.60      11.49      1.028
  150.0      28.10      24.94      2.129
  150.0      29.10      49.04      4.321
  150.0      29.93      38.88      3.318
  150.0      30.87      26.53      2.486
  150.0      32.15      15.09      1.267
  178.5      25.41      99.62      9.106
  178.5      26.59      30.28      2.938
  178.5      28.03      116.9      10.68
  178.5      29.08      192.1      16.48
  178.5      29.95      131.9      11.13
  178.5      30.86      78.38      7.054
  178.5      32.13      52.01      4.900
ENDDATA             16
ENDSUBENT           30
SUBENT        F0163003   20030715   20031024
BIB                  3          4
REACTION   (8-O-16(A,EL)8-O-16,,DA)
ERR-ANALYS (ANG-ERR)    Digitizing error
           (DATA-ERR)   Digitizing error
STATUS     (CURVE)FIG.3
ENDBIB               4
COMMON               2          3
ANG-ERR    DATA-ERR
ADEG       PER-CENT
  0.5        0.2
ENDCOMMON            3
DATA                 3        473
EN         ANG-CM     DATA-CM
MEV        ADEG       MB/SR
  25.40      15.84      1898.
  25.40      19.25      474.1
  25.40      22.10      74.33
  25.40      25.05      72.85
  25.40      28.38      138.7
  25.40      31.52      99.99
  25.40      34.46      43.07
  25.40      37.78      11.76
  25.40      40.54      13.24
  25.40      43.59      31.04
  25.40      46.35      42.61
  25.40      49.78      40.94
  25.40      52.44      32.27
  25.40      55.57      17.11
  25.40      58.42      7.746
  25.40      61.36      2.267
  25.40      63.74      1.667
  25.40      66.79      3.205
  25.40      69.74      4.670
  25.40      72.59      4.064
  25.40      75.35      1.914
  25.40      78.19     0.9011
  25.40      80.77      1.767
  25.40      83.91      5.307
  25.40      86.29      9.807
  25.40      88.96      12.31
  25.40      91.62      14.57
  25.40      94.38      13.33
  25.40      97.04      11.37
  25.40      99.42      9.325
  25.40      101.9      8.529
  25.40      104.8      10.71
  25.40      107.0      13.05
  25.40      109.6      13.18
  25.40      112.0      11.94
  25.40      114.7      9.134
  25.40      116.3      7.129
  25.40      118.8      7.128
  25.40      121.4      8.434
  25.40      123.6      11.13
  25.40      125.8      13.98
  25.40      128.2      17.38
  25.40      130.5      16.70
  25.40      132.6      14.82
  25.40      134.5      10.80
  25.40      136.7      6.016
  25.40      138.7      2.490
  25.40      141.0     0.8887
  25.40      143.0      2.063
  25.40      145.6      5.953
  25.40      147.1      10.68
  25.40      149.1      15.10
  25.40      151.2      17.01
  25.40      153.2      19.16
  25.40      155.4      17.87
  25.40      157.0      13.14
  25.40      158.9      6.766
  25.40      160.6      2.187
  25.40      162.8     0.8874
  25.40      164.8      4.121
  25.40      166.4      18.76
  25.40      168.7      26.80
  25.40      170.6      45.76
  25.40      172.8      60.38
  25.40      174.5      78.11
  25.40      176.4      91.51
  25.40      178.4      109.4
  26.60      18.03      252.8
  26.60      21.53      90.89
  26.60      24.68      131.5
  26.60      27.73      149.1
  26.60      30.86      101.9
  26.60      33.69      44.53
  26.60      36.99      8.421
  26.60      40.12      6.103
  26.60      43.00      21.62
  26.60      45.87      36.91
  26.60      48.72      35.83
  26.60      52.04      28.34
  26.60      54.98      16.10
  26.60      57.91      5.569
  26.60      60.73      1.127
  26.60      63.48     0.7859
  26.60      66.35      2.020
  26.60      69.12      3.620
  26.60      72.17      3.798
  26.60      75.10      1.675
  26.60      80.22     0.8887
  26.60      82.91      2.748
  26.60      85.69      6.532
  26.60      88.55      9.450
  26.60      91.40      9.724
  26.60      93.97      8.647
  26.60      96.25      6.207
  26.60      99.09      4.162
  26.60      101.1      4.040
  26.60      103.8      5.514
  26.60      106.1      7.168
  26.60      109.1      8.703
  26.60      111.2      9.403
  26.60      113.9      9.398
  26.60      116.2      8.358
  26.60      118.6      7.010
  26.60      121.0      6.234
  26.60      123.3      6.868
  26.60      125.3      7.494
  26.60      127.8      8.924
  26.60      129.9      9.832
  26.60      132.1      8.329
  26.60      134.4      7.406
  26.60      136.4      5.266
  26.60      138.3      3.111
  26.60      140.5      2.026
  26.60      142.7      2.211
  26.60      144.7      2.959
  26.60      146.9      4.955
  26.60      148.7      6.443
  26.60      150.8      7.309
  26.60      152.9      7.820
  26.60      155.0      7.231
  26.60      156.9      5.834
  26.60      158.9      3.584
  26.60      160.5      1.551
  26.60      162.3     0.4820
  26.60      164.3     0.5363
  26.60      166.3      2.805
  26.60      168.2      6.110
  26.60      170.3      11.50
  26.60      172.1      16.32
  26.60      173.6      21.85
  26.60      175.9      25.77
  26.60      177.3      31.30
  26.60      178.7      31.60
  28.10      18.21      153.4
  28.10      21.63      86.76
  28.10      24.40      192.1
  28.10      27.73      226.8
  28.10      30.86      142.9
  28.10      33.70      59.01
  28.10      36.72      18.15
  28.10      39.85      12.01
  28.10      43.00      24.34
  28.10      45.77      32.02
  28.10      48.81      27.89
  28.10      51.85      18.82
  28.10      54.87      8.244
  28.10      57.70      1.696
  28.10      63.32      3.238
  28.10      66.10      7.239
  28.10      69.24      8.978
  28.10      71.99      7.519
  28.10      74.55      4.211
  28.10      77.77      1.918
  28.10      80.64      4.374
  28.10      83.23      13.79
  28.10      85.71      20.02
  28.10      88.38      24.11
  28.10      91.23      20.19
  28.10      93.69      11.99
  28.10      96.34      4.624
  28.10      98.61      2.394
  28.10      101.4      5.621
  28.10      104.0      11.62
  28.10      106.2      15.59
  28.10      109.2      15.43
  28.10      111.3      11.72
  28.10      113.8      5.889
  28.10      116.4      2.605
  28.10      118.1     0.4112
  28.10      120.5      2.077
  28.10      123.2      6.173
  28.10      125.3      10.18
  28.10      127.8      10.69
  28.10      130.3      8.864
  28.10      132.0      5.809
  28.10      134.0      3.384
  28.10      136.3      2.283
  28.10      138.4      2.975
  28.10      140.6      4.718
  28.10      142.7      6.270
  28.10      144.8      6.914
  28.10      146.9      7.929
  28.10      148.7      9.184
  28.10      150.7      10.23
  28.10      152.8      12.20
  28.10      154.8      13.58
  28.10      156.9      13.45
  28.10      159.2      12.18
  28.10      160.8      9.251
  28.10      162.4      5.336
  28.10      164.2      1.431
  28.10      166.3      1.562
  28.10      168.1      13.41
  28.10      170.1      29.12
  28.10      171.7      54.58
  28.10      173.6      84.87
  28.10      175.5      107.4
  28.10      177.7      125.6
  29.10      15.30      664.0
  29.10      18.30      99.26
  29.10      21.44      83.76
  29.10      24.59      185.5
  29.10      27.82      153.4
  29.10      31.04      81.94
  29.10      33.78      25.83
  29.10      37.18      8.388
  29.10      40.24      17.85
  29.10      43.19      25.27
  29.10      46.05      24.27
  29.10      49.27      14.75
  29.10      51.92      6.456
  29.10      54.84      1.917
  29.10      57.84     0.2213
  29.10      60.91     0.6539
  29.10      63.89      3.800
  29.10      66.47      7.108
  29.10      69.52      8.495
  29.10      72.18      6.238
  29.10      74.83      3.467
  29.10      77.86      1.693
  29.10      80.54      3.862
  29.10      83.13      11.08
  29.10      85.80      18.03
  29.10      88.57      20.10
  29.10      91.51      18.92
  29.10      93.69      11.39
  29.10      96.52      3.519
  29.10      99.07      1.201
  29.10      101.5      3.694
  29.10      104.4      9.219
  29.10      106.4      13.58
  29.10      109.2      13.98
  29.10      111.5      11.01
  29.10      113.9      5.484
  29.10      115.9      1.581
  29.10      118.2     0.2943
  29.10      120.8      1.115
  29.10      122.9      3.014
  29.10      125.6      4.224
  29.10      127.8      4.526
  29.10      130.1      4.347
  29.10      132.0      4.705
  29.10      134.3      6.213
  29.10      136.3      7.210
  29.10      138.7      7.881
  29.10      141.0      6.718
  29.10      142.9      4.166
  29.10      145.0      2.270
  29.10      146.8      1.897
  29.10      148.9      4.782
  29.10      150.7      11.36
  29.10      152.7      18.12
  29.10      154.8      25.14
  29.10      157.1      26.67
  29.10      159.1      23.43
  29.10      160.9      14.53
  29.10      162.4      5.875
  29.10      163.2      2.522
  29.10      164.3     0.8527
  29.10      165.9      1.374
  29.10      166.7      5.157
  29.10      168.4      22.69
  29.10      170.1      60.12
  29.10      172.1      105.9
  29.10      174.0      153.0
  29.10      175.8      186.6
  29.10      177.7      204.0
  29.10      178.5      220.9
  30.00      15.40      774.9
  30.00      18.59      106.5
  30.00      21.63      82.64
  30.00      24.60      211.7
  30.00      27.83      203.1
  30.00      31.05      116.3
  30.00      33.97      31.18
  30.00      36.99      6.967
  30.00      40.24      15.18
  30.00      43.20      26.73
  30.00      46.24      27.82
  30.00      49.08      16.59
  30.00      52.01      5.282
  30.00      54.81     0.5199
  30.00      58.25     0.8445
  30.00      61.03      2.648
  30.00      64.08      3.967
  30.00      66.85      4.757
  30.00      69.51      4.851
  30.00      72.56      4.997
  30.00      75.12      4.994
  30.00      78.07      4.556
  30.00      80.64      3.992
  30.00      83.40      4.835
  30.00      86.07      7.027
  30.00      88.74      11.07
  30.00      91.41      13.55
  30.00      94.26      13.54
  30.00      96.45      9.889
  30.00      99.29      5.607
  30.00      101.7      2.078
  30.00      104.4     0.6685
  30.00      106.3      1.802
  30.00      108.6      4.663
  30.00      111.3      7.201
  30.00      113.8      8.462
  30.00      115.8      8.204
  30.00      118.4      6.431
  30.00      120.9      2.889
  30.00      123.0      1.352
  30.00      125.5     0.5378
  30.00      127.8      1.364
  30.00      129.6      3.390
  30.00      131.8      6.542
  30.00      133.9      8.769
  30.00      136.3      9.313
  30.00      138.3      6.085
  30.00      140.9      4.224
  30.00      142.6      1.647
  30.00      144.6     0.2506
  30.00      147.0      1.317
  30.00      148.7      6.716
  30.00      150.2      12.45
  30.00      152.0      21.06
  30.00      154.2      23.06
  30.00      156.3      21.25
  30.00      158.4      18.07
  30.00      160.3      11.69
  30.00      162.2      3.915
  30.00      162.7      2.585
  30.00      165.2     0.8317
  30.00      165.7      2.407
  30.00      166.3      34.47
  30.00      167.7      14.00
  30.00      169.3      33.41
  30.00      171.2      58.87
  30.00      173.0      85.57
  30.00      175.2      113.6
  30.00      176.7      150.7
  30.00      177.8      156.9
  30.90      15.22      578.5
  30.90      18.45      90.24
  30.90      21.31      122.6
  30.90      24.54      244.8
  30.90      27.40      211.0
  30.90      30.72      101.6
  30.90      33.67      28.66
  30.90      37.09      5.448
  30.90      39.85      24.95
  30.90      42.80      38.93
  30.90      45.84      30.10
  30.90      48.98      13.12
  30.90      51.83      1.910
  30.90      55.06      1.035
  30.90      58.01      5.338
  30.90      60.68      6.634
  30.90      63.53      5.552
  30.90      66.38      3.559
  30.90      69.14      5.232
  30.90      72.00      9.188
  30.90      74.76      12.36
  30.90      77.71      11.08
  30.90      80.27      7.765
  30.90      82.94      4.928
  30.90      85.79      6.435
  30.90      88.17      11.53
  30.90      90.93      15.66
  30.90      93.88      17.28
  30.90      96.16      13.77
  30.90      98.82      7.609
  30.90      101.2      2.540
  30.90      104.1     0.5383
  30.90      106.1      2.212
  30.90      108.7      5.655
  30.90      111.1      8.396
  30.90      113.7      9.176
  30.90      115.8      7.680
  30.90      118.4      5.881
  30.90      120.8      2.944
  30.90      122.9     0.8560
  30.90      127.7     0.4202
  30.90      129.6      1.362
  30.90      131.8      2.588
  30.90      133.8      3.768
  30.90      135.8      4.920
  30.90      138.1      4.682
  30.90      140.5      3.693
  30.90      142.3      1.777
  30.90      144.6     0.5483
  30.90      146.7     0.2275
  30.90      148.6      1.708
  30.90      150.6      4.966
  30.90      152.5      9.074
  30.90      154.7      11.73
  30.90      156.2      16.25
  30.90      158.4      14.87
  30.90      160.7      12.95
  30.90      161.9      6.947
  30.90      163.0      4.632
  30.90      164.0      1.794
  30.90      167.9      4.541
  30.90      169.7      13.20
  30.90      171.3      32.77
  30.90      173.2      50.11
  30.90      175.3      78.95
  30.90      176.9      88.01
  30.90      177.8      93.38
  32.20      18.39      78.79
  32.20      21.45      135.7
  32.20      24.41      236.2
  32.20      26.12      245.6
  32.20      27.54      197.5
  32.20      30.86      101.6
  32.20      33.78      33.50
  32.20      36.97      3.109
  32.20      39.95      16.40
  32.20      42.82      29.99
  32.20      45.96      28.24
  32.20      48.70      13.97
  32.20      51.99      2.302
  32.20      54.92     0.6541
  32.20      57.72      5.335
  32.20      60.68      9.852
  32.20      63.53      9.463
  32.20      66.57      6.364
  32.20      69.41      3.876
  32.20      72.17      4.584
  32.20      73.04      5.929
  32.20      74.94      7.153
  32.20      77.42      10.21
  32.20      80.27      8.972
  32.20      83.22      7.729
  32.20      85.69      5.971
  32.20      88.25      5.968
  32.20      91.01      6.392
  32.20      93.59      7.124
  32.20      96.15      7.334
  32.20      98.62      5.555
  32.20      101.4      2.748
  32.20      104.2      1.127
  32.20      106.4      1.051
  32.20      108.8      1.940
  32.20      111.4      3.245
  32.20      113.8      4.365
  32.20      115.8      4.770
  32.20      118.1      4.361
  32.20      120.8      3.082
  32.20      122.9      1.480
  32.20      125.2     0.4880
  32.20      127.4     0.5152E-01
  32.20      129.9     0.2413
  32.20      131.9     0.8655
  32.20      134.0      1.949
  32.20      136.1      3.164
  32.20      138.2      3.894
  32.20      140.4      3.704
  32.20      142.4      2.778
  32.20      144.4      1.173
  32.20      146.6     0.2156
  32.20      148.7     0.1786
  32.20      150.4      1.776
  32.20      152.4      3.586
  32.20      154.5      7.028
  32.20      156.2      8.999
  32.20      158.3      11.07
  32.20      160.4      6.950
  32.20      162.1      5.010
  32.20      164.2      1.203
  32.20      166.2     0.2126
  32.20      168.0      2.902
  32.20      169.6      9.809
  32.20      171.3      22.08
  32.20      173.1      36.95
  32.20      175.3      50.70
  32.20      177.8      63.63
ENDDATA            475
ENDSUBENT          488
ENDENTRY             3
