ENTRY            11859     860522
SUBENT        11859001     860522
BIB                  7         10
INSTITUTE  (1USAORL)
REFERENCE  (J,PR,98,1172(MA3),5505)
           (P,ORNL-1879,9,55)
AUTHOR     (E.C.CAMPBELL,R.W.PEELLE,F.C.MAIENSCHEIN,P.H.STELSON)
TITLE      DECAY AND FAST NEUTRON EXCITATION OF ZR-90M.
INC-SOURCE (P-T) T(P,N) SOURCE
STATUS     (SCSRS)
HISTORY    (760731T) TRANSLATED FROM SCISRS
           (830919A) CONVERTED TO REACTION FORMALISM
           (860522A) BIB UPDATE, REACTION CORRECTED.
ENDBIB              10
NOCOMMON             0          0
ENDSUBENT           13
SUBENT        11859002     860522
BIB                  3          3
REACTION   (40-ZR-90(N,INL)40-ZR-90-M,,SIG)
DECAY-DATA (40-ZR-90-M,0.83SEC,DG,2300.)
DETECTOR   (SCIN)     SCINTILLATING CRYSTAL
ENDBIB               3
NOCOMMON             0          0
DATA                 2         56
EN         DATA
MEV        B
 2.29   +00 0.     +00
 2.34   +00 2.     -03
 2.35   +00 7.     -03
 2.38   +00 1.3    -02
 2.40   +00 2.4    -02
 2.42   +00 3.4    -02
 2.45   +00 4.0    -02
 2.48   +00 4.0    -02
 2.50   +00 4.7    -02
 2.53   +00 4.9    -02
 2.55   +00 4.8    -02
 2.58   +00 5.4    -02
 2.60   +00 5.6    -02
 2.62   +00 6.3    -02
 2.66   +00 6.4    -02
 2.68   +00 7.0    -02
 2.71   +00 7.8    -02
 2.76   +00 8.5    -02
 2.76   +00 8.6    -02
 2.78   +00 1.03   -01
 2.81   +00 1.20   -01
 2.84   +00 1.38   -01
 2.86   +00 1.51   -01
 2.88   +00 1.64   -01
 2.91   +00 1.72   -01
 3.02   +00 2.00   -01
 3.05   +00 2.02   -01
 3.06   +00 2.25   -01
 3.10   +00 2.25   -01
 3.13   +00 2.40   -01
 3.16   +00 2.34   -01
 3.18   +00 2.39   -01
 3.21   +00 2.26   -01
 3.25   +00 2.34   -01
 3.26   +00 2.27   -01
 3.29   +00 2.29   -01
 3.32   +00 2.30   -01
 3.35   +00 2.40   -01
 3.38   +00 2.39   -01
 3.40   +00 2.54   -01
 3.43   +00 2.50   -01
 3.46   +00 2.60   -01
 3.51   +00 2.63   -01
 3.57   +00 2.65   -01
 3.63   +00 2.69   -01
 3.68   +00 2.70   -01
 3.75   +00 2.84   -01
 3.80   +00 2.94   -01
 3.87   +00 2.97   -01
 3.91   +00 3.12   -01
 3.95   +00 3.08   -01
 4.02   +00 3.05   -01
 4.10   +00 3.09   -01
 4.14   +00 3.23   -01
 4.18   +00 3.24   -01
 4.25   +00 3.34   -01
ENDDATA             58
ENDSUBENT           66
ENDENTRY             2
