ENTRY            11876   20140131   20140701   20140612       1398
SUBENT        11876001   20140131   20140701   20140612       1398
BIB                  7         29
TITLE      Neutron Total Cross Sections of Even Isotopes of Zr
           in the Energy Range 2-60 keV
AUTHOR     (W.M.Good,H.Kim)
REFERENCE  (J,PR,165,1329,1968)
           #doi:10.1103/PhysRev.165.1329
INSTITUTE  (1USAORL)
FACILITY   (VDG,1USAORL)
METHOD     (TOF,TRN) In an average time of about 10 h, 2000
           counts per 2-nsec time interval can be acquired. The
           accumulated number of flight-time intervals are
           stored in a 2048-channel or a 4096-channel analyzer.
           The data are then converted to energy and cross
           sections by means of a computer which simultaneously
           prepared a tape by means of which a Calcomp plotter
           can plot either the cross section, or the
           transmission-versus-neutron energy. From the various
           Flight paths, a single sigmaT-versus-En plot is
           assembled which is composed of energy segments each
           containing the highest resolution results for a given
           energy interval. Such a plot is a valuable check on
           the correctness of the background subtractions. The
           data corresponding to the sigmaT-versus-En plot are
           finally replotted in the form of
           transmission-versus-neutron energy.
HISTORY    (19760731T) Translated from SCISRS.
           (19830919A) Converted to reaction formalism.
           (20140131A) BP: Digitized Fig.1, added doi. Updated
           all subentries to new date formats, lower case.
           Corrections according last EXFOR rules and Dict.
ENDBIB              29
COMMON               1          3
ERR-1
PER-CENT
20.0
ENDCOMMON            3
ENDSUBENT           36
SUBENT        11876002   20140131   20140701   20140612       1398
BIB                  4         10
REACTION   (40-ZR-90(N,TOT),,SIG)
SAMPLE     Each nuclide was fabricated into right-circular
           cylinders. For the nuclides of masses 90, 92, 94, each
           cylinder was 32 mm in diam and consisted of two pieces
           whose thickness ratios were about 3:2, to permit
           measurements at thicknesses corresponding to
           reciprocal atom/area of about 30 and 50 b/atom.
           Samples were in form of oxides.
ERR-ANALYS (DATA-ERR) No information on source of uncertainties.
STATUS     (CURVE) Fig. 1, page 1331.
ENDBIB              10
NOCOMMON             0          0
DATA                 3        315
EN         DATA       DATA-ERR
KEV        B          B
  3.099E+00      4.450      3.448
  3.102E+00     -1.886      3.431
  3.161E+00     -0.815      4.979
  3.201E+00      7.566      3.592
  3.237E+00     10.794      3.179
  3.259E+00      2.730      2.774
  3.290E+00     -1.876      3.528
  3.296E+00      7.917      3.076
  3.345E+00      9.647      2.217
  3.388E+00     -1.180      4.123
  3.396E+00      3.659      3.601
  3.445E+00      8.615      3.289
  3.470E+00     -1.566      2.107
  3.498E+00      3.203      2.566
  3.510E+00     -0.599      2.496
  3.603E+00      3.438      3.467
  3.634E+00      6.435      2.247
  3.665E+00      9.431      3.232
  3.715E+00     19.226      2.111
  3.735E+00     24.296      2.487
  3.777E+00     30.404      3.327
  3.825E+00     21.996      2.002
  3.828E+00     16.351      2.197
  3.906E+00     14.156      2.106
  3.979E+00     11.634      2.262
  4.065E+00      5.762      1.364
  4.111E+00      9.450      1.987
  4.175E+00      3.692      1.686
  4.210E+00      8.302      1.890
  4.311E+00      7.730      1.984
  4.321E+00     11.993      1.554
  4.363E+00      5.312      1.765
  4.424E+00     12.688      1.670
  4.465E+00      9.348      1.872
  4.519E+00      6.355      2.037
  4.572E+00      8.546      1.736
  4.653E+00      9.931      1.969
  4.670E+00      3.595      1.954
  4.696E+00      5.555      1.519
  4.723E+00      8.205      1.870
  4.807E+00      7.402      1.637
  4.894E+00      6.368      2.133
  4.906E+00     11.092      1.207
  4.937E+00      1.747      0.957
  4.994E+00     10.173      1.529
  4.997E+00      3.491      1.646
  5.055E+00      6.373      2.037
  5.204E+00     10.525      1.971
  5.237E+00      6.955      2.519
  5.269E+00      4.882      1.977
  5.311E+00      6.355      2.489
  5.377E+00      8.802      1.775
  5.381E+00      1.083      1.907
  5.442E+00      5.809      1.461
  5.491E+00      4.313      2.069
  5.535E+00      9.808      2.776
  5.653E+00      8.234      1.965
  5.738E+00      6.393      1.367
  5.802E+00      3.784      1.628
  5.823E+00      8.009      1.639
  5.958E+00      7.714      2.106
  5.998E+00      5.249      2.034
  6.069E+00      6.979      1.942
  6.119E+00     12.395      2.666
  6.214E+00      4.465      2.202
  6.324E+00      6.755      1.999
  6.454E+00     10.445      1.664
  6.494E+00      4.951      2.682
  6.608E+00      9.757      1.740
  6.689E+00      6.649      1.596
  6.690E+00      4.460      1.801
  6.786E+00      8.955      2.081
  6.811E+00      2.159      1.699
  6.853E+00      6.204      1.722
  6.947E+00     10.457      2.334
  7.089E+00     15.184      1.696
  7.090E+00     12.764      1.575
  7.158E+00      7.236      1.502
  7.265E+00      5.971      1.672
  7.352E+00      4.475      1.515
  7.437E+00      7.703      1.677
  7.502E+00      8.971      1.602
  7.551E+00      3.327      1.033
  7.637E+00      8.053      0.776
  7.684E+00      4.943      1.304
  7.797E+00      6.904      1.540
  7.800E+00      2.872      1.148
  7.911E+00      8.634      0.970
  7.938E+00      4.488      0.941
  8.076E+00      8.638      1.163
  8.173E+00      7.603      1.178
  8.268E+00      9.909      1.183
  8.275E+00      6.522      1.436
  8.445E+00      4.843      1.189
  8.493E+00      6.803      1.137
  8.516E+00      8.877      1.009
  8.557E+00     14.188      1.244
  8.615E+00     10.837      1.244
  8.669E+00      7.382      1.810
  8.771E+00      8.997      1.382
  8.850E+00      7.155      1.197
  8.901E+00      8.769      1.382
  8.956E+00      6.350      1.252
  9.038E+00      4.278      1.036
  9.061E+00      7.850      1.152
  9.197E+00      6.355      1.037
  9.277E+00      7.854      1.498
  9.444E+00      6.129      1.268
  9.527E+00      7.512      1.728
  9.783E+00      7.747      1.382
  9.844E+00      4.868      1.613
  9.927E+00      9.017      1.268
  1.008E+01      7.291      1.267
  1.019E+01      9.136      1.037
  1.026E+01      4.875      1.037
  1.035E+01      6.835      1.036
  1.056E+01      7.414      1.498
  1.075E+01      4.537      0.806
  1.088E+01      7.304      1.498
  1.108E+01      4.196      1.729
  1.120E+01      6.617      1.497
  1.154E+01      4.318      1.036
  1.164E+01      6.047      1.727
  1.181E+01      8.699      0.806
  1.192E+01      6.858      0.807
  1.207E+01      4.094      0.922
  1.217E+01      6.285      1.266
  1.239E+01      4.444      1.036
  1.269E+01      2.951      0.922
  1.276E+01      6.523      1.036
  1.283E+01      9.634      0.806
  1.286E+01     13.898      1.036
  1.292E+01     23.576      1.151
  1.293E+01     17.239      1.267
  1.303E+01     28.185      0.691
  1.315E+01     24.846      1.381
  1.316E+01     21.044      0.921
  1.324E+01     16.437      1.728
  1.332E+01     13.097      0.806
  1.345E+01     10.218      1.266
  1.349E+01      8.606      0.921
  1.373E+01     10.337      1.151
  1.389E+01      7.228      1.037
  1.410E+01      7.461      1.612
  1.435E+01      6.542      1.382
  1.461E+01      7.466      0.921
  1.473E+01     10.233      0.690
  1.482E+01      7.699      1.037
  1.500E+01      6.549      1.036
  1.514E+01      5.168      0.807
  1.522E+01      7.358      0.921
  1.545E+01      5.632      0.692
  1.550E+01      2.983      0.921
  1.573E+01      4.022      0.807
  1.582E+01      6.443      1.036
  1.597E+01      3.449      1.036
  1.625E+01      5.525      1.381
  1.648E+01      8.638      1.381
  1.656E+01     17.971      1.151
  1.657E+01     13.708      1.036
  1.674E+01     32.143      1.613
  1.675E+01     25.922      1.382
  1.678E+01     36.752      1.613
  1.692E+01     40.555      1.497
  1.708E+01     35.603      1.382
  1.709E+01     31.225      1.381
  1.714E+01     27.423      1.152
  1.726E+01     19.014      1.267
  1.730E+01     24.775      1.151
  1.751E+01     19.938      1.267
  1.758E+01     13.833      0.805
  1.768E+01     17.290      0.921
  1.784E+01     15.218      0.922
  1.789E+01     12.569      1.036
  1.805E+01     13.261      0.921
  1.806E+01     10.151      0.922
  1.827E+01     11.535      0.807
  1.860E+01     11.423      0.921
  1.893E+01     12.347      0.921
  1.915E+01     13.156      1.036
  1.938E+01     10.392      0.922
  1.962E+01      7.745      0.922
  1.979E+01      9.129      0.922
  2.002E+01      9.591      0.921
  2.032E+01      8.096      0.805
  2.050E+01      8.789      1.036
  2.056E+01      7.291      1.268
  2.075E+01      6.486      1.151
  2.099E+01      8.101      1.036
  2.131E+01      6.145      1.036
  2.137E+01      7.989      1.035
  2.163E+01      3.843      1.036
  2.168E+01      7.761      0.922
  2.201E+01      5.805      1.497
  2.234E+01      6.268      1.151
  2.293E+01      8.000      0.805
  2.294E+01      6.272      0.921
  2.342E+01      5.469      0.691
  2.369E+01      6.738      0.691
  2.426E+01      7.203      0.922
  2.440E+01      5.130      1.152
  2.483E+01      7.783      1.267
  2.490E+01      9.857      1.035
  2.498E+01      8.360      0.462
  2.513E+01      6.633      0.461
  2.551E+01      5.137      0.806
  2.603E+01      7.099      1.267
  2.627E+01      5.142      1.037
  2.674E+01      6.297      0.806
  2.721E+01      7.222      0.921
  2.746E+01      5.380      0.805
  2.786E+01      6.419      1.383
  2.836E+01      5.615      1.613
  2.887E+01      6.194      1.036
  2.913E+01      4.928      1.153
  2.964E+01      7.466      0.923
  3.000E+01      6.085      0.921
  3.062E+01      7.010      1.382
  3.117E+01      5.285      1.152
  3.173E+01      5.634      1.382
  3.258E+01      5.868      0.921
  3.307E+01      3.912      0.460
  3.336E+01      5.642      0.691
  3.355E+01      6.795
  3.374E+01      8.409      0.806
  3.403E+01     11.521      0.805
  3.424E+01      9.563      0.575
  3.424E+01      8.296
  3.455E+01      6.799      0.691
  3.517E+01      6.341      0.576
  3.590E+01      7.266      0.691
  3.612E+01      5.770      0.806
  3.709E+01      6.465      0.692
  3.809E+01      6.239      0.807
  3.842E+01      7.162      0.575
  3.864E+01      8.315
  3.886E+01     10.160      0.576
  3.898E+01      9.008
  3.920E+01     11.313      0.575
  3.966E+01     13.619      0.806
  3.987E+01     18.920      0.691
  3.989E+01     15.002      0.575
  3.998E+01     20.878      0.691
  4.032E+01     24.221      0.806
  4.043E+01     27.678      0.921
  4.070E+01     20.190
  4.079E+01     25.490      0.576
  4.083E+01     16.850      0.345
  4.084E+01     15.582      0.805
  4.119E+01     18.810      0.806
  4.130E+01     21.114      0.922
  4.141E+01     23.304      0.691
  4.179E+01     20.540      0.576
  4.180E+01     17.545      0.921
  4.194E+01     14.780      1.036
  4.232E+01     12.593      0.922
  4.257E+01     11.787      1.153
  4.296E+01     10.752      0.922
  4.334E+01     11.560      0.806
  4.346E+01     13.173      0.806
  4.369E+01     18.243      0.576
  4.370E+01     16.285      0.576
  4.395E+01     17.553      0.575
  4.435E+01     15.020      0.805
  4.437E+01     11.909      0.805
  4.464E+01      9.836      0.690
  4.491E+01      8.224      0.922
  4.572E+01      7.536      1.153
  4.600E+01      5.694      0.691
  4.667E+01      6.848      0.806
  4.764E+01      7.312      0.692
  4.780E+01      4.893      0.576
  4.864E+01      6.279      0.806
  4.951E+01      5.590      0.691
  5.040E+01      6.169      0.922
  5.100E+01      5.365      0.576
  5.190E+01      6.981      0.923
  5.237E+01      5.599      0.806
  5.345E+01      6.870      0.690
  5.489E+01      6.529      0.691
  5.553E+01      7.913      0.691
  5.602E+01      9.067      0.806
  5.669E+01      7.571      0.806
  5.738E+01      5.384      0.461
  5.788E+01      6.307
  5.789E+01      4.809      0.461
  5.821E+01      8.382      0.345
  5.853E+01     12.645
  5.854E+01     11.493      0.806
  5.887E+01     13.568      0.692
  5.904E+01     14.836      0.460
  5.941E+01     10.920      0.692
  5.977E+01     10.114      0.806
  6.013E+01      8.272      0.575
  6.139E+01      7.699
  6.140E+01      6.432      0.460
  6.267E+01      7.242      0.806
  6.416E+01      8.052      0.690
  6.510E+01     10.243      0.691
  6.546E+01     14.046      0.691
  6.622E+01     17.043      1.036
  6.663E+01     13.934      0.576
  6.704E+01     10.939      0.345
  6.727E+01      7.483      0.346
  6.748E+01      5.986      0.576
  6.869E+01      5.183      1.036
  6.969E+01      7.143      0.922
  7.053E+01      5.878      0.922
  7.117E+01      4.382      0.921
  7.178E+01      6.111      1.037
  7.237E+01     13.486      1.613
  7.239E+01     10.606      1.382
  7.324E+01     11.645      1.383
  7.386E+01     15.333      1.612
  7.499E+01     10.612      3.570
ENDDATA            317
ENDSUBENT          332
SUBENT        11876003   20140131   20140701   20140612       1398
BIB                  4          9
REACTION  1(40-ZR-90(N,0),,EN)
          2(40-ZR-90(N,EL),,WID/RED)
          3(40-ZR-90(N,EL),,WID)
ANALYSIS   (AREA) From the transmission-versus-En plots, areas
           are obtained and resonance widths extracted by means
           of area analysis.
ERR-ANALYS (DATA-ERR) No details on source of uncertainty given.
STATUS     (TABLE) Table I, page 1332.
           (DEP,11876002)
ENDBIB               9
COMMON               1          3
MOMENTUM L
NO-DIM
 0.
ENDCOMMON            3
DATA                 6         13
DATA      1DATA-ERR  1DATA      2DATA-ERR  2DATA      3DATA-ERR  3
MEV        MEV        MILLI-EV   MILLI-EV   MILLI-EV   MILLI-EV
   3.80E-03     6.E-05    2.0E+02     7.E+01    1.2E+04     2.E+03
   6.90E-03     3.E-05    1.0E+02     2.E+01     8.E+03     1.E+03
   7.90E-03     5.E-05    1.0E+02     2.E+01     9.E+03     1.E+03
   1.33E-02     1.E-04    6.0E+02     8.E+01    6.9E+04     9.E+03
   1.72E-02     1.E-04    1.6E+03     1.E+02   2.05E+05    1.4E+04
   3.47E-02     1.E-04    8.4E+02               8.9E+04
   4.01E-02     1.E-04    4.7E+02               9.4E+04
   4.16E-02              1.79E+03              3.62E+05
   4.24E-02     2.E-04   1.68E+03              3.42E+05
   4.41E-02    1.0E-03   1.03E+03              3.20E+05
    5.6E-02               5.4E+02              1.26E+05
    5.9E-02              1.29E+03              3.10E+05
    6.8E-02              2.20E+03              5.63E+05
ENDDATA             15
ENDSUBENT           33
SUBENT        11876004   20140131   20140701   20140612       1398
BIB                  3          3
REACTION   (40-ZR-90(N,0),,D)
ERR-ANALYS (DATA-ERR) No information on source of uncertainties.
STATUS     (TABLE) Table II, page 1333.
ENDBIB               3
NOCOMMON             0          0
DATA                 4          1
EN-RES-MIN EN-RES-MAX DATA       DATA-ERR
MEV        MEV        EV         EV
         0.    7.0E-02    5.0E+03    1.0E+03
ENDDATA              3
ENDSUBENT           11
SUBENT        11876005   20140131   20140701   20140612       1398
BIB                  3          4
REACTION   (40-ZR-90(N,EL),,STF)
ERR-ANALYS (DATA-ERR) No information on source of uncertainties.
STATUS     (TABLE) Table II, page 1333.
           (DEP,11876002)
ENDBIB               4
COMMON               1          3
MOMENTUM L
NO-DIM
 0.
ENDCOMMON            3
DATA                 4          2
EN-RES-MIN EN-RES-MAX DATA       DATA-ERR
MEV        MEV        NO-DIM     NO-DIM
         0.    2.8E-02    9.3E-05    6.0E-05
    2.8E-02    7.0E-02   2.46E-04   1.20E-04
ENDDATA              4
ENDSUBENT           17
SUBENT        11876006   20140131   20140701   20140612       1398
BIB                  4         10
REACTION   (40-ZR-92(N,TOT),,SIG)
SAMPLE      Each nuclide was fabricated into right-circular
           cylinders. For the nuclides of masses 90, 92, 94, each
           cylinder was 32 mm in diam and consisted of two pieces
           whose thickness ratios were about 3:2, to permit
           measurements at thicknesses corresponding to
           reciprocal atom/area of about 30 and 50 b/atom.
           Samples were in form of oxides.
ERR-ANALYS (DATA-ERR) No information on source of uncertainties.
STATUS     (CURVE) Fig. 1, page 1331.
ENDBIB              10
NOCOMMON             0          0
DATA                 3        350
EN         DATA       DATA-ERR
KEV        B          B
  2.500E+00     12.870      3.682
  2.550E+00     10.595      3.332
  2.556E+00     14.981      4.386
  2.577E+00     19.545      4.036
  2.588E+00     36.739      4.911
  2.598E+00     23.056      3.507
  2.601E+00     42.705      5.262
  2.609E+00     76.038      6.667
  2.612E+00     63.407      5.966
  2.659E+00     47.273      2.806
  2.677E+00     73.064      6.490
  2.679E+00     62.011      4.561
  2.680E+00     55.345      3.685
  2.686E+00     28.329      3.159
  2.691E+00     40.785      4.211
  2.718E+00     21.140      3.860
  2.732E+00     26.053      3.859
  2.746E+00     33.423      4.037
  2.764E+00     20.267      3.859
  2.796E+00     17.113      4.209
  2.835E+00     19.749      2.981
  2.853E+00      9.225      2.805
  2.875E+00     16.771      2.808
  2.916E+00     16.775      3.157
  2.925E+00     12.741      2.982
  2.950E+00     11.691      2.455
  2.973E+00     19.587      2.804
  2.977E+00      4.851      1.577
  3.017E+00      9.943      2.455
  3.034E+00     13.804      2.280
  3.061E+00      5.737      1.576
  3.062E+00      3.632      2.105
  3.086E+00     11.704      2.456
  3.120E+00     11.707      2.280
  3.131E+00      3.638      2.456
  3.183E+00     10.134      2.105
  3.184E+00      5.397      2.104
  3.238E+00      5.052      2.459
  3.264E+00      8.914      2.809
  3.312E+00      4.532      1.931
  3.337E+00     12.955      2.632
  3.357E+00      8.571      2.457
  3.359E+00      3.659      1.930
  3.396E+00      6.294      2.455
  3.435E+00      2.964      2.280
  3.462E+00      8.931      1.931
  3.470E+00     16.475      2.105
  3.491E+00     10.162      2.455
  3.519E+00     16.830      2.631
  3.543E+00      3.499      2.806
  3.581E+00      7.713      1.931
  3.591E+00     10.170      2.985
  3.614E+00      1.049      2.457
  3.653E+00      5.087      2.106
  3.662E+00      9.825      3.859
  3.726E+00      3.690      2.106
  3.756E+00      8.955      2.981
  3.811E+00      2.995      1.931
  3.852E+00      9.489      2.104
  3.856E+00     -3.668      2.456
  3.886E+00      3.176      2.806
  3.895E+00     10.720      2.982
  3.918E+00      7.564      3.155
  3.949E+00     14.058      4.035
  3.958E+00     21.777      3.861
  3.992E+00     18.271      2.807
  4.029E+00      8.800      3.509
  4.054E+00      2.837      2.807
  4.110E+00      4.070      2.455
  4.179E+00      6.882      2.631
  4.217E+00      0.218      2.632
  4.263E+00      3.554      2.632
  4.322E+00      8.119      1.754
  4.349E+00      0.753      2.104
  4.372E+00      4.790      2.278
  4.420E+00      9.530      1.929
  4.442E+00     17.250      2.281
  4.451E+00     27.952      2.631
  4.487E+00     31.639      3.333
  4.527E+00     27.606      2.279
  4.528E+00     22.870      2.807
  4.555E+00     19.187      1.929
  4.557E+00     13.924      2.630
  4.609E+00     10.595      2.280
  4.637E+00      5.860      1.929
  4.687E+00     11.652      2.280
  4.729E+00      7.093      1.755
  4.768E+00      8.675      2.282
  4.807E+00     12.186      1.929
  4.848E+00     10.259      1.931
  4.905E+00      5.701      1.929
  4.959E+00      7.985      2.631
  5.016E+00      5.707      2.281
  5.114E+00      9.573      2.106
  5.157E+00      9.926      2.279
  5.188E+00      6.068      2.105
  5.204E+00      2.385      2.103
  5.276E+00      5.547      1.403
  5.277E+00      2.565      2.630
  5.349E+00      8.358      2.807
  5.396E+00      5.554      2.104
  5.473E+00      3.277      1.579
  5.534E+00      5.561      1.404
  5.596E+00      5.564      1.930
  5.658E+00      8.726      1.930
  5.708E+00      4.518      2.105
  5.770E+00      8.731      2.280
  5.870E+00      5.052      2.456
  5.905E+00      0.844      2.279
  5.953E+00      5.407      3.332
  6.071E+00      5.238      2.105
  6.141E+00      2.259      2.631
  6.262E+00      3.668      2.630
  6.312E+00      8.758      1.927
  6.400E+00     11.920      2.456
  6.415E+00     19.113      2.630
  6.444E+00     33.325      2.981
  6.473E+00     47.361      3.859
  6.520E+00     62.450      3.332
  6.535E+00     69.468      4.033
  6.586E+00     77.716      3.158
  6.666E+00     66.667      4.033
  6.681E+00     38.423      3.157
  6.689E+00     58.072      3.509
  6.702E+00     32.108      3.159
  6.784E+00     19.832      2.806
  6.795E+00     35.446      2.454
  6.875E+00     29.660      2.454
  6.898E+00     22.468      2.631
  6.939E+00     18.610      2.631
  7.060E+00     13.001      2.279
  7.097E+00     18.441      2.281
  7.199E+00     15.288      2.281
  7.222E+00     10.552      1.755
  7.302E+00     12.836      2.280
  7.422E+00     18.806      1.929
  7.509E+00     13.020      2.281
  7.529E+00     16.354      1.928
  7.618E+00      9.691      2.280
  7.656E+00     16.710      2.279
  7.725E+00     10.747      2.455
  7.793E+00      5.312      2.281
  7.857E+00      9.174      2.455
  7.990E+00      9.179      3.158
  8.078E+00     13.568      2.104
  8.173E+00      6.203      2.281
  8.214E+00     14.099      2.106
  8.264E+00      8.136      2.103
  8.353E+00     15.156      1.929
  8.425E+00     13.054      1.928
  8.476E+00      8.319      2.455
  8.570E+00      9.726      1.753
  8.620E+00      7.271      2.454
  8.690E+00     11.484      1.578
  8.742E+00      7.802      2.104
  8.814E+00     10.085      1.578
  8.886E+00     13.070      2.104
  8.940E+00      8.159      2.105
  9.013E+00     11.319      1.929
  9.089E+00     12.024      1.931
  9.143E+00      8.517      2.281
  9.173E+00      2.202      2.280
  9.299E+00      7.294      2.104
  9.431E+00      6.596      1.752
  9.507E+00     10.984      2.281
  9.669E+00     10.288      2.631
  9.726E+00      6.605      2.281
  9.807E+00      9.064      1.578
  9.837E+00      4.854      1.581
  9.887E+00     12.399      2.106
  9.972E+00     10.472      1.403
  1.006E+01      9.773      1.931
  1.020E+01      4.865      1.754
  1.026E+01      9.077      1.754
  1.034E+01     10.834      1.753
  1.038E+01      5.923      1.053
  1.046E+01      4.697      1.403
  1.058E+01      8.384      1.053
  1.061E+01     11.192      1.405
  1.070E+01      6.634      1.753
  1.073E+01     10.143      1.055
  1.076E+01      2.776      1.229
  1.085E+01      7.164      1.403
  1.098E+01      4.010      1.226
  1.104E+01      6.116      1.227
  1.106E+01      8.924      1.578
  1.125E+01     10.157      1.753
  1.129E+01      5.772      1.229
  1.138E+01     11.915      1.753
  1.147E+01     15.250      1.577
  1.154E+01     11.393      1.579
  1.164E+01      8.939      1.579
  1.174E+01      5.433      1.403
  1.190E+01      7.016      1.227
  1.204E+01      8.423      2.280
  1.221E+01      5.620      1.226
  1.231E+01      8.605      1.753
  1.255E+01      9.312      2.105
  1.284E+01      7.565      1.930
  1.313E+01      7.396      1.580
  1.336E+01      5.471      1.930
  1.358E+01     11.967      0.876
  1.358E+01      7.230      1.754
  1.366E+01      8.986      1.754
  1.377E+01     13.375      1.226
  1.385E+01     10.219      0.878
  1.397E+01      7.765      1.403
  1.409E+01      3.908      1.050
  1.413E+01      6.716      2.457
  1.424E+01      8.473      1.753
  1.449E+01      6.899      1.577
  1.453E+01      3.917      0.877
  1.482E+01      6.554      1.579
  1.498E+01     10.242      1.050
  1.516E+01      3.579      1.053
  1.524E+01      7.089      1.753
  1.554E+01      6.393      1.228
  1.589E+01      6.751      1.227
  1.603E+01      8.332      1.578
  1.620E+01      9.739
  1.639E+01     11.672      0.876
  1.643E+01     14.129      1.051
  1.667E+01      8.870      1.402
  1.695E+01      7.822      1.577
  1.729E+01      6.951      1.929
  1.763E+01      6.957      0.877
  1.798E+01      6.085      0.876
  1.823E+01      8.370      1.053
  1.870E+01      6.974      0.875
  1.870E+01      4.869      1.227
  1.907E+01      8.033
  1.956E+01      6.286      0.525
  1.967E+01      8.744      1.403
  2.000E+01      7.521      1.227
  2.046E+01      6.475      1.753
  2.098E+01      5.780      1.228
  2.140E+01      5.260      1.226
  2.176E+01      8.072
  2.176E+01      6.317
  2.182E+01      9.651
  2.188E+01     11.757
  2.193E+01     14.390
  2.199E+01     19.653      1.053
  2.223E+01     20.709      1.052
  2.230E+01     17.552      1.226
  2.243E+01     13.519
  2.263E+01     11.767
  2.295E+01      9.842
  2.334E+01      9.320
  2.354E+01      8.270
  2.407E+01      7.575      1.053
  2.448E+01      9.159      0.527
  2.483E+01      7.409      1.053
  2.525E+01      8.467      1.229
  2.568E+01      8.296      1.228
  2.611E+01     10.757      1.403
  2.678E+01     10.063      0.878
  2.731E+01      8.314
  2.770E+01      7.091
  2.841E+01      8.501
  2.913E+01      7.807
  2.938E+01      9.915
  2.996E+01      9.044
  3.030E+01      7.293
  3.073E+01      7.823
  3.098E+01     10.632
  3.134E+01      8.706
  3.196E+01      8.361
  3.259E+01      8.893
  3.286E+01     10.474
  3.314E+01     11.354
  3.332E+01     13.110
  3.370E+01     14.166
  3.408E+01     13.117
  3.437E+01     11.365
  3.486E+01      8.738
  3.526E+01      7.864
  3.576E+01      8.043
  3.606E+01      6.292
  3.657E+01      7.173
  3.677E+01      8.402
  3.708E+01      9.808
  3.718E+01     11.739
  3.728E+01     14.196
  3.728E+01     13.319
  3.780E+01     15.253
  3.802E+01     13.149
  3.835E+01     11.222
  3.835E+01     10.345
  3.900E+01      8.946
  3.966E+01      9.478
  4.023E+01      8.429
  4.069E+01      7.555
  4.126E+01      8.963
  4.172E+01      8.264
  4.219E+01      9.320
  4.254E+01     11.954
  4.254E+01     10.375
  4.302E+01     12.835
  4.350E+01     13.891
  4.386E+01     14.946
  4.422E+01     18.808
  4.422E+01     17.580
  4.446E+01     21.441
  4.458E+01     23.898
  4.496E+01     23.198
  4.548E+01     19.869
  4.561E+01     16.712
  4.575E+01     15.660
  4.614E+01     14.785
  4.627E+01     12.856
  4.654E+01     10.577
  4.720E+01      9.880
  4.801E+01      8.131
  4.855E+01      7.257
  4.952E+01      7.613
  4.993E+01      8.844
  5.034E+01     11.478
  5.105E+01     12.535
  5.134E+01     11.133
  5.164E+01      9.731
  5.252E+01      8.333
  5.325E+01     10.091
  5.341E+01      9.215
  5.400E+01     12.025
  5.477E+01     10.976
  5.554E+01     10.279
  5.633E+01      9.581
  5.712E+01     10.287
  5.809E+01     11.169
  5.891E+01     10.998
  5.958E+01      9.423
  6.008E+01     11.355
  6.110E+01     10.658
  6.145E+01      9.607
  6.197E+01      8.382
  6.285E+01      8.386
  6.374E+01      8.741
  6.464E+01      8.745
  6.537E+01      8.748
  6.610E+01      8.927
  6.667E+01      8.052
  6.724E+01      6.651      1.227
  6.819E+01      5.778      2.104
  6.895E+01      8.413      1.929
  6.992E+01      8.417      2.105
  7.033E+01      5.086      2.281
  7.088E+01     14.562      5.439
  7.153E+01      3.863      3.682
  7.231E+01      9.831      5.788
ENDDATA            352
ENDSUBENT          367
SUBENT        11876007   20140131   20140701   20140612       1398
BIB                  4          9
REACTION  1(40-ZR-92(N,0),,EN)
          2(40-ZR-92(N,EL),,WID/RED)
          3(40-ZR-92(N,EL),,WID)
ANALYSIS   (AREA) From the transmission-versus-En plots, areas
           are obtained and resonance widths extracted by means
           of area analysis.
ERR-ANALYS (DATA-ERR) No details on source of uncertainty given.
STATUS     (TABLE) Table I, page 1332.
           (DEP,11876006)
ENDBIB               9
COMMON               1          3
MOMENTUM L
NO-DIM
 0.
ENDCOMMON            3
DATA                 6         15
DATA      1DATA-ERR  1DATA      2DATA-ERR  2DATA      3DATA-ERR  3
MEV        MEV        MILLI-EV   MILLI-EV   MILLI-EV   MILLI-EV
   2.70E-03     6.E-05    4.8E+02    1.0E+02    2.3E+04     4.E+03
   4.10E-03     6.E-05     7.E+01     2.E+01     5.E+03         2.
   4.71E-03     5.E-05    2.5E+02     4.E+01    1.6E+04         3.
   6.88E-03     2.E-05    9.4E+02    1.0E+02    7.8E+04         9.
   1.21E-02               2.3E+02               2.5E+04
   1.45E-02               3.2E+02               3.8E+04
   1.72E-02               3.0E+02               3.8E+04
   2.31E-02               8.1E+02              1.21E+05
   2.70E-02
   3.12E-02
   3.43E-02              1.19E+03              2.17E+05
   3.93E-02              1.07E+03              2.08E+05
   4.47E-02               9.0E+02              1.86E+05
   4.68E-02              2.70E+03              6.07E+05
   5.20E-02
ENDDATA             17
ENDSUBENT           35
SUBENT        11876008   20140131   20140701   20140612       1398
BIB                  3          3
REACTION   (40-ZR-92(N,0),,D)
ERR-ANALYS (DATA-ERR) No information on source of uncertainties.
STATUS     (TABLE) Table II, page 1333.ENDBIB               1
ENDBIB               3
NOCOMMON             0          0
DATA                 4          1
EN-RES-MIN EN-RES-MAX DATA       DATA-ERR
MEV        MEV        EV         EV
         0.    5.2E-02    3.3E+03     7.E+02
ENDDATA              3
ENDSUBENT           11
SUBENT        11876009   20140131   20140701   20140612       1398
BIB                  3          4
REACTION   (40-ZR-92(N,EL),,STF)
ERR-ANALYS (DATA-ERR) No information on source of uncertainties.
STATUS     (TABLE) Table II, page 1333.
           (DEP,11876006)
ENDBIB               4
COMMON               1          3
MOMENTUM L
NO-DIM
 0.
ENDCOMMON            3
DATA                 4          2
EN-RES-MIN EN-RES-MAX DATA       DATA-ERR
MEV        MEV        NO-DIM     NO-DIM
         0.    12.E-03    1.5E-04     9.E-05
    1.2E-02    5.2E-02   1.82E-04    9.0E-05
ENDDATA              4
ENDSUBENT           17
SUBENT        11876010   20140131   20140701   20140612       1398
BIB                  4         10
REACTION   (40-ZR-94(N,TOT),,SIG)
SAMPLE     Each nuclide was fabricated into right-circular
           cylinders. For the nuclides of masses 90, 92, 94, each
           cylinder was 32 mm in diam and consisted of two pieces
           whose thickness ratios were about 3:2, to permit
           measurements at thicknesses corresponding to
           reciprocal atom/area of about 30 and 50 b/atom.
           Samples were in form of oxides.
ERR-ANALYS (DATA-ERR) No information on source of uncertainties.
STATUS     (CURVE) Fig. 1, page 1331.
ENDBIB              10
NOCOMMON             0          0
DATA                 3        331
EN         DATA       DATA-ERR
KEV        B          B
  3.205E+00      2.208      2.240
  3.241E+00     12.207      2.790
  3.282E+00      2.818      2.155
  3.318E+00     11.082      2.463
  3.352E+00      6.184      1.743
  3.370E+00      9.551      2.027
  3.404E+00      1.795      1.931
  3.456E+00     11.799      2.388
  3.489E+00      1.453      1.989
  3.517E+00      7.819      1.989
  3.551E+00      4.853      1.908
  3.570E+00      9.036      2.014
  3.578E+00      0.158      1.690
  3.615E+00     -0.047      1.785
  3.646E+00     12.503      2.500
  3.654E+00      7.119      2.188
  3.695E+00     14.747      1.860
  3.742E+00      7.501      2.374
  3.753E+00     11.787      1.685
  3.831E+00      5.255      2.715
  3.852E+00     10.968      1.963
  3.912E+00      5.661      3.023
  3.933E+00     10.151      2.241
  3.974E+00      8.109      1.294
  4.027E+00     10.761      1.560
  4.037E+00      5.046      2.012
  4.070E+00     13.209      1.523
  4.120E+00      7.607      1.889
  4.199E+00      7.798      1.884
  4.209E+00      4.329      1.398
  4.254E+00      4.328      1.299
  4.289E+00     10.858      1.563
  4.322E+00      8.408      1.302
  4.355E+00      5.959      1.340
  4.370E+00      9.293      1.393
  4.424E+00      5.957      1.340
  4.460E+00      7.794      1.586
  4.482E+00      1.263      1.122
  4.495E+00      9.119      1.321
  4.506E+00      4.119      1.891
  4.552E+00     11.478      1.691
  4.566E+00      6.975      1.664
  4.601E+00      4.424      2.196
  4.663E+00      7.484      1.876
  4.700E+00     10.340      1.749
  4.724E+00      6.769      1.659
  4.760E+00      2.380      1.549
  4.811E+00      4.318      1.498
  4.824E+00      6.869      1.761
  4.837E+00      9.930      2.137
  4.901E+00      7.684      1.980
  4.952E+00      5.540      1.429
  5.018E+00      8.396      1.601
  5.056E+00      5.437      1.625
  5.110E+00      7.171      1.470
  5.137E+00      9.007      1.915
  5.170E+00      3.809      1.392
  5.245E+00      2.781      1.061
  5.274E+00      8.086      1.493
  5.286E+00      4.107      1.195
  5.306E+00     10.671      1.492
  5.332E+00      6.990      1.492
  5.356E+00      5.432      1.725
  5.428E+00      8.390      1.601
  5.441E+00      5.635      2.227
  5.483E+00      3.491      3.666
  5.485E+00      8.083      2.886
  5.502E+00     19.001      2.962
  5.504E+00     25.736      3.431
  5.576E+00     33.047      3.978
  5.634E+00     18.999      2.465
  5.636E+00     28.591      3.005
  5.647E+00     13.795      2.532
  5.736E+00     14.610      2.951
  5.765E+00      7.875      3.477
  5.778E+00      1.855      2.232
  5.886E+00      5.118      2.115
  5.916E+00      3.485      2.173
  5.964E+00      7.872      1.687
  6.012E+00      8.771      2.088
  6.073E+00      2.667      1.357
  6.073E+00      4.606      2.300
  6.168E+00      0.013      1.986
  6.169E+00      3.176      1.469
  6.198E+00      5.685      1.591
  6.230E+00      7.773      1.591
  6.284E+00      5.623      1.232
  6.300E+00      3.480      1.079
  6.382E+00      0.010      1.190
  6.416E+00      2.765      1.061
  6.434E+00      6.846      1.363
  6.552E+00      4.192      1.097
  6.639E+00      4.701      1.309
  6.641E+00      8.166      1.791
  6.693E+00     12.244      1.790
  6.714E+00     20.312      2.101
  6.753E+00     31.026      2.172
  6.770E+00     27.250      2.077
  6.773E+00     35.515      2.485
  6.860E+00     31.127      2.274
  6.894E+00     24.085      1.898
  6.939E+00     17.413      1.691
  7.035E+00     11.023      1.767
  7.108E+00      8.165      1.397
  7.110E+00     12.042      1.196
  7.146E+00      9.695      1.535
  7.148E+00     16.021      0.203
  7.182E+00      5.613      1.431
  7.218E+00      2.041      1.641
  7.277E+00      5.612      1.929
  7.354E+00      6.733      2.156
  7.371E+00      1.835      1.535
  7.394E+00     11.738      1.990
  7.469E+00      3.365      1.574
  7.487E+00      0.201      1.793
  7.590E+00     10.098      1.844
  7.607E+00      2.955      1.663
  7.669E+00      7.546      1.580
  7.769E+00      5.402      1.327
  7.852E+00      8.259      1.300
  7.911E+00      0.503      1.502
  7.938E+00      4.770      1.591
  8.038E+00      6.318      1.450
  8.123E+00      6.930      1.565
  8.165E+00      4.276      1.200
  8.206E+00      1.419      1.326
  8.337E+00      2.540      1.156
  8.339E+00      6.723      1.360
  8.397E+00      4.765      0.895
  8.493E+00      6.314      1.350
  8.536E+00      4.375      1.202
  8.626E+00      3.557      1.281
  8.628E+00      8.251      1.101
  8.813E+00      3.369      1.293
  8.860E+00      6.850      0.995
  8.926E+00      6.922      1.519
  9.042E+00      4.959      1.094
  9.066E+00      3.860      1.289
  9.188E+00      9.267      1.226
  9.234E+00      4.879      1.314
  9.369E+00      0.579      1.194
  9.371E+00      5.055      1.293
  9.420E+00      8.039      0.995
  9.478E+00      3.244      1.074
  9.554E+00      4.672      1.011
  9.605E+00      7.120      0.973
  9.653E+00      2.528      0.957
  9.706E+00      5.487      1.032
  9.758E+00      8.650      1.012
  9.937E+00      5.383      1.029
  9.990E+00      7.219      0.876
  1.014E+01      4.850      1.194
  1.030E+01      6.241      0.896
  1.043E+01      8.926      1.094
  1.047E+01      6.195      1.049
  1.055E+01      3.643      0.687
  1.056E+01      8.031      0.896
  1.064E+01      5.377      0.930
  1.073E+01      7.631      0.796
  1.080E+01      3.233      0.876
  1.087E+01      5.839      0.896
  1.092E+01      7.008      0.772
  1.106E+01      4.660      0.911
  1.106E+01      7.517      0.983
  1.124E+01      7.516      0.884
  1.130E+01      5.373      0.829
  1.148E+01      5.065      0.822
  1.151E+01      8.637      0.813
  1.157E+01      6.799      0.767
  1.172E+01      8.941      0.721
  1.182E+01      7.225      0.995
  1.187E+01      4.450      1.105
  1.191E+01      6.429      1.194
  1.200E+01      8.225      1.101
  1.203E+01     11.490      0.984
  1.210E+01     13.633      0.939
  1.223E+01     12.101      0.900
  1.226E+01      8.632      1.111
  1.235E+01      6.525      1.194
  1.244E+01      5.430      0.796
  1.251E+01      2.916      1.166
  1.255E+01      6.487      0.759
  1.268E+01      2.915      0.967
  1.281E+01      5.057      0.922
  1.303E+01      5.427      1.094
  1.318E+01      3.116      0.873
  1.332E+01      4.135      0.799
  1.343E+01      5.257      0.728
  1.350E+01      6.787      0.766
  1.364E+01      5.358      0.830
  1.381E+01      7.213      0.796
  1.392E+01      4.725      0.696
  1.406E+01      3.929      0.795
  1.411E+01      6.273      0.753
  1.422E+01      2.497      0.659
  1.430E+01      5.252      0.827
  1.445E+01      3.925      0.694
  1.461E+01      5.716      0.696
  1.472E+01      6.066      1.147
  1.491E+01      8.004      0.897
  1.503E+01      5.962      0.646
  1.511E+01      4.635      1.011
  1.527E+01      2.798      0.925
  1.543E+01      5.552      0.835
  1.551E+01      2.286      0.853
  1.559E+01      4.531      0.809
  1.577E+01      3.721      0.995
  1.592E+01      4.325      1.202
  1.617E+01      4.732      1.013
  1.647E+01      3.717      0.796
  1.665E+01      5.852      0.942
  1.673E+01      7.586      0.687
  1.687E+01      8.606      0.813
  1.705E+01      8.299      0.705
  1.721E+01     10.080      0.895
  1.723E+01     14.217      0.755
  1.746E+01     16.461      0.912
  1.755E+01     13.195      0.630
  1.759E+01      9.317      0.831
  1.768E+01      7.684      0.690
  1.777E+01      4.010      0.995
  1.805E+01      2.172      1.844
  1.833E+01      1.918      2.188
  1.839E+01     14.451      1.890
  1.843E+01      6.891      1.790
  1.854E+01     18.727      2.388
  1.875E+01     26.047      2.247
  1.875E+01     31.047      2.373
  1.892E+01     22.108      2.188
  1.904E+01     19.107      1.774
  1.911E+01     15.443      1.491
  1.916E+01     12.956      1.790
  1.939E+01     15.432      1.582
  1.944E+01     19.615      1.886
  1.951E+01     22.603      1.592
  1.964E+01     17.063      1.425
  1.975E+01     20.022      1.499
  1.985E+01     12.267      1.403
  1.985E+01     14.512      1.360
  1.995E+01      8.185      1.399
  2.015E+01      6.387      1.392
  2.036E+01      4.795      1.293
  2.069E+01      6.447      2.151
  2.107E+01      8.282      1.401
  2.129E+01      7.567      1.284
  2.130E+01      9.914      1.046
  2.160E+01     11.653      1.193
  2.186E+01      9.912      1.045
  2.220E+01      7.054      0.873
  2.250E+01      6.746      1.164
  2.268E+01      8.378      1.007
  2.274E+01     11.746      1.191
  2.298E+01     13.786      1.044
  2.328E+01     11.132      0.877
  2.359E+01     14.498      1.460
  2.377E+01      7.558      0.887
  2.377E+01     10.926      0.872
  2.421E+01      6.332      0.856
  2.466E+01      6.943      0.871
  2.479E+01      8.473      1.009
  2.479E+01     11.739      0.694
  2.499E+01     12.861      1.120
  2.518E+01      9.901      0.747
  2.544E+01      7.859      1.093
  2.578E+01      5.409      0.832
  2.598E+01      3.572      0.885
  2.639E+01      6.326      0.657
  2.695E+01      8.161      0.802
  2.724E+01      6.833      0.769
  2.745E+01      5.098      0.625
  2.766E+01      3.975      0.697
  2.796E+01      4.892      0.720
  2.825E+01      5.912      0.746
  2.840E+01      7.952      0.996
  2.860E+01     11.432      0.597
  2.863E+01      9.686      0.742
  2.886E+01     12.135      0.804
  2.931E+01      9.685      0.841
  2.970E+01     11.520      0.689
  3.001E+01     10.805      0.671
  3.041E+01     12.641      1.016
  3.065E+01     10.906      0.375
  3.089E+01      8.456      0.611
  3.113E+01      9.782      0.546
  3.122E+01     12.537      0.814
  3.130E+01     15.598      0.593
  3.152E+01     16.895      0.696
  3.176E+01     14.905      0.896
  3.183E+01     11.622      0.796
  3.207E+01      8.339      0.696
  3.229E+01      6.616      0.864
  3.306E+01      5.900      0.547
  3.323E+01      7.328      0.583
  3.333E+01      9.674      0.741
  3.350E+01     11.613      0.790
  3.368E+01     12.837      0.622
  3.403E+01     11.612      0.691
  3.421E+01      9.978      0.550
  3.439E+01      9.060      0.527
  3.493E+01      7.936      0.698
  3.558E+01      7.322      0.583
  3.614E+01      8.137      0.504
  3.614E+01      9.974      0.650
  3.643E+01     10.790      0.869
  3.691E+01      8.952      0.723
  3.710E+01      6.196      0.853
  3.768E+01      6.195      0.753
  3.838E+01      5.479      0.935
  3.883E+01      6.732      0.995
  3.899E+01      8.131      0.803
  3.924E+01     10.312      0.796
  3.962E+01     12.212      1.204
  4.003E+01     11.395      0.984
  4.035E+01      9.761      0.943
  4.088E+01     11.801      0.796
  4.099E+01     15.979      1.094
  4.121E+01     18.863      1.293
  4.154E+01     18.126      1.154
  4.175E+01     14.044      1.151
  4.218E+01     10.676      0.966
  4.229E+01      8.533      1.211
  4.257E+01      6.725      1.095
  4.289E+01      3.542      1.094
  4.306E+01      5.164      1.026
  4.341E+01      7.817      1.292
  4.375E+01      6.183      1.435
  4.444E+01      3.835      1.888
  4.489E+01     -1.166      1.861
  4.490E+01      1.487      1.730
  4.547E+01     -1.039      2.486
  4.572E+01      5.327      3.381
ENDDATA            333
ENDSUBENT          348
SUBENT        11876011   20140131   20140701   20140612       1398
BIB                  4          9
REACTION  1(40-ZR-94(N,0),,EN)
          2(40-ZR-94(N,EL),,WID/RED)
          3(40-ZR-94(N,EL),,WID)
ANALYSIS   (AREA) From the transmission-versus-En plots, areas
           are obtained and resonance widths extracted by means
           of area analysis.
ERR-ANALYS (DATA-ERR) No details on source of uncertainty given.
STATUS     (TABLE) Table I, page 1332.
           (DEP,11876010)
ENDBIB               9
COMMON               1          3
MOMENTUM L
NO-DIM
 0.
ENDCOMMON            3
DATA                 6         22
DATA      1DATA-ERR  1DATA      2DATA-ERR  2DATA      3DATA-ERR  3
MEV        MEV        MILLI-EV   MILLI-EV   MILLI-EV   MILLI-EV
    5.7E-03     1.E-04    2.9E+02               2.2E+04
   6.98E-03    2.0E-04    3.7E+02               3.0E+04
   1.27E-02               1.9E+02               2.0E+04
   1.55E-02                8.E+01               1.0E+04
   1.77E-02               1.2E+02               1.6E+04
  1.795E-02    2.0E-04    4.1E+02               5.4E+04     8.E+03
   1.94E-02     5.E-04    7.8E+02     9.E+01   1.07E+05         9.
   2.02E-02     2.E-04    6.1E+02               8.5E+04
   2.17E-02
   2.31E-02               3.2E+02               5.0E+04
   2.37E-02               2.8E+02              4.35E+04
   2.51E-02               3.6E+02              5.75E+04
   2.70E-02
   2.90E-02               3.4E+02               5.7E+04
   2.98E-02               3.4E+02               5.7E+04
   3.02E-02               4.5E+02               7.8E+04
   3.18E-02               7.5E+02              1.34E+05
   3.38E-02               7.1E+02              1.30E+05
   3.63E-02               3.6E+02               6.9E+04
   4.00E-02               7.3E+02              1.45E+05
   4.16E-02              1.29E+03              2.67E+05
   4.37E-02
ENDDATA             24
ENDSUBENT           42
SUBENT        11876012   20140131   20140701   20140612       1398
BIB                  3          3
REACTION   (40-ZR-94(N,0),,D)
ERR-ANALYS (DATA-ERR) No information on source of uncertainties.
STATUS     (TABLE) Table II, page 1333.
ENDBIB               3
NOCOMMON             0          0
DATA                 4          1
EN-RES-MIN EN-RES-MAX DATA       DATA-ERR
MEV        MEV        EV         EV
         0.    4.4E-02    1.7E+03     3.E+02
ENDDATA              3
ENDSUBENT           11
SUBENT        11876013   20140131   20140701   20140612       1398
BIB                  3          4
REACTION   (40-ZR-94(N,EL),,STF)
ERR-ANALYS (DATA-ERR) No information on source of uncertainties.
STATUS     (TABLE) Table II, page 1333.
           (DEP,11876010)
ENDBIB               4
COMMON               1          3
MOMENTUM L
NO-DIM
 0.
ENDCOMMON            3
DATA                 4          2
EN-RES-MIN EN-RES-MAX DATA       DATA-ERR
MEV        MEV        NO-DIM     NO-DIM
         0.    2.1E-02    1.1E-04     8.E-05
    2.1E-02    4.4E-02   2.84E-04    1.0E-04
ENDDATA              4
ENDSUBENT           17
SUBENT        11876014   20140131   20140701   20140612       1398
BIB                  3          3
REACTION   (40-ZR-96(N,0),,D)
ERR-ANALYS (DATA-ERR) No information on source of uncertainties.
STATUS     (TABLE) Table II, page 1333.
ENDBIB               3
NOCOMMON             0          0
DATA                 4          1
EN-RES-MIN EN-RES-MAX DATA       DATA-ERR
MEV        MEV        EV         EV
         0.    5.8E-03   7.50E+02   2.00E+02
ENDDATA              3
ENDSUBENT           11
SUBENT        11876015   20140131   20140701   20140612       1398
BIB                  3          4
REACTION   (40-ZR-96(N,EL),,STF)
ERR-ANALYS (DATA-ERR) No information on source of uncertainties.
STATUS     (TABLE) Table II, page 1333.
           (DEP,11876016)
ENDBIB               4
COMMON               1          3
MOMENTUM L
NO-DIM
 0.
ENDCOMMON            3
DATA                 4          2
EN-RES-MIN EN-RES-MAX DATA       DATA-ERR
MEV        MEV        NO-DIM     NO-DIM
         0.    5.8E-03    1.0E-04     6.E-05
    5.8E-03    5.8E-02   2.62E-04   1.00E-04
ENDDATA              4
ENDSUBENT           17
SUBENT        11876016   20140131   20140701   20140612       1398
BIB                  4          8
REACTION   (40-ZR-96(N,TOT),,SIG)
SAMPLE     The isotope of mass 96 was available only in limited
           quantity with the result that in choosing a suitable
           thickness corresponding to about 48 b/atom, it was
           necessary to accept a sample diameter of 12 mm.
           Samples were in form of oxides.
ERR-ANALYS (DATA-ERR) No information on source of uncertainties.
STATUS     (CURVE) Fig. 1, page 1331.
ENDBIB               8
NOCOMMON             0          0
DATA                 3        363
EN         DATA       DATA-ERR
KEV        B          B
  2.499E+00     19.090      5.019
  2.500E+00     11.420      3.977
  2.517E+00      4.127      3.883
  2.530E+00     26.761      7.576
  2.538E+00     -1.081      6.061
  2.563E+00     34.733      5.510
  2.563E+00     41.081      3.903
  2.582E+00     48.336      4.907
  2.624E+00     59.339      4.735
  2.648E+00     41.761      2.689
  2.658E+00     48.789      3.277
  2.667E+00     34.280      3.162
  2.688E+00     26.951      2.652
  2.697E+00     21.131      3.650
  2.729E+00     29.223      5.303
  2.746E+00     11.155      3.713
  2.756E+00     18.410      2.824
  2.776E+00     22.038      2.853
  2.776E+00      2.767      4.227
  2.865E+00     22.784      3.788
  2.891E+00      8.010      3.599
  2.931E+00     20.677      3.386
  2.953E+00      2.767      4.038
  2.974E+00     12.969      3.444
  3.026E+00     19.943      3.030
  3.081E+00     18.238      1.894
  3.084E+00      0.727      3.513
  3.095E+00     12.969      2.686
  3.163E+00      3.221      2.218
  3.187E+00     11.836      2.310
  3.280E+00     11.382      2.804
  3.304E+00      3.465      2.462
  3.365E+00      6.395      1.794
  3.389E+00     12.516      2.233
  3.439E+00      5.261      2.365
  3.502E+00     14.556      3.137
  3.592E+00     13.423      2.950
  3.605E+00     17.957      1.802
  3.644E+00     22.264      2.700
  3.684E+00     29.066      2.304
  3.698E+00     22.718      2.207
  3.738E+00     24.078      2.431
  3.738E+00     19.997      1.949
  3.765E+00     16.823      1.994
  3.834E+00     11.609      2.083
  3.848E+00     15.236      2.112
  3.890E+00     19.997      2.327
  3.933E+00     23.625      2.167
  3.947E+00     26.572      2.462
  3.991E+00     33.373      3.771
  4.020E+00     30.879      2.413
  4.034E+00     20.224      2.554
  4.064E+00     16.370      2.109
  4.078E+00     22.491      1.791
  4.093E+00     14.329      1.963
  4.123E+00      9.795      2.543
  4.183E+00     14.103      3.251
  4.260E+00     10.702      2.502
  4.288E+00      6.684      1.705
  4.366E+00      9.525      2.273
  4.385E+00     13.876      2.457
  4.433E+00     15.236      2.491
  4.466E+00     21.357      2.551
  4.482E+00     28.612      2.609
  4.548E+00     26.572      2.273
  4.564E+00     17.050      2.221
  4.597E+00     13.876      1.888
  4.597E+00     10.249      2.049
  4.648E+00     12.742      2.270
  4.699E+00      9.795      2.921
  4.767E+00      9.115      3.378
  4.785E+00     17.050      2.221
  4.802E+00      7.075      2.451
  4.872E+00     11.382      2.614
  4.925E+00      7.982      2.434
  4.959E+00      3.465      2.652
  5.052E+00      8.435      2.508
  5.081E+00     12.935      1.894
  5.163E+00     10.702      2.692
  5.182E+00     19.770      2.669
  5.258E+00     11.155      3.524
  5.258E+00     25.665      2.313
  5.258E+00     32.013      2.789
  5.277E+00     38.134      2.660
  5.316E+00     54.911      5.232
  5.335E+00     43.348      3.518
  5.354E+00     62.845      4.264
  5.374E+00     57.631      3.975
  5.374E+00     26.798      4.962
  5.374E+00     11.155      4.092
  5.393E+00     41.761      4.583
  5.448E+00      0.245      4.356
  5.452E+00     21.131      3.840
  5.593E+00     25.212      5.648
  5.654E+00     14.329      4.425
  5.736E+00     17.277      3.774
  5.757E+00     34.053      4.262
  5.778E+00     26.345      3.940
  5.820E+00      2.541      3.622
  5.842E+00     10.475      3.602
  5.884E+00     17.957      3.317
  6.014E+00     15.010      4.537
  6.124E+00      7.075      2.853
  6.168E+00      2.767      3.848
  6.168E+00     14.329      3.099
  6.244E+00     -3.543      3.788
  6.259E+00      9.569      2.695
  6.304E+00     19.770      3.237
  6.378E+00      5.548      2.652
  6.436E+00     26.572      3.599
  6.443E+00     19.544      3.389
  6.490E+00     35.867      3.802
  6.495E+00     42.103      3.599
  6.513E+00     46.976      3.358
  6.561E+00     55.817      5.002
  6.633E+00     40.855      4.055
  6.657E+00     58.991      5.335
  6.730E+00     30.426      2.718
  6.828E+00     25.665      3.260
  6.853E+00     18.637      2.482
  6.903E+00     15.690      2.566
  6.978E+00     22.944      2.812
  7.132E+00     19.770      3.237
  7.132E+00     15.010      2.454
  7.184E+00      5.261      1.986
  7.263E+00     12.742      3.028
  7.289E+00     21.357      2.741
  7.396E+00      6.848      2.058
  7.449E+00     14.783      2.227
  7.604E+00     14.450      2.841
  7.669E+00     10.022      2.769
  7.697E+00     22.038      2.663
  7.781E+00     19.997      2.706
  7.781E+00      7.982      2.055
  7.838E+00     14.103      2.873
  7.924E+00      5.488      2.591
  8.079E+00     13.692      2.652
  8.157E+00      7.755      2.207
  8.276E+00     12.289      2.006
  8.328E+00      6.874      2.652
  8.458E+00     13.649      2.419
  8.489E+00     18.864      2.330
  8.610E+00     15.776      2.273
  8.676E+00     22.944      2.812
  8.742E+00     15.776      2.462
  8.867E+00     14.556      2.758
  8.867E+00     11.836      2.121
  9.029E+00      6.848      2.815
  9.128E+00     12.516      2.611
  9.329E+00     17.730      2.523
  9.363E+00      9.795      2.353
  9.466E+00     13.196      2.155
  9.569E+00     14.556      2.379
  9.750E+00     10.094      1.894
  9.780E+00      6.621      2.967
  9.851E+00     12.289      2.006
  9.995E+00     12.516      2.422
  1.018E+01      8.435      2.698
  1.025E+01     14.783      2.795
  1.039E+01      9.715      2.841
  1.052E+01     12.289      2.006
  1.055E+01      4.808      2.290
  1.067E+01     15.916      2.413
  1.079E+01      6.621      2.399
  1.090E+01      8.208      1.903
  1.090E+01     13.423      1.814
  1.114E+01     10.475      1.708
  1.123E+01     12.062      1.590
  1.131E+01      7.821      1.894
  1.143E+01      2.994      1.613
  1.151E+01     10.022      2.012
  1.151E+01     17.957      1.992
  1.160E+01     13.423      1.814
  1.173E+01     17.277      2.069
  1.177E+01      9.342      2.279
  1.190E+01     14.329      2.721
  1.190E+01      5.488      1.455
  1.207E+01      8.435      2.129
  1.213E+01     11.609      1.894
  1.225E+01      1.180      2.640
  1.238E+01      3.447      2.256
  1.247E+01      9.115      2.620
  1.265E+01      8.888      3.340
  1.284E+01     17.050      2.600
  1.289E+01     10.249      2.428
  1.298E+01     12.062      2.347
  1.312E+01      6.848      2.247
  1.331E+01     15.010      2.075
  1.341E+01     13.649      2.230
  1.341E+01      2.994      1.613
  1.366E+01      7.528      2.548
  1.381E+01      1.860      2.941
  1.386E+01      9.342      2.847
  1.401E+01      7.075      1.527
  1.416E+01     11.382      1.857
  1.426E+01      6.168      1.756
  1.442E+01      4.808      1.911
  1.468E+01     11.836      2.689
  1.474E+01     17.050      2.221
  1.485E+01     19.090      2.368
  1.506E+01     16.823      1.805
  1.534E+01     17.050      2.600
  1.539E+01      8.662      2.356
  1.568E+01      4.808      2.101
  1.585E+01     12.062      2.158
  1.602E+01      7.075      2.095
  1.608E+01     11.382      2.236
  1.631E+01      3.901      1.762
  1.637E+01     15.690      2.187
  1.655E+01     10.475      1.708
  1.661E+01     24.758      2.353
  1.673E+01     18.864      1.951
  1.698E+01     19.770      2.479
  1.713E+01      5.927      2.083
  1.716E+01     15.010      1.885
  1.716E+01     11.836      1.931
  1.748E+01     11.836      2.689
  1.771E+01      6.684      2.273
  1.793E+01      3.221      2.597
  1.793E+01     13.196      1.966
  1.832E+01      8.435      1.940
  1.839E+01     13.196      1.776
  1.848E+01      2.896      2.841
  1.866E+01      7.075      1.906
  1.879E+01     11.382      1.857
  1.907E+01      9.342      2.279
  1.949E+01     10.249      1.860
  1.956E+01      6.621      1.831
  1.988E+01      1.571      2.273
  2.006E+01      7.528      1.980
  2.043E+01      5.927      2.273
  2.055E+01     10.283      2.652
  2.096E+01      7.982      2.244
  2.119E+01     13.196      1.966
  2.125E+01     -0.324      2.273
  2.144E+01      3.275      2.083
  2.150E+01     13.876      1.699
  2.157E+01      9.795      2.353
  2.177E+01     19.943      2.652
  2.189E+01     30.199      2.680
  2.189E+01     26.572      2.462
  2.204E+01     18.049      2.841
  2.221E+01     11.155      2.577
  2.237E+01     15.010      3.211
  2.253E+01      7.301      2.700
  2.286E+01     12.289      2.574
  2.311E+01      6.395      2.362
  2.313E+01     13.882      2.083
  2.354E+01      6.395      2.741
  2.354E+01     13.423      2.571
  2.384E+01     11.230      3.030
  2.441E+01     19.544      2.253
  2.441E+01     12.289      2.574
  2.450E+01      8.768      1.894
  2.459E+01     14.329      2.342
  2.494E+01     13.876      2.835
  2.504E+01     16.143      2.072
  2.531E+01      7.528      2.359
  2.549E+01     10.929      1.593
  2.568E+01     15.690      2.187
  2.624E+01     14.103      1.926
  2.651E+01     12.556      1.894
  2.675E+01     17.859      1.705
  2.682E+01      8.435      2.319
  2.733E+01     11.041      2.652
  2.741E+01     17.277      2.069
  2.771E+01     21.811      2.626
  2.791E+01     29.066      2.494
  2.791E+01     30.879      2.035
  2.791E+01     43.575      2.419
  2.802E+01     40.401      2.465
  2.822E+01     57.631      2.838
  2.825E+01     65.968      3.409
  2.853E+01     51.963      2.284
  2.860E+01     47.217      2.083
  2.863E+01     36.547      2.210
  2.863E+01     30.653      1.997
  2.884E+01     26.345      1.857
  2.895E+01     20.700      1.705
  2.912E+01     15.208      1.894
  2.948E+01     16.823      1.616
  2.980E+01     10.929      1.403
  3.013E+01     15.010      1.696
  3.046E+01      9.795      2.164
  3.101E+01     15.690      1.619
  3.113E+01     12.516      2.233
  3.147E+01     10.249      2.049
  3.170E+01     12.516      1.854
  3.199E+01      8.389      3.220
  3.239E+01     10.475      1.897
  3.299E+01     11.609      1.705
  3.308E+01      7.063      2.083
  3.311E+01     17.277      2.069
  3.311E+01     14.556      1.621
  3.335E+01     20.904      2.098
  3.359E+01     25.892      1.782
  3.405E+01     22.820      1.930
  3.449E+01     18.010      2.045
  3.505E+01     23.421      1.774
  3.528E+01     18.611      1.320
  3.550E+01     11.997      2.093
  3.612E+01     14.639      2.083
  3.690E+01      8.790      1.917
  3.725E+01     12.799      1.569
  3.780E+01     18.238      1.705
  3.847E+01     12.799      1.758
  3.909E+01     21.417      1.664
  3.922E+01     17.008      2.179
  3.960E+01     24.423      1.450
  3.972E+01     21.818      1.307
  3.985E+01     18.210      1.488
  4.036E+01     13.200      1.780
  4.165E+01     11.041      1.326
  4.222E+01     13.400      1.602
  4.304E+01     17.008      1.421
  4.372E+01     11.609      1.326
  4.402E+01     15.204      1.701
  4.438E+01     19.753      1.894
  4.487E+01     27.029      1.215
  4.502E+01     21.217      1.842
  4.531E+01     17.008      1.421
  4.560E+01     14.603      0.910
  4.617E+01     13.314      1.136
  4.708E+01     10.394      1.247
  4.784E+01     11.196      0.912
  4.893E+01      9.392      1.760
  4.980E+01     11.230      0.758
  4.995E+01     14.450      1.326
  5.053E+01     17.409      1.443
  5.134E+01     19.212      1.164
  5.151E+01     23.221      1.005
  5.180E+01     28.655      0.947
  5.200E+01     33.443      0.810
  5.234E+01     38.854      0.918
  5.268E+01     43.865      1.572
  5.319E+01     37.050      0.819
  5.353E+01     33.242      1.178
  5.387E+01     27.630      0.869
  5.405E+01     23.622      1.027
  5.422E+01     17.810      1.087
  5.439E+01     15.204      0.943
  5.510E+01     12.999      0.822
  5.527E+01     15.004      0.743
  5.571E+01     16.155      1.136
  5.571E+01     18.427      0.947
  5.599E+01     21.016      1.452
  5.653E+01     26.829      1.393
  5.689E+01     28.432      1.292
  5.744E+01     24.624      0.893
  5.763E+01     21.417      1.096
  5.830E+01     16.533      1.326
  5.893E+01     15.004      0.932
  5.974E+01     12.745      1.136
  6.086E+01     16.006      1.177
  6.144E+01     13.801      1.435
  6.289E+01     11.798      1.136
  6.365E+01     10.995      1.280
  6.510E+01     15.805      1.924
  6.572E+01     10.795      1.837
  6.602E+01     12.745      1.515
  6.700E+01      7.989      2.630
  6.765E+01     16.006      2.882
  6.852E+01     10.594      1.637
ENDDATA            365
ENDSUBENT          378
SUBENT        11876017   20140131   20140701   20140612       1398
BIB                  4          9
REACTION  1(40-ZR-96(N,0),,EN)
          2(40-ZR-96(N,EL),,WID/RED)
          3(40-ZR-96(N,EL),,WID)
ANALYSIS   (AREA) From the transmission-versus-En plots, areas
           are obtained and resonance widths extracted by means
           of area analysis.
ERR-ANALYS (DATA-ERR) No details on source of uncertainty given.
STATUS     (TABLE) Table I, page 1332.
           (DEP,11876016)
ENDBIB               9
COMMON               1          3
MOMENTUM L
NO-DIM
 0.
ENDCOMMON            3
DATA                 6         22
DATA      1DATA-ERR  1DATA      2DATA-ERR  2DATA      3DATA-ERR  3
MEV        MEV        MILLI-EV   MILLI-EV   MILLI-EV   MILLI-EV
   2.68E-03                8.E+01   3.00E+03     4.E+03
   3.85E-03     6.E-05    1.2E+02     1.E+01     7.E+03     1.E+03
   4.11E-03     2.E-05    1.9E+02     3.E+01    1.3E+04     1.E+03
   4.61E-03     1.E-05     8.E+01     4.E+01     6.E+03     2.E+03
   5.48E-03    1.0E-04   2.15E+02    5.0E+01   1.56E+04     3.E+03
   5.84E-03     7.E-05     5.E+01                4.E+04
   5.97E-03                5.E+01                4.E+04
   6.80E-03
   8.96E-03
  1.545E-02
  1.751E-02
  2.276E-02                3.E+02               4.6E+04
   2.94E-02              2.39E+03              4.02E+05
   3.45E-02                4.E+02               7.0E+04
   3.61E-02               5.0E+02               9.3E+04
   3.72E-02               2.3E+02               4.3E+04
   3.89E-02               4.9E+02               9.6E+04
   4.07E-02               9.1E+02              1.80E+05
   4.58E-02                5.E+02               9.6E+04
   5.16E-02               2.5E+02               6.0E+04
   5.42E-02              5.11E+03             1.170E+06
   5.83E-02              2.35E+03              5.58E+05
ENDDATA             24
ENDSUBENT           42
ENDENTRY            17
