ENTRY            40558   19850329   20061121   20060816       4138
SUBENT        40558001   19850329   20061121   20060816       4138
BIB                 11         18
INSTITUTE  (4LATIFL)
REFERENCE  (C,83MOSCOW,,123,198304)
AUTHOR     (YA.YA.BERZIN',T.V.GUSEVA,YU.YA.TAMBERG)
TITLE       EXCITED LEVEL INVESTIGATION FOR  GADOLINIUM-160
            BY THE INELASTIC NEUTRON SCATTERING
FACILITY   (REAC,4LATIFL)
SAMPLE      Oxide Gd2-O3, Weight 17 Gram, Gd-160 Content
            Is 98.6 Percent
DETECTOR   (GELI)  Detector Volume 40 Cm3
MONITOR    ((MONIT)26-FE-56(N,INL)26-FE-56,,SPC)
COMMENT     360 Gamma Lines, Included 320 New Ones,
            Were Detected
HISTORY    (19830826C)
           (20060801U) Correction in according to Memo CP-E/089.
              Dates were corrected for 4-digit year. M.M.
EN-SEC     (E-RSL,G) Gamma-energy Resolution At 1332. keV
           (E-NRM,G) Normalization Energy of monitor
           (E,G)     Gamma energy
ENDBIB              18
COMMON               3          3
E-NRM      E-RSL      MONIT
KEV        KEV        ARB-UNITS
 8.4600E+02 3.0000E+00 1.0000E+03
ENDCOMMON            3
ENDSUBENT           25
SUBENT        40558002   19850329   20061121   20060816       4138
BIB                  4          5
REACTION   (64-GD-160(N,INL)64-GD-160,,SPC,,REL) Relative
                                         To The Monitor
INC-SOURCE (REAC)
INC-SPECT    Fast Reactor Neutrons
ERR-ANALYS (E-ERR) Error of gamma Energy
ENDBIB               5
COMMON               1          3
EN-DUMMY
MEV
 1.0000E+00
ENDCOMMON            3
DATA                 4         62
E          E-ERR      DATA       ERR-T
KEV        KEV        ARB-UNITS  ARB-UNITS
 7.5470E+01 1.3000E+01 1.1500E+03 1.0000E+02
 1.2192E+02 1.0000E+01 5.3000E+00 6.0000E+00
 1.7254E+02 1.0000E+01 1.1800E+02 3.0000E+00
 1.9589E+02 1.0000E+01 1.1000E+02 7.0000E+00
 2.6520E+02 1.0000E+01 5.3500E+01 2.0000E+00
 3.5608E+02 1.3000E+01 3.9000E+00 5.0000E+00
 4.3291E+02 1.4000E+01 7.4000E+00 2.0000E+01
 5.1308E+02 2.2000E+01 6.3000E+01 8.0000E+00
 6.3321E+02 1.4000E+01 2.0000E+01 2.0000E+00
 7.4023E+02 2.8000E+01 3.1000E+00 4.0000E+00
 7.4371E+02 2.1000E+01 6.7000E+00 5.0000E+00
 8.0340E+02 5.0000E+00 6.2000E+01 2.0000E+01
 8.0920E+02 4.0000E+00 8.6000E+01 2.0000E+01
 8.1700E+02 5.0000E+00 6.7000E+01 1.8000E+01
 8.2240E+02 1.8000E+01 5.4000E+01 3.0000E+00
 8.9954E+02 1.6000E+01 3.9000E+01 2.0000E+00
 9.1345E+02 1.6000E+01 9.0000E+01 2.0000E+00
 9.2493E+02 1.7000E+01 2.3000E+01 1.0000E+00
 9.8234E+02 1.6000E+01 9.3000E+01 2.0000E+00
 9.8874E+02 1.6000E+01 6.9000E+01 2.0000E+00
 9.9539E+02 1.7000E+01 3.3000E+01 2.0000E+00
 1.0414E+03 1.6000E+01 2.7000E+01 1.0000E+00
 1.0729E+03 1.5000E+01 1.7600E+01 1.0000E+00
 1.1450E+03 2.0000E+00 6.5000E+00 1.0000E+00
 1.1492E+03 2.0000E+00 4.6000E+01 1.0000E+00
 1.1791E+03 2.0000E+00 1.1000E+01 1.0000E+00
 1.1880E+03 2.0000E+00 2.1000E+01 1.0000E+00
 1.1985E+03 4.0000E+00 5.0000E+00 2.0000E+00
 1.2045E+03 3.0000E+00 9.0000E+00 1.0000E+00
 1.2150E+03 2.0000E+00 5.2000E+01 2.0000E+00
 1.2244E+03 2.0000E+00 3.0000E+01 1.0000E+00
 1.2505E+03 2.0000E+00 1.3000E+01 1.0000E+00
 1.2760E+03 2.0000E+00 3.3000E+01 1.0000E+00
 1.3019E+03 2.0000E+00 4.6000E+01 3.0000E+00
 1.3043E+03 2.0000E+00 1.3000E+01 1.0000E+00
 1.3130E+03 8.0000E+00 4.5000E+00 8.0000E+00
 1.3607E+03 2.0000E+00 6.5000E+00 9.0000E+00
 1.3887E+03 2.0000E+00 1.4000E+01 1.0000E+00
 1.4051E+03 2.0000E+00 5.0000E+00 5.0000E+00
 1.4169E+03 2.0000E+00 6.5000E+00 1.0000E+00
 1.4358E+03 2.0000E+00 4.2000E+00 3.0000E+00
 1.4831E+03 2.0000E+00 4.4000E+00 5.0000E+00
 1.4935E+03 2.0000E+00 5.6000E+00 4.0000E+00
 1.5077E+03 2.0000E+00 5.9000E+00 5.0000E+00
 1.5106E+03 6.0000E+00 7.2000E+00 1.5000E+01
 1.5238E+03 2.0000E+00 7.8000E+00 4.0000E+00
 1.5689E+03 3.0000E+00 7.8000E+00 1.0000E+00
 1.5730E+03 3.0000E+00 5.2000E+00 7.0000E+00
 1.5867E+03 2.0000E+00 1.5000E+01 1.0000E+00
 1.5908E+03 3.0000E+00 5.9000E+00 6.0000E+00
 1.5992E+03 3.0000E+00 5.5000E+00 6.0000E+00
 1.7275E+03 8.0000E+00 2.8000E+00 1.0000E+01
 1.8056E+03 3.0000E+00 2.8000E+00 3.0000E+00
 1.8110E+03 2.0000E+00 7.2000E+00 7.0000E+00
 1.8910E+03 3.0000E+00 5.3000E+00 6.0000E+00
 1.9517E+03 9.0000E+00 4.0000E+00 7.0000E+00
 1.9563E+03 4.0000E+00 4.6000E+00 7.0000E+00
 1.9703E+03 4.0000E+00 4.0000E+00 7.0000E+00
 2.0621E+03 3.0000E+00 3.3000E+00 3.0000E+00
 2.1084E+03 4.0000E+00 3.2000E+00 5.0000E+00
 2.1303E+03 3.0000E+00 3.7000E+00 3.0000E+00
 2.1970E+03 2.0000E+00 3.4000E+00 1.5000E+01
ENDDATA             64
ENDSUBENT           78
ENDENTRY             2
