ENTRY            40565   20090416   20090724   20090724       4146
SUBENT        40565001   20090416   20090724   20090724       4146
BIB                 10         21
INSTITUTE  (4RUSRI)
REFERENCE  (C,83MOSCOW,,313,198304)
AUTHOR     (M.V.Blinov, B.D.Stsiborskiy, A.A.Filatenkov,
           B.M.Shiryaev)
TITLE       Gamma-ray spectrum arising at the 3-MeV-neutron
            interaction with U-235 nuclei .
FACILITY    Pulse Neutron Generator NG-400.
DETECTOR   (GELI) Ge(Li)-detector place at 125 deg respective to
                  incident neutron beam. For gammas registration.
ANALYSIS   (4PI1A)
MONITOR     No information .
ERR-ANALYS   E-RSL - Energy resolution of the detector .
           (ERR-1) Time resolution of the detector.
           (DATA-ERR) Not specified .
HISTORY    (19830829C)
           (20090416A) M.M. E and E-ERR values were corrected
            according to given in Table of reference.
            Duplicative points were deleted.
            BIB information was added.
            Free text was corrected to be human-readable.
            Dates were corrected for 4-digits year.
ENDBIB              21
COMMON               4          3
EN         ANG        E-RSL      ERR-1
MEV        ADEG       KEV        NSEC
 3.0000E+00 1.2500E+02 4.0000E+00 6.0000E+00
ENDCOMMON            3
ENDSUBENT           28
SUBENT        40565002   20090416   20090724   20090724       4146
BIB                  2          4
REACTION   (92-U-235(N,INL)92-U-235,,SPC,,REL)
                   Data units are not given .
            Relative to 706.88 keV gamma line taken per 100.
STATUS     (TABLE) Table of C,83MOSCOW .
ENDBIB               4
NOCOMMON             0          0
DATA                 4         90
E          E-ERR      DATA       DATA-ERR
KEV        KEV        ARB-UNITS  ARB-UNITS
  159.1     0.3        2.7000E+02  80.
  179.8     0.3        1.5000E+02  40.
  288.2     0.4        3.4000E+01   7.
  296.22    0.17       6.4000E+01   9.
  310.8     0.9        2.2000E+01   2.
  331.63    0.10       6.7000E+01   9.
  343.18    0.22       5.1000E+01   7.
  346.5     0.6        2.0000E+01   6.
  352.04    0.12       1.1500E+02   9.
  359.76    0.28       4.8000E+01  12.
  369.60    0.15       5.8000E+01   7.
  376.08    0.28       4.5000E+01   7.
  392.94    0.12       2.4000E+01   5.
  400.22    0.18       3.9000E+01   5.
  415.01    0.13       3.4000E+01   3.
  423.42    0.22       2.3000E+01   3.
  428.06    0.14       4.7000E+01   4.
  431.24    0.12       5.1000E+01   4.
  434.86    0.28       1.9000E+01   3.
  445.69    0.15       2.2000E+01   3.
  451.1     0.3        2.6000E+01   5.
  456.78    0.23       5.1000E+01   9.
  468.3     0.3        1.4000E+01   4.
  474.79    0.12       5.4000E+01   5.
  482.23    0.13       9.3000E+01   9.
  484.4     0.3        3.2000E+01   8.
  492.2     0.3        2.6000E+01   4.
  497.58    0.19       2.6000E+01   4.
  536.4     0.3        1.9000E+01   3.
  554.3     0.3        1.8000E+01   3.
  565.98    0.25       3.5000E+01   5.
  583.46    0.12       6.3000E+01   5.
  588.86    0.11       9.4000E+01   6.
  606.32    0.16       2.8000E+01   4.
  619.21    0.15       4.1000E+01   6.
  625.18    0.18       3.4000E+01   6.
  631.47    0.26       4.4000E+01   7.
  646.94    0.23       1.9000E+01   4.
  654.55    0.27       2.1000E+01   4.
  658.70    0.20       2.6000E+01   4.
  667.04    0.28       2.2000E+01   4.
  682.2     0.4        1.2000E+01   2.
  706.88    0.10       1.0000E+02   7.
  713.2     0.4        1.0000E+01   3.
  729.57    0.17       3.1000E+01   5.
  761.08    0.29       1.4000E+01   2.
  768.71    0.10       4.0000E+01   5.
  775.73    0.12       3.1000E+01   4.
  781.7     0.4        6.0000E+00   2.
  798.8     0.3        1.8000E+01   3.
  802.42    0.20       3.3000E+01   5.
  808.1     0.3        1.5000E+01   3.
  813.56    0.28       2.1000E+01   4.
  815.12    0.11       5.9000E+01   8.
  831.8     0.5        1.2000E+01   3.
  837.07    0.13       7.6000E+01   9.
  863.10    0.26       1.3000E+01   4.
  868.65    0.17       1.9000E+01   4.
  882.2     0.3        1.2000E+01   4.
  886.6     0.4        1.3000E+01   4.
  908.60    0.27       2.1000E+01   4.
  913.31    0.13       3.5000E+01   5.
  920.4     0.3        1.3000E+01   3.
  933.6     0.4        7.0000E+00   2.
  940.86    0.21       1.3000E+01   2.
  953.54    0.15       3.0000E+01   4.
  977.56    0.24       1.9000E+01   5.
  987.4     0.3        1.9000E+01   5.
  998.1     0.3        1.7000E+01   4.
 1010.1     0.4        1.4000E+01   3.
 1014.59    0.11       3.8000E+01   6.
 1022.38    0.27       1.4000E+01   3.
 1031.9     0.8        8.0000E+00   2.
 1089.23    0.19       1.6000E+01   3.
 1133.92    0.12       3.5000E+01   5.
 1160.2     0.5        1.1000E+01   1.
 1181.8     0.3        2.1000E+01   2.
 1203.3     0.3        1.2000E+01   2.
 1219.96    0.21       4.2000E+01   5.
 1223.63    0.19       4.5000E+01   5.
 1279.75    0.22       2.2000E+01   4.
 1294.4     0.4        1.9000E+01   4.
 1307.82    0.18       3.4000E+01   6.
 1311.8     0.5        1.3000E+01   4.
 1362.53    0.29       2.1000E+01   2.
 1426.8     0.7        8.0000E+00   2.
 1437.09    0.25       1.3000E+01   3.
 1441.2     0.3        1.0000E+01   3.
 1454.1     0.4        1.4000E+01   3.
 1509.14    0.27       1.2000E+01   3.
ENDDATA             92
ENDSUBENT          101
ENDENTRY             2
