ENTRY            O1419   20080112   20080407   20080403       O034
SUBENT        O1419001   20080112   20080407   20080403       O034
BIB                 14         32
TITLE      Nuclear structure of Mo-102.
AUTHOR     (M.A.Rahman, M.S.Chowdhury)
REFERENCE  (J,PR/C,73,054311,2006)
INSTITUTE  (3BANDAC)
SAMPLE     Self-supporting and isotopically enriched Mo-100,
           with thickness approximately 100-mug/cm**2 was used.
           The isotopic composition is
           Mo-100 is 97.65%, Mo-92 1.30%, Mo-94 0.32%,
           Mo-95 0.20%, Mo-96 0.09%, Mo-98 0.20%, Mo-99 0.24%.
FACILITY   (VDGT,2UK ALD)
DETECTOR   (MAGSP) The reaction products were analyzed with a
           multichannel magnetic spectrograph.
           (PLATE) a 50-mum thick Ilford K2 emulsion plates for
           outgoing protons.
INC-SOURCE *EN-RSL-FW*.The energy resolution of the reaction
            was approx. 12 keV.
METHOD     (BCINT)
COMMENT    *By authors*.The result was finally normalized to
            the ground-state count of the Mo-100(t,p)Mo-102
            long exposure to obtain the absolute differential
            cross section for different levels in the Mo-102
            nucleus.
ADD-RES    (COMP).DWBA analysis.
           A typical proton energy spectrum from the Mo-100(t,p)
           reaction at a lab. angle of 20-degree was obtained.
ERR-ANALYS (DATA-ERR).The error is reported by authors on fig.
           (ERR-DIG).Digitizing error of data from 0.0005 to
            0.0027 for different plots.
           (ANG-ERR-D).Digitizing error of angle.
STATUS     (CURVE) By CAJAD. The letter about data was send by
           compiler 01.06.2006. No reply.
HISTORY    (20080105C) SB
ENDBIB              32
COMMON               2          3
EN         EN-RSL-FW
MEV        KEV
12.        12.
ENDCOMMON            3
ENDSUBENT           39
SUBENT        O1419002   20080112   20080407   20080403       O034
BIB                  2         30
REACTION   (42-MO-100(T,P)42-MO-102,PAR,DA) fig 2
LEVEL-PROP (42-MO-102,E-LVL=0.000,SPIN=0.,PARITY=+1.)
           (42-MO-102,E-LVL=0.298,SPIN=2.,PARITY=+1.)
           (42-MO-102,E-LVL=0.697,SPIN=0.,PARITY=+1.)
           (42-MO-102,E-LVL=0.850,SPIN=2.,PARITY=+1.)
           (42-MO-102,E-LVL=1.248,SPIN=0./2.,PARITY=+1.)
           (42-MO-102,E-LVL=1.330,SPIN=0.,PARITY=+1.)
           (42-MO-102,E-LVL=1.608,SPIN=2.,PARITY=+1.)
           (42-MO-102,E-LVL=1.878,SPIN=3.,PARITY=-1.)
           (42-MO-102,E-LVL=2.108,SPIN=1.,PARITY=-1.)
           (42-MO-102,E-LVL=2.122,SPIN=0.,PARITY=+1.)
           (42-MO-102,E-LVL=2.234,SPIN=4.,PARITY=+1.)
           (42-MO-102,E-LVL=2.248,SPIN=2.,PARITY=+1.)
           (42-MO-102,E-LVL=2.305,SPIN=2.,PARITY=+1.)
           (42-MO-102,E-LVL=2.366,SPIN=2.,PARITY=+1.)
           (42-MO-102,E-LVL=2.485,SPIN=2.,PARITY=+1.)
           (42-MO-102,E-LVL=2.502,SPIN=4.,PARITY=+1.)
           (42-MO-102,E-LVL=2.522,SPIN=3.,PARITY=-1.)
           (42-MO-102,E-LVL=2.659,SPIN=4.,PARITY=+1.)
           (42-MO-102,E-LVL=2.684,SPIN=3.,PARITY=-1.)
           (42-MO-102,E-LVL=2.704,SPIN=0.,PARITY=+1.)
           (42-MO-102,E-LVL=2.872,SPIN=2.,PARITY=+1.)
           (42-MO-102,E-LVL=2.943,SPIN=0.,PARITY=+1.)
           (42-MO-102,E-LVL=2.988,SPIN=4.,PARITY=+1.)
           (42-MO-102,E-LVL=3.010,SPIN=2.,PARITY=+1.)
           (42-MO-102,E-LVL=3.063,SPIN=4.,PARITY=+1.)
           (42-MO-102,E-LVL=3.091,SPIN=3.,PARITY=-1.)
           (42-MO-102,E-LVL=3.125,SPIN=2.,PARITY=+1.)
           (42-MO-102,E-LVL=3.162,SPIN=4.,PARITY=+1.)
           (42-MO-102,E-LVL=3.193,SPIN=2.,PARITY=+1.)
ENDBIB              30
COMMON               2          3
ANG-ERR-D  ERR-DIG
ADEG       MB/SR
0.7        0.0005
ENDCOMMON            3
DATA                 4        303
E-LVL      ANG-CM     DATA-CM    DATA-ERR
MEV        ADEG       MB/SR      MB/SR
    0.00000    5.30000    1.90800      0.044
    0.00000   12.80000    0.37200
    0.00000   20.10000    0.10100
    0.00000   28.30000    0.51600
    0.00000   35.00000    0.56500
    0.00000   43.30000    0.27900
    0.00000   50.50000    0.06900
    0.00000   57.20000    0.10200
    0.00000   64.90000    0.21200
    0.00000   72.60000    0.21600
    0.00000   80.40000    0.09700
    0.00000   86.60000    0.07000
    0.29800    4.70000    0.04900
    0.29800   12.00000    0.08020
    0.29800   20.40000    0.09830      0.003
    0.29800   27.30000    0.04040
    0.29800   35.40000    0.02590
    0.29800   42.40000    0.02840
    0.29800   51.30000    0.05190
    0.29800   58.50000    0.02350
    0.29800   65.50000    0.01360
    0.29800   73.50000    0.01700
    0.29800   81.00000    0.02260
    0.29800   88.00000    0.02200
    0.69700    5.30000    0.50700     0.0019
    0.69700   20.60000    0.01200
    0.69700   28.20000    0.14500
    0.69700   36.00000    0.15300
    0.69700   43.40000    0.07200
    0.69700   49.90000    0.01400
    0.69700   58.60000    0.02200
    0.69700   65.40000    0.04000
    0.69700   73.20000    0.03700
    0.69700   81.90000    0.02700
    0.69700   87.90000    0.01400
    0.85000    4.80000    0.03590
    0.85000   12.50000    0.04550
    0.85000   20.50000    0.07810
    0.85000   27.90000    0.02790
    0.85000   35.90000    0.01190
    0.85000   42.10000    0.02060
    0.85000   50.30000    0.03530
    0.85000   57.70000    0.02440
    0.85000   66.30000    0.00920
    0.85000   73.70000    0.00430
    0.85000   81.40000    0.01130
    0.85000   87.80000    0.00460
    1.24800    5.70000    0.02609
    1.24800   12.40000    0.01319
    1.24800   20.40000    0.01057
    1.24800   28.20000    0.01156
    1.24800   35.60000    0.00893
    1.24800   43.10000    0.00517
    1.24800   50.50000    0.00445
    1.24800   57.40000    0.00429
    1.24800   64.80000    0.00262
    1.24800   72.60000    0.00209
    1.24800   80.00000    0.00251
    1.24800   87.80000    0.00312
    1.33000    5.20000    0.13670      0.003
    1.33000   12.60000    0.06650
    1.33000   19.20000    0.01110
    1.33000   28.20000    0.04060
    1.33000   36.00000    0.05540
    1.33000   42.90000    0.03140
    1.33000   49.80000    0.00650
    1.33000   58.00000    0.00460
    1.33000   66.20000    0.01390
    1.33000   73.10000    0.01570
    1.33000   80.90000    0.01110
    1.60800    4.40000    0.01430
    1.60800   11.90000    0.01565
    1.60800   19.70000    0.02065
    1.60800   26.80000    0.00771
    1.60800   35.00000    0.00457
    1.60800   42.60000    0.00409
    1.60800   50.40000    0.00859
    1.60800   57.60000    0.00578
    1.60800   65.80000    0.00231
    1.60800   72.80000    0.00200
    1.60800   80.40000    0.00268
    1.60800   87.90000    0.00269
    1.87800    4.90000    0.06080
    1.87800   11.90000    0.05000
    1.87800   20.80000    0.04420
    1.87800   27.80000    0.04930
    1.87800   36.10000    0.07190
    1.87800   43.30000    0.01980
    1.87800   49.80000    0.01990
    1.87800   57.70000    0.02360
    1.87800   66.60000    0.01930
    1.87800   74.10000    0.01490
    1.87800   80.70000    0.00860
    1.87800   88.10000    0.00820
    2.10800    5.00000    0.02310    0.00110
    2.10800   12.30000    0.02090    0.00120
    2.10800   19.70000    0.01316
    2.10800   28.00000    0.01123
    2.10800   34.80000    0.00664
    2.10800   43.10000    0.00524
    2.10800   49.80000    0.00897
    2.10800   58.00000    0.00793
    2.10800   65.80000    0.00582
    2.10800   72.60000    0.00300
    2.10800   81.40000    0.00248
    2.10800   87.70000    0.00214
    2.12200    4.40000    0.04090
    2.12200   11.90000    0.00820
    2.12200   20.00000    0.00070
    2.12200   27.40000    0.00560
    2.12200   34.80000    0.00960
    2.12200   42.40000    0.00860
    2.12200   49.90000    0.00530
    2.12200   57.40000    0.00590
    2.12200   64.90000    0.00300
    2.12200   73.90000    0.00360
    2.12200   80.90000    0.00300
    2.12200   87.00000    0.00170
    2.23400    5.40000    0.01591
    2.23400   12.80000    0.01435
    2.23400   20.40000    0.01089
    2.23400   29.10000    0.01764
    2.23400   36.60000    0.01957
    2.23400   43.20000    0.01422
    2.23400   58.60000    0.00994
    2.23400   66.10000    0.01056
    2.23400   75.00000    0.00770
    2.23400   81.60000    0.00234
    2.24800    6.00000    0.01220
    2.24800   13.10000    0.01430
    2.24800   21.10000    0.01790    0.00070
    2.24800   28.30000    0.01220
    2.24800   35.60000    0.00422
    2.24800   43.70000    0.00679
    2.24800   50.80000    0.01057
    2.24800   58.30000    0.01228
    2.24800   73.20000    0.00664
    2.24800   80.90000    0.00231
    2.24800   88.10000    0.00209
    2.30500    5.70000    0.01310
    2.30500   13.40000    0.02470
    2.30500   28.80000    0.01690
    2.30500   35.90000    0.00970
    2.30500   43.10000    0.01880
    2.30500   50.50000    0.02240
    2.30500   58.90000    0.02120
    2.30500   66.10000    0.00840
    2.30500   73.40000    0.01200
    2.36600    5.90000    0.03920
    2.36600   12.90000    0.06950
    2.36600   20.50000    0.08210
    2.36600   27.70000    0.03360
    2.36600   35.70000    0.02190
    2.36600   42.90000    0.03500
    2.36600   57.80000    0.02810
    2.36600   65.30000    0.02050
    2.36600   73.30000    0.01180
    2.36600   80.60000    0.01480
    2.36600   87.70000    0.00430
    2.48500    5.40000    0.01310    0.00230
    2.48500   13.00000    0.01500
    2.48500   19.90000    0.02810
    2.48500   28.30000    0.01470
    2.48500   35.60000    0.00940
    2.48500   42.70000    0.01060
    2.48500   50.30000    0.01560
    2.48500   58.10000    0.00690
    2.48500   65.90000    0.00390
    2.48500   73.50000    0.00450
    2.48500   81.10000    0.00450
    2.50200    5.50000    0.03460
    2.50200   12.90000    0.02700
    2.50200   20.20000    0.02550
    2.50200   27.70000    0.03420
    2.50200   34.30000    0.04070
    2.50200   42.70000    0.03570
    2.50200   50.70000    0.02110
    2.50200   65.80000    0.01680
    2.50200   73.00000    0.01820
    2.50200   81.20000    0.01670
    2.50200   88.10000    0.01100
    2.52200    4.00000    0.04060    0.00170
    2.52200   12.50000    0.02470
    2.52200   20.30000    0.01910
    2.52200   27.20000    0.02730
    2.52200   34.50000    0.01870
    2.52200   42.80000    0.01150
    2.52200   50.00000    0.00950
    2.52200   57.90000    0.01570
    2.52200   66.20000    0.01000
    2.52200   73.40000    0.00590
    2.52200   81.00000    0.00600
    2.65900    5.20000    0.02253
    2.65900   13.30000    0.01737
    2.65900   27.70000    0.01530
    2.65900   34.90000    0.02106
    2.65900   43.90000    0.01804
    2.65900   50.50000    0.01239
    2.65900   58.50000    0.00937
    2.65900   65.90000    0.01012
    2.65900   73.60000    0.01538
    2.65900   81.30000    0.00809
    2.65900   87.80000    0.00410
    2.68400   12.10000    0.02240    0.00140
    2.68400   28.10000    0.02330    0.00140
    2.68400   35.50000    0.01810
    2.68400   43.30000    0.01562
    2.68400   50.70000    0.01176
    2.68400   58.40000    0.01530
    2.68400   65.30000    0.01050
    2.68400   74.10000    0.00822
    2.68400   80.40000    0.00670
    2.68400   87.20000    0.00720    0.00120
    2.70400   13.80000    0.02200
    2.70400   20.20000    0.00800
    2.70400   36.30000    0.01950
    2.70400   44.00000    0.01370
    2.70400   49.80000    0.00590
    2.70400   58.40000    0.00530
    2.70400   73.70000    0.00740
    2.70400   80.90000    0.00350
    2.70400   87.00000    0.00360
    2.87200    4.90000    0.02510
    2.87200   12.20000    0.03310
    2.87200   19.60000    0.05430    0.00320
    2.87200   27.60000    0.03610
    2.87200   35.20000    0.01350
    2.87200   43.00000    0.01790
    2.87200   51.00000    0.03720
    2.87200   66.20000    0.01160
    2.87200   73.30000    0.00820
    2.87200   80.80000    0.00790
    2.94300    5.60000    0.05380    0.00270
    2.94300   12.20000    0.02320
    2.94300   19.50000    0.00200
    2.94300   28.00000    0.01280
    2.94300   35.20000    0.01860
    2.94300   42.70000    0.00810
    2.94300   49.70000    0.00290
    2.94300   58.00000    0.00220
    2.94300   73.00000    0.00660
    2.98800    4.40000    0.05740
    2.98800   11.80000    0.04960
    2.98800   27.80000    0.06760
    2.98800   34.60000    0.07340
    2.98800   43.50000    0.06980    0.00300
    2.98800   50.70000    0.04670
    2.98800   57.70000    0.03560
    2.98800   65.70000    0.02830
    2.98800   72.50000    0.03050
    2.98800   81.70000    0.01630
    3.01000    5.50000    0.01980
    3.01000   12.80000    0.03060
    3.01000   20.40000    0.04380    0.00120
    3.01000   36.10000    0.00890
    3.01000   42.40000    0.01300
    3.01000   51.20000    0.02250
    3.01000   58.80000    0.01760
    3.01000   65.80000    0.01490
    3.01000   73.40000    0.00800
    3.01000   81.30000    0.00840
    3.06300   28.30000    0.01590
    3.06300   35.90000    0.02322
    3.06300   43.80000    0.02205
    3.06300   51.70000    0.01787
    3.06300   58.60000    0.01334
    3.06300   66.30000    0.01622
    3.06300   74.60000    0.01787
    3.06300   81.10000    0.01210
    3.06300   88.00000    0.00791
    3.09100   11.70000    0.01837
    3.09100   27.20000    0.02199
    3.09100   35.00000    0.01967
    3.09100   42.90000    0.01302
    3.09100   50.10000    0.01069
    3.09100   57.60000    0.01388
    3.09100   65.80000    0.01215
    3.09100   73.60000    0.00884
    3.12500   11.60000    0.04250
    3.12500   26.90000    0.05060
    3.12500   35.80000    0.02520
    3.12500   41.60000    0.02980
    3.12500   50.70000    0.03060
    3.12500   58.10000    0.03180
    3.12500   65.90000    0.01150
    3.12500   73.40000    0.00990
    3.16200    4.70000    0.04330    0.00220
    3.16200   11.50000    0.03070    0.00170
    3.16200   27.60000    0.03900
    3.16200   35.40000    0.04410
    3.16200   42.50000    0.03680
    3.16200   50.30000    0.02360
    3.16200   58.30000    0.01980
    3.16200   65.70000    0.02380
    3.16200   73.40000    0.02950    0.00180
    3.19300    4.90000    0.02900    0.00300
    3.19300   12.80000    0.05100
    3.19300   21.10000    0.10260
    3.19300   27.80000    0.06060
    3.19300   35.00000    0.03740
    3.19300   42.50000    0.04310
    3.19300   58.60000    0.04560
    3.19300   66.30000    0.01800    0.00400
ENDDATA            305
ENDSUBENT          344
ENDENTRY             2
