ENTRY            T0226   20030926   20031223
SUBENT        T0226001   20030926   20031223
BIB                 10         18
INSTITUTE  (1USADKE)
REFERENCE  (J,NP,80,449,1966)
           (T,KATMAN,1964)
AUTHOR     (T.S.Katman,N.R.Fletcher,D.R.Tilley,R.M.Williamson)
TITLE      12C(d,pg)13C angular distributions and correlations
            near threshold
FACILITY   (VDG,1USADKE)
SAMPLE     Self-supporting natural carbon foils 5 - 10 keV thick,
            as determined by noting the energy shift of the
            Li(p,n) threshold in lithium targets placed behind
            the carbon foils.
DETECTOR   (SIBAR) Small,cylindrical target chamber containing a
            movable surface barrier detector, a liquid air trap
            and Faraday beam cup and repeller ring.
MONIT-REF  (,MCELLISTREM+,J,PR,104,1008,1956)
ERR-ANALYS (DATA-ERR1) Total uncertainty.
HISTORY    (20020411C) NPDC + VM
           (20030926A) Reference added.
ENDBIB              18
COMMON               1          3
DATA-ERR1
PER-CENT
  20.
ENDCOMMON            3
ENDSUBENT           25
SUBENT        T0226002   20030425   20030924
BIB                  3          4
REACTION   (6-C-12(D,EL)6-C-12,,DA,,REL)
ERR-ANALYS Digitizing error in energy 0.005
           Digitizing error in data 0.01
STATUS     (CURVE) Scanned from Fig.2 in reference by NPDC.
ENDBIB               4
NOCOMMON             0          0
DATA                 3        221
ANG        EN         DATA
ADEG       MEV        ARB-UNITS
  47.0       2.211      4.052
  47.0       2.223      4.040
  47.0       2.231      4.084
  47.0       2.251      4.068
  47.0       2.260      4.068
  47.0       2.273      4.129
  47.0       2.281      4.069
  47.0       2.292      4.069
  47.0       2.302      4.012
  47.0       2.311      4.069
  47.0       2.321      4.061
  47.0       2.331      4.089
  47.0       2.341      3.997
  47.0       2.352      3.897
  47.0       2.360      3.993
  47.0       2.371      3.829
  47.0       2.382      3.769
  47.0       2.391      3.720
  47.0       2.400      3.652
  47.0       2.411      3.620
  47.0       2.421      3.436
  47.0       2.431      3.263
  47.0       2.440      3.388
  47.0       2.451      3.267
  47.0       2.460      3.043
  47.0       2.471      2.794
  47.0       2.481      2.561
  47.0       2.491      2.305
  47.0       2.502      2.449
  47.0       2.510      2.947
  47.0       2.521      3.429
  47.0       2.531      3.542
  47.0       2.541      3.642
  47.0       2.551      3.642
  47.0       2.561      3.598
  47.0       2.572      3.554
  47.0       2.581      3.518
  47.0       2.593      3.466
  47.0       2.602      3.426
  47.0       2.609      3.362
  47.0       2.620      3.322
  47.0       2.632      3.282
  47.0       2.642      3.358
  47.0       2.653      3.262
  47.0       2.662      3.262
  47.0       2.671      3.174
  47.0       2.681      3.090
  47.0       2.695      3.122
  47.0       2.713      3.082
  47.0       2.732      3.014
  47.0       2.742      2.918
  47.0       2.753      2.838
  47.0       2.761      2.769
  47.0       2.772      2.689
  47.0       2.781      2.673
  47.0       2.792      2.621
  65.0       2.045      3.342
  65.0       2.083      3.251
  65.0       2.107      3.235
  65.0       2.126      3.232
  65.0       2.146      3.253
  65.0       2.166      3.241
  65.0       2.176      3.242
  65.0       2.185      3.250
  65.0       2.194      3.251
  65.0       2.204      3.271
  65.0       2.215      3.344
  65.0       2.224      3.280
  65.0       2.233      3.329
  65.0       2.244      3.422
  65.0       2.255      3.439
  65.0       2.264      3.585
  65.0       2.275      3.649
  65.0       2.285      3.674
  65.0       2.294      3.561
  65.0       2.303      3.525
  65.0       2.324      3.821
  65.0       2.334      3.846
  65.0       2.344      3.765
  65.0       2.353      3.668
  65.0       2.363      3.653
  65.0       2.371      3.524
  65.0       2.383      3.544
  65.0       2.393      3.452
  65.0       2.404      3.355
  65.0       2.413      3.259
  65.0       2.442      2.981
  65.0       2.453      2.779
  65.0       2.462      2.610
  65.0       2.473      2.348
  65.0       2.482      2.102
  65.0       2.493      1.827
  65.0       2.502      1.710
  65.0       2.513      2.175
  65.0       2.523      2.964
  65.0       2.535      3.918
  65.0       2.542      4.100
  65.0       2.554      4.104
  65.0       2.562      4.270
  65.0       2.575      3.782
  65.0       2.583      3.592
  65.0       2.593      3.564
  65.0       2.601      3.415
  65.0       2.614      3.318
  65.0       2.622      3.311
  65.0       2.632      3.149
  65.0       2.643      3.024
  65.0       2.655      2.940
  65.0       2.662      2.791
  65.0       2.683      2.480
  65.0       2.693      2.339
  65.0       2.703      2.178
  65.0       2.714      2.009
  65.0       2.724      2.070
  65.0       2.732      2.434
  65.0       2.742      2.915
  65.0       2.752      3.404
  65.0       2.762      3.712
  65.0       2.793      3.571
  65.0       2.802      3.511
  65.0       2.815      3.354
  65.0       2.822      3.213
  65.0       2.833      3.132
  65.0       2.844      3.109
  65.0       2.854      3.113
  65.0       2.861      3.081
  65.0       2.871      2.936
  65.0       2.882      2.851
  65.0       2.892      2.803
  65.0       2.901      2.723
  65.0       2.912      2.582
  65.0       2.920      2.517
  65.0       2.931      2.453
  65.0       2.940      2.352
  65.0       2.951      2.232
  65.0       2.961      2.103
  65.0       2.971      1.901
  65.0       2.980      1.736
  65.0       2.990      1.405
  65.0       3.001      1.753
  65.0       3.012      1.729
  65.0       3.023      1.725
  65.0       3.033      1.814
  65.0       3.041      2.065
  65.0       3.051      2.466
  65.0       3.061      2.612
  65.0       3.072      2.640
  65.0       3.081      2.661
  65.0       3.091      2.669
  65.0       3.103      2.637
  65.0       3.111      2.646
  65.0       3.122      2.585
  65.0       3.131      2.448
  65.0       3.142      2.323
  65.0       3.152      2.316
  65.0       3.161      2.251
  65.0       3.172      2.260
  65.0       3.182      2.224
  65.0       3.193      2.164
  65.0       3.202      2.196
  65.0       3.213      2.132
  65.0       3.224      2.177
  65.0       3.232      2.153
  65.0       3.243      2.145
  80.5       2.241      2.739
  80.5       2.250      2.699
  80.5       2.260      2.591
  80.5       2.272      2.660
  80.5       2.282      2.701
  80.5       2.292      2.633
  80.5       2.301      2.492
  80.5       2.312      2.489
  80.5       2.321      2.542
  80.5       2.330      2.506
  80.5       2.342      2.490
  80.5       2.351      2.559
  80.5       2.361      2.503
  80.5       2.373      2.431
  80.5       2.381      2.432
  80.5       2.390      2.424
  80.5       2.399      2.380
  80.5       2.411      2.345
  80.5       2.421      2.329
  80.5       2.429      2.281
  80.5       2.440      2.237
  80.5       2.451      2.266
  80.5       2.459      2.286
  80.5       2.470      2.303
  80.5       2.481      2.348
  80.5       2.491      2.589
  80.5       2.501      2.827
  80.5       2.511      2.707
  80.5       2.521      2.406
  80.5       2.530      2.197
  80.5       2.540      1.940
  80.5       2.553      1.872
  80.5       2.560      1.809
  80.5       2.572      1.745
  80.5       2.580      1.612
  80.5       2.591      1.585
  80.5       2.600      1.557
  80.5       2.610      1.497
  80.5       2.620      1.361
  80.5       2.631      1.337
  80.5       2.641      1.217
  80.5       2.653      1.121
  80.5       2.661      1.017
  80.5       2.671     0.9775
  80.5       2.680     0.8814
  80.5       2.693      1.015
  80.5       2.702      1.357
  80.5       2.710      2.579
  80.5       2.721      3.564
  80.5       2.732      4.019
  80.5       2.740      4.220
  80.5       2.752      4.052
  80.5       2.761      3.803
  80.5       2.774      3.402
  80.5       2.782      3.125
  80.5       2.791      2.900
  80.5       2.800      2.695
ENDDATA            223
ENDSUBENT          232
SUBENT        T0226003   20030926   20031223
BIB                  6          9
REACTION   (6-C-12(D,P)6-C-13,PAR,DA)
MONITOR    (6-C-12(D,P)6-C-13,PAR,DA)
MONIT-REF  (,MCELLISTREM+,J,PR,104,1008,1956)
ERR-ANALYS (DATA-ERR2) Relative errors due to statistics and
            background subtraction.
           Digitizing error in energy 0.001.
           Digitizing error in data 0.04
STATUS     (CURVE) Scanned from Figs.3-5 in reference by NPDC.
HISTORY    (20030926A) Added monitor reference.
ENDBIB               9
COMMON               1          3
E-LVL-NRM
MEV
  3.09
ENDCOMMON            3
DATA                 5       1083
E-LVL      ANG        EN         DATA       DATA-ERR2
MEV        ADEG       MEV        MB/SR      MB/SR
  3.09       47.0       2.201      7.458
  3.09       47.0       2.212      8.069
  3.09       47.0       2.221      7.886
  3.09       47.0       2.232      7.667
  3.09       47.0       2.241      8.134
  3.09       47.0       2.251      7.482
  3.09       47.0       2.260      7.407
  3.09       47.0       2.270      6.863
  3.09       47.0       2.280      7.186
  3.09       47.0       2.293      6.280
  3.09       47.0       2.295      6.749
  3.09       47.0       2.303      6.855
  3.09       47.0       2.312      7.033
  3.09       47.0       2.320      6.851
  3.09       47.0       2.330      6.307
  3.09       47.0       2.341      7.603
  3.09       47.0       2.350      7.637
  3.09       47.0       2.360      8.140
  3.09       47.0       2.370      8.643
  3.09       47.0       2.380      9.363
  3.09       47.0       2.391      10.05
  3.09       47.0       2.401      10.87
  3.09       47.0       2.411      11.67
  3.09       47.0       2.422      13.00
  3.09       47.0       2.432      14.15
  3.09       47.0       2.439      14.51
  3.09       47.0       2.451      16.20
  3.09       47.0       2.461      17.00
  3.09       47.0       2.472      18.40
  3.09       47.0       2.482      21.21
  3.09       47.0       2.491      21.28
  3.09       47.0       2.501      19.08
  3.09       47.0       2.511      17.06
  3.09       47.0       2.521      14.63
  3.09       47.0       2.532      14.31
  3.09       47.0       2.541      13.98
  3.09       47.0       2.551      13.43
  3.09       47.0       2.562      14.98
  3.09       47.0       2.571      14.73
  3.09       47.0       2.581      15.95
  3.09       47.0       2.592      15.99
  3.09       47.0       2.602      15.99
  3.09       47.0       2.614      15.84
  3.09       47.0       2.622      16.20
  3.09       47.0       2.633      17.28
  3.09       47.0       2.643      17.71
  3.09       47.0       2.653      17.99
  3.09       47.0       2.662      19.04
  3.09       47.0       2.675      20.08
  3.09       47.0       2.683      21.74
  3.09       47.0       2.694      26.29
  3.09       47.0       2.703      27.15
  3.09       47.0       2.712      29.75
  3.09       47.0       2.723      32.60     0.7940
  3.09       47.0       2.733      27.11
  3.09       47.0       2.743      25.73
  3.09       47.0       2.752      23.02
  3.09       47.0       2.762      22.59
  3.09       47.0       2.774      21.68
  3.09       47.0       2.781      20.42
  3.09       47.0       2.794      20.59     0.7220
  3.09       65.0       2.044      7.991
  3.09       65.0       2.083      7.983
  3.09       65.0       2.104      7.796
  3.09       65.0       2.122      9.065
  3.09       65.0       2.142      8.806
  3.09       65.0       2.162      9.093
  3.09       65.0       2.173      9.345
  3.09       65.0       2.182      9.779
  3.09       65.0       2.192      9.268
  3.09       65.0       2.203      9.266
  3.09       65.0       2.213      10.14
  3.09       65.0       2.221      9.698
  3.09       65.0       2.231      10.24
  3.09       65.0       2.243      11.00
  3.09       65.0       2.252      10.85
  3.09       65.0       2.261      11.87
  3.09       65.0       2.272      12.34
  3.09       65.0       2.283      12.56
  3.09       65.0       2.292      12.81
  3.09       65.0       2.302      13.86
  3.09       65.0       2.322      15.64
  3.09       65.0       2.333      17.09
  3.09       65.0       2.352      17.12
  3.09       65.0       2.361      18.29
  3.09       65.0       2.372      18.94
  3.09       65.0       2.381      19.44
  3.09       65.0       2.391      20.32
  3.09       65.0       2.401      21.00
  3.09       65.0       2.412      21.11
  3.09       65.0       2.439      22.60
  3.09       65.0       2.452      23.79
  3.09       65.0       2.460      24.48
  3.09       65.0       2.472      25.42
  3.09       65.0       2.481      25.71
  3.09       65.0       2.490      26.15
  3.09       65.0       2.502      24.87
  3.09       65.0       2.513      22.69
  3.09       65.0       2.521      20.07
  3.09       65.0       2.531      18.79
  3.09       65.0       2.542      18.72
  3.09       65.0       2.552      20.17
  3.09       65.0       2.561      22.24
  3.09       65.0       2.572      23.33
  3.09       65.0       2.581      23.47
  3.09       65.0       2.592      24.67
  3.09       65.0       2.600      25.47
  3.09       65.0       2.613      25.98
  3.09       65.0       2.620      26.85
  3.09       65.0       2.631      27.72
  3.09       65.0       2.641      29.10
  3.09       65.0       2.651      28.55
  3.09       65.0       2.662      31.86
  3.09       65.0       2.673      33.49
  3.09       65.0       2.681      35.38
  3.09       65.0       2.692      38.47
  3.09       65.0       2.701      40.61
  3.09       65.0       2.712      42.03
  3.09       65.0       2.722      41.08     0.7997
  3.09       65.0       2.733      36.53
  3.09       65.0       2.742      27.95
  3.09       65.0       2.753      20.60
  3.09       65.0       2.761      15.29
  3.09       65.0       2.792      14.19
  3.09       65.0       2.801      15.06
  3.09       65.0       2.812      15.10
  3.09       65.0       2.821      15.35
  3.09       65.0       2.831      15.46     0.7636
  3.09       65.0       2.841      17.31
  3.09       65.0       2.853      16.80
  3.09       65.0       2.863      17.70
  3.09       65.0       2.872      17.88
  3.09       65.0       2.882      18.17
  3.09       65.0       2.893      19.70
  3.09       65.0       2.902      19.26
  3.09       65.0       2.910      19.91
  3.09       65.0       2.921      19.87
  3.09       65.0       2.931      20.78
  3.09       65.0       2.942      22.34
  3.09       65.0       2.954      21.90
  3.09       65.0       2.962      24.19
  3.09       65.0       2.973      24.99
  3.09       65.0       2.983      29.82
  3.09       65.0       2.985      30.15
  3.09       65.0       2.993      27.68
  3.09       65.0       3.003      24.33
  3.09       65.0       3.011      24.47
  3.09       65.0       3.023      20.65
  3.09       65.0       3.033      17.70
  3.09       65.0       3.042      15.63
  3.09       65.0       3.052      12.86
  3.09       65.0       3.062      11.15
  3.09       65.0       3.070      10.68
  3.09       65.0       3.082      11.04
  3.09       65.0       3.092      10.89
  3.09       65.0       3.103      10.60
  3.09       65.0       3.113      10.30
  3.09       65.0       3.122      12.01
  3.09       65.0       3.132      12.88
  3.09       65.0       3.142      12.81
  3.09       65.0       3.153      12.84
  3.09       65.0       3.164      13.09
  3.09       65.0       3.174      13.24
  3.09       65.0       3.183      13.34
  3.09       65.0       3.195      13.45
  3.09       65.0       3.203      13.81
  3.09       65.0       3.213      13.77
  3.09       65.0       3.223      13.63
  3.09       65.0       3.234      13.88
  3.09       65.0       3.243      14.09
  3.09       80.5       2.099      14.59
  3.09       80.5       2.120      15.02
  3.09       80.5       2.139      15.67
  3.09       80.5       2.159      17.40
  3.09       80.5       2.169      16.74
  3.09       80.5       2.178      16.38
  3.09       80.5       2.190      16.67
  3.09       80.5       2.199      17.10
  3.09       80.5       2.208      16.99
  3.09       80.5       2.218      17.68
  3.09       80.5       2.229      17.17
  3.09       80.5       2.239      18.94
  3.09       80.5       2.248      18.68
  3.09       80.5       2.259      18.43
  3.09       80.5       2.270      19.91
  3.09       80.5       2.279      20.16
  3.09       80.5       2.289      20.12
  3.09       80.5       2.298      20.16
  3.09       80.5       2.308      20.37
  3.09       80.5       2.318      21.71
  3.09       80.5       2.325      21.64
  3.09       80.5       2.332      21.78
  3.09       80.5       2.338      21.99
  3.09       80.5       2.349      22.53
  3.09       80.5       2.358      22.82
  3.09       80.5       2.370      23.40
  3.09       80.5       2.378      23.04
  3.09       80.5       2.389      23.68
  3.09       80.5       2.399      23.65
  3.09       80.5       2.410      23.79
  3.09       80.5       2.419      24.04
  3.09       80.5       2.430      25.02
  3.09       80.5       2.441      25.19
  3.09       80.5       2.451      25.48
  3.09       80.5       2.459      25.26
  3.09       80.5       2.470      26.31
  3.09       80.5       2.479      26.82
  3.09       80.5       2.489      26.92
  3.09       80.5       2.501      26.02
  3.09       80.5       2.510      25.98
  3.09       80.5       2.519      26.27
  3.09       80.5       2.530      26.77
  3.09       80.5       2.539      26.66
  3.09       80.5       2.549      27.74
  3.09       80.5       2.559      28.50
  3.09       80.5       2.569      28.82
  3.09       80.5       2.579      28.79
  3.09       80.5       2.590      29.54
  3.09       80.5       2.601      29.51
  3.09       80.5       2.608      29.11
  3.09       80.5       2.619      29.79
  3.09       80.5       2.628      31.85
  3.09       80.5       2.640      32.72
  3.09       80.5       2.650      33.91
  3.09       80.5       2.660      35.43
  3.09       80.5       2.670      37.12
  3.09       80.5       2.680      37.01
  3.09       80.5       2.691      38.06     0.7232
  3.09       80.5       2.700      35.85
  3.09       80.5       2.710      24.28
  3.09       80.5       2.721      15.89
  3.09       80.5       2.731      11.07
  3.09       80.5       2.741      6.805
  3.09       80.5       2.751      6.007
  3.09       80.5       2.762      7.633
  3.09       80.5       2.771      9.186
  3.09       80.5       2.781      10.67
  3.09       80.5       2.791      12.76
  3.09       80.5       2.800      14.28     0.4340
  3.68       30.0       2.371      8.209      1.061
  3.68       30.0       2.380      7.326
  3.68       30.0       2.391      8.370
  3.68       30.0       2.399      8.092
  3.68       30.0       2.410      8.499
  3.68       30.0       2.420      6.212
  3.68       30.0       2.430      8.350
  3.68       30.0       2.439      10.03
  3.68       30.0       2.451      8.593
  3.68       30.0       2.459      9.213
  3.68       30.0       2.470      9.865
  3.68       30.0       2.478      9.651
  3.68       30.0       2.490      9.814
  3.68       30.0       2.499      7.984
  3.68       30.0       2.510      7.248
  3.68       30.0       2.520      7.819
  3.68       30.0       2.531      7.671
  3.68       30.0       2.540      8.437
  3.68       30.0       2.549      9.122
  3.68       30.0       2.559      9.513
  3.68       30.0       2.568      9.871
  3.68       30.0       2.579      10.78
  3.68       30.0       2.600      10.65
  3.68       30.0       2.609      10.52
  3.68       30.0       2.619      10.88
  3.68       30.0       2.630      11.43
  3.68       30.0       2.640      10.83
  3.68       30.0       2.650      12.36
  3.68       30.0       2.658      13.00
  3.68       30.0       2.669      14.55
  3.68       30.0       2.678      15.87
  3.68       30.0       2.688      15.87
  3.68       30.0       2.696      18.17
  3.68       30.0       2.708      16.34      1.372
  3.68       30.0       2.718      13.74
  3.68       30.0       2.730      10.59
  3.68       30.0       2.741      7.634
  3.68       30.0       2.752      7.943
  3.68       30.0       2.760      9.836
  3.68       30.0       2.770      8.872      1.110
  3.68       30.0       2.780      8.561
  3.68       30.0       2.793      8.853
  3.68       30.0       2.801      7.644
  3.68       47.0       2.201      2.892
  3.68       47.0       2.211      2.980
  3.68       47.0       2.219      4.445
  3.68       47.0       2.231      2.992
  3.68       47.0       2.241      3.494
  3.68       47.0       2.250      3.078
  3.68       47.0       2.261      3.225
  3.68       47.0       2.270      4.409
  3.68       47.0       2.279      4.659
  3.68       47.0       2.291      4.658
  3.68       47.0       2.299      4.894
  3.68       47.0       2.309      5.159
  3.68       47.0       2.321      4.817
  3.68       47.0       2.331      4.964
  3.68       47.0       2.339      5.422     0.3408
  3.68       47.0       2.349      4.576
  3.68       47.0       2.358      5.345
  3.68       47.0       2.370      5.521
  3.68       47.0       2.380      5.431
  3.68       47.0       2.389      5.889
  3.68       47.0       2.398      5.740
  3.68       47.0       2.408      6.227
  3.68       47.0       2.419      5.856
  3.68       47.0       2.431      4.743
  3.68       47.0       2.437      6.357
  3.68       47.0       2.451      6.162
  3.68       47.0       2.459      6.117
  3.68       47.0       2.470      5.938
  3.68       47.0       2.480      5.803
  3.68       47.0       2.488      5.565
  3.68       47.0       2.500      5.060
  3.68       47.0       2.511      5.339
  3.68       47.0       2.518      6.198
  3.68       47.0       2.529      6.181
  3.68       47.0       2.540      6.180
  3.68       47.0       2.548      6.609
  3.68       47.0       2.558      7.422
  3.68       47.0       2.569      7.954
  3.68       47.0       2.578      7.656
  3.68       47.0       2.589      7.966
  3.68       47.0       2.598      7.772
  3.68       47.0       2.609      7.237
  3.68       47.0       2.618      7.429
  3.68       47.0       2.630      7.649
  3.68       47.0       2.638      8.522
  3.68       47.0       2.649      8.684
  3.68       47.0       2.658      9.986
  3.68       47.0       2.669      10.49
  3.68       47.0       2.677      10.99
  3.68       47.0       2.686      11.30
  3.68       47.0       2.697      11.12     0.4742
  3.68       47.0       2.707      9.150
  3.68       47.0       2.719      6.749
  3.68       47.0       2.730      4.940
  3.68       47.0       2.741      3.057
  3.68       47.0       2.750      3.278
  3.68       47.0       2.761      3.054
  3.68       47.0       2.773      3.142
  3.68       47.0       2.781      3.392
  3.68       47.0       2.791      3.687     0.3110
  3.68       65.0       2.043     0.7728
  3.68       65.0       2.081      1.152
  3.68       65.0       2.103      1.003
  3.68       65.0       2.121      1.141
  3.68       65.0       2.142      1.353
  3.68       65.0       2.162      1.395
  3.68       65.0       2.173      1.519
  3.68       65.0       2.178      1.460
  3.68       65.0       2.192      1.452
  3.68       65.0       2.203      1.781
  3.68       65.0       2.213      1.450
  3.68       65.0       2.221      1.486     0.2055
  3.68       65.0       2.232      1.720
  3.68       65.0       2.242      1.933
  3.68       65.0       2.254      1.880
  3.68       65.0       2.261      2.107
  3.68       65.0       2.275      2.392
  3.68       65.0       2.282      1.981
  3.68       65.0       2.293      2.354
  3.68       65.0       2.302      2.009
  3.68       65.0       2.323      2.352
  3.68       65.0       2.333      2.630
  3.68       65.0       2.342      2.923
  3.68       65.0       2.352      2.424
  3.68       65.0       2.362      2.570
  3.68       65.0       2.372      2.906
  3.68       65.0       2.382      2.377
  3.68       65.0       2.402      2.691
  3.68       65.0       2.411      2.588
  3.68       65.0       2.442      2.843
  3.68       65.0       2.454      2.511
  3.68       65.0       2.461      2.570
  3.68       65.0       2.472      2.407
  3.68       65.0       2.481      2.326
  3.68       65.0       2.492      2.384
  3.68       65.0       2.503      2.596
  3.68       65.0       2.511      2.603
  3.68       65.0       2.521      2.881
  3.68       65.0       2.532      3.056
  3.68       65.0       2.541      3.268
  3.68       65.0       2.560      3.502
  3.68       65.0       2.571      3.486
  3.68       65.0       2.581      3.801
  3.68       65.0       2.592      3.609
  3.68       65.0       2.600      3.800
  3.68       65.0       2.612      3.946
  3.68       65.0       2.622      3.468
  3.68       65.0       2.631      4.032
  3.68       65.0       2.642      3.599
  3.68       65.0       2.651      3.803
  3.68       65.0       2.660      3.883
  3.68       65.0       2.672      4.595
  3.68       65.0       2.680      4.058
  3.68       65.0       2.692      4.373
  3.68       65.0       2.701      4.504
  3.68       65.0       2.711      4.812     0.2349
  3.68       65.0       2.720      4.180
  3.68       65.0       2.731      3.497
  3.68       65.0       2.740      2.674
  3.68       65.0       2.750      2.071
  3.68       65.0       2.759      1.975
  3.68       65.0       2.791      2.178
  3.68       65.0       2.798      2.053
  3.68       65.0       2.813      2.610
  3.68       65.0       2.831      2.843     0.2936
  3.68       65.0       2.839      3.158
  3.68       65.0       2.850      2.570
  3.68       65.0       2.860      3.017
  3.68       65.0       2.870      3.097
  3.68       65.0       2.878      2.752
  3.68       65.0       2.890      2.964
  3.68       65.0       2.898      3.000
  3.68       65.0       2.911      2.830
  3.68       65.0       2.919      2.800
  3.68       65.0       2.929      2.917
  3.68       65.0       2.939      2.828
  3.68       65.0       2.950      2.504
  3.68       65.0       2.959      2.673
  3.68       65.0       2.969      2.745
  3.68       65.0       2.978      2.957
  3.68       65.0       2.989      4.703
  3.68       65.0       2.999      2.325
  3.68       65.0       3.009      2.478
  3.68       65.0       3.020      2.448
  3.68       65.0       3.028      2.734
  3.68       65.0       3.040      2.916
  3.68       65.0       3.049      3.092
  3.68       65.0       3.059      3.473
  3.68       65.0       3.069      3.817
  3.68       65.0       3.076      4.066
  3.68       65.0       3.088      3.698
  3.68       65.0       3.098      4.372
  3.68       65.0       3.108      4.445
  3.68       65.0       3.118      4.914
  3.68       65.0       3.128      4.767
  3.68       65.0       3.138      4.480
  3.68       65.0       3.148      4.860     0.2788
  3.68       65.0       3.157      4.508
  3.68       65.0       3.168      5.131
  3.68       65.0       3.178      4.704
  3.68       65.0       3.189      5.261
  3.68       65.0       3.197      5.018
  3.68       65.0       3.208      4.753
  3.68       65.0       3.217      4.929
  3.68       65.0       3.227      5.412
  3.68       65.0       3.237      4.494
  3.68       80.5       2.106     0.8467
  3.68       80.5       2.122     0.6906
  3.68       80.5       2.141     0.8385
  3.68       80.5       2.151     0.9647
  3.68       80.5       2.161     0.8380
  3.68       80.5       2.172     0.9204
  3.68       80.5       2.182      1.049
  3.68       80.5       2.193     0.8055
  3.68       80.5       2.202     0.9026     0.1143
  3.68       80.5       2.214     0.9363
  3.68       80.5       2.220     0.8729
  3.68       80.5       2.230     0.8337
  3.68       80.5       2.241      1.096
  3.68       80.5       2.250     0.8842
  3.68       80.5       2.261     0.6625
  3.68       80.5       2.271      1.163
  3.68       80.5       2.280      1.207
  3.68       80.5       2.292      1.046
  3.68       80.5       2.301      1.214
  3.68       80.5       2.311      1.194
  3.68       80.5       2.332      1.159
  3.68       80.5       2.340      1.123
  3.68       80.5       2.349      1.086
  3.68       80.5       2.352     0.8961
  3.68       80.5       2.360      1.027
  3.68       80.5       2.361      1.232
  3.68       80.5       2.380     0.9878
  3.68       80.5       2.389      1.041
  3.68       80.5       2.401     0.9459
  3.68       80.5       2.411     0.8751
  3.68       80.5       2.420      1.140
  3.68       80.5       2.430      1.081
  3.68       80.5       2.440      1.066
  3.68       80.5       2.452     0.9640
  3.68       80.5       2.462      1.051
  3.68       80.5       2.470      1.005
  3.68       80.5       2.472      1.146
  3.68       80.5       2.480      1.158
  3.68       80.5       2.481      1.005
  3.68       80.5       2.489      1.360
  3.68       80.5       2.500      1.556
  3.68       80.5       2.510      1.802
  3.68       80.5       2.520      1.665
  3.68       80.5       2.530      1.417
  3.68       80.5       2.541      1.942
  3.68       80.5       2.551      1.750
  3.68       80.5       2.560      1.662
  3.68       80.5       2.571      1.623
  3.68       80.5       2.579      1.661
  3.68       80.5       2.591      1.751
  3.68       80.5       2.601      1.729
  3.68       80.5       2.611      1.733
  3.68       80.5       2.620      1.568
  3.68       80.5       2.630      1.684
  3.68       80.5       2.640      1.645
  3.68       80.5       2.651      1.691
  3.68       80.5       2.661      1.606
  3.68       80.5       2.680      1.498
  3.68       80.5       2.691      1.724
  3.68       80.5       2.700      1.617
  3.68       80.5       2.709      1.412
  3.68       80.5       2.722      1.176
  3.68       80.5       2.731     0.9565
  3.68       80.5       2.741      1.129
  3.68       80.5       2.751      1.482
  3.68       80.5       2.762      1.272
  3.68       80.5       2.771      1.413
  3.68       80.5       2.780      1.354
  3.68       80.5       2.789      1.454
  3.68       80.5       2.800      1.468     0.1679
  3.68       80.5       2.812      1.640
  3.68      117.0       2.162     0.7897
  3.68      117.0       2.170     0.7172
  3.68      117.0       2.181     0.6634
  3.68      117.0       2.192     0.7486
  3.68      117.0       2.202     0.6119
  3.68      117.0       2.213     0.6437
  3.68      117.0       2.221     0.8840
  3.68      117.0       2.232     0.6270
  3.68      117.0       2.241     0.6026     0.5077E-01
  3.68      117.0       2.250     0.7548
  3.68      117.0       2.261     0.8079
  3.68      117.0       2.271     0.7247
  3.68      117.0       2.280     0.6361
  3.68      117.0       2.291     0.6839
  3.68      117.0       2.302     0.6863
  3.68      117.0       2.311     0.6298
  3.68      117.0       2.322     0.6749
  3.68      117.0       2.333     0.7441
  3.68      117.0       2.342     0.6957
  3.68      117.0       2.352     0.6151
  3.68      117.0       2.362     0.7619
  3.68      117.0       2.372     0.7883
  3.68      117.0       2.381     0.6596
  3.68      117.0       2.392     0.7208
  3.68      117.0       2.402     0.6376
  3.68      117.0       2.411     0.6052
  3.68      117.0       2.421     0.6583
  3.68      117.0       2.433     0.8398
  3.68      117.0       2.442     0.8876
  3.68      117.0       2.452     0.7777
  3.68      117.0       2.462     0.7773
  3.68      117.0       2.471     0.9161
  3.68      117.0       2.481      1.234
  3.68      117.0       2.492      1.167
  3.68      117.0       2.501      1.308
  3.68      117.0       2.510      1.551
  3.68      117.0       2.520      1.195
  3.68      117.0       2.540      1.211
  3.68      117.0       2.550      1.256
  3.68      117.0       2.560      1.255
  3.68      117.0       2.571      1.303
  3.68      117.0       2.581      1.485     0.6411E-01
  3.68      117.0       2.592      1.634
  3.68      117.0       2.601      1.425
  3.68      117.0       2.610      1.302
  3.68      117.0       2.622      1.072
  3.68      117.0       2.632      1.125
  3.68      117.0       2.641      1.143
  3.68      117.0       2.652      1.004
  3.68      117.0       2.662      1.054
  3.68      117.0       2.674      1.265
  3.68      117.0       2.682      1.334
  3.68      117.0       2.692      1.337
  3.68      117.0       2.702      1.577
  3.68      117.0       2.713      1.331
  3.68      117.0       2.721      1.248
  3.68      117.0       2.732      1.274
  3.68      117.0       2.742      1.012
  3.68      117.0       2.752      1.124
  3.68      117.0       2.762     0.8880
  3.68      117.0       2.772      1.029
  3.68      117.0       2.781      1.288
  3.68      117.0       2.791      1.572
  3.68      117.0       2.801      1.357     0.8024E-01
  3.68      134.0       2.392     0.3614
  3.68      134.0       2.401     0.3268
  3.68      134.0       2.412     0.3978
  3.68      134.0       2.422     0.4025     0.9583E-01
  3.68      134.0       2.431     0.4219
  3.68      134.0       2.443     0.5715
  3.68      134.0       2.453     0.7801
  3.68      134.0       2.461     0.6325
  3.68      134.0       2.474     0.6346
  3.68      134.0       2.484     0.7032
  3.68      134.0       2.492      1.256
  3.68      134.0       2.501      1.612
  3.68      134.0       2.512      1.378
  3.68      134.0       2.522      1.710
  3.68      134.0       2.531      1.712
  3.68      134.0       2.542      1.613
  3.68      134.0       2.552      1.559
  3.68      134.0       2.563      1.647
  3.68      134.0       2.571      1.544
  3.68      134.0       2.582      1.934
  3.68      134.0       2.592      1.978
  3.68      134.0       2.602      2.120
  3.68      134.0       2.613      2.044
  3.68      134.0       2.622      1.941     0.1106
  3.68      134.0       2.634      1.432
  3.68      134.0       2.644      1.611
  3.68      134.0       2.653      1.937
  3.68      134.0       2.664      1.817
  3.68      134.0       2.674      2.020
  3.68      134.0       2.682      2.020
  3.68      134.0       2.694      2.297
  3.68      134.0       2.705      2.246
  3.68      134.0       2.713      2.128
  3.68      134.0       2.724      1.773
  3.68      134.0       2.734      1.306
  3.68      134.0       2.745      1.028
  3.68      134.0       2.755      1.119
  3.68      134.0       2.765      1.060
  3.68      134.0       2.776      1.404
  3.68      134.0       2.786      1.325     0.1057
  3.68      134.0       2.796      1.302
  3.68      147.0       2.352     0.6862
  3.68      147.0       2.361     0.5118
  3.68      147.0       2.371     0.7764
  3.68      147.0       2.379     0.6068
  3.68      147.0       2.392     0.6661
  3.68      147.0       2.402     0.6587     0.5493E-01
  3.68      147.0       2.412     0.6370
  3.68      147.0       2.433      1.947
  3.68      147.0       2.441     0.6578
  3.68      147.0       2.451     0.8414
  3.68      147.0       2.461     0.9652
  3.68      147.0       2.470      1.177
  3.68      147.0       2.480      1.344
  3.68      147.0       2.490      1.831
  3.68      147.0       2.499      2.289
  3.68      147.0       2.509      3.143
  3.68      147.0       2.520      2.358
  3.68      147.0       2.529      2.283
  3.68      147.0       2.538      2.083
  3.68      147.0       2.548      2.004
  3.68      147.0       2.558      2.003
  3.68      147.0       2.570      1.939
  3.68      147.0       2.580      2.106
  3.68      147.0       2.589      2.270
  3.68      147.0       2.598      2.315
  3.68      147.0       2.609      2.231
  3.68      147.0       2.621      2.088
  3.68      147.0       2.629      2.088
  3.68      147.0       2.639      1.875
  3.68      147.0       2.650      2.094
  3.68      147.0       2.660      2.283
  3.68      147.0       2.668      2.461
  3.68      147.0       2.678      2.416
  3.68      147.0       2.688      2.900
  3.68      147.0       2.697      2.504
  3.68      147.0       2.709      2.317
  3.68      147.0       2.731      1.228
  3.68      147.0       2.741     0.8702
  3.68      147.0       2.750     0.7865
  3.68      147.0       2.759     0.9318
  3.68      147.0       2.771     0.8504
  3.68      147.0       2.791     0.8499     0.8833E-01
  3.68      147.0       2.799      1.327
  3.68      147.0       2.811      1.332
  3.85       30.0       2.291      9.344
  3.85       30.0       2.311      9.262
  3.85       30.0       2.320      10.34
  3.85       30.0       2.369      10.83      1.250
  3.85       30.0       2.378      10.10
  3.85       30.0       2.390      11.01
  3.85       30.0       2.399      11.23
  3.85       30.0       2.408      12.09
  3.85       30.0       2.419      12.35
  3.85       30.0       2.430      12.83
  3.85       30.0       2.439      15.59
  3.85       30.0       2.450      17.27
  3.85       30.0       2.460      23.40
  3.85       30.0       2.471      27.97
  3.85       30.0       2.480      37.49
  3.85       30.0       2.489      48.45      1.423
  3.85       30.0       2.499      45.99
  3.85       30.0       2.499      42.63
  3.85       30.0       2.511      31.21
  3.85       30.0       2.512      32.16
  3.85       30.0       2.521      20.14
  3.85       30.0       2.531      9.923
  3.85       30.0       2.541      6.348
  3.85       30.0       2.552      3.808
  3.85       30.0       2.563      3.724
  3.85       30.0       2.571      3.770
  3.85       30.0       2.582      3.600
  3.85       30.0       2.591      2.913
  3.85       30.0       2.599      3.820
  3.85       30.0       2.610      6.193
  3.85       30.0       2.620      5.075
  3.85       30.0       2.630      5.724
  3.85       30.0       2.640      6.934
  3.85       30.0       2.650      6.376
  3.85       30.0       2.661      7.758
  3.85       30.0       2.671      7.114
  3.85       30.0       2.681      10.00
  3.85       30.0       2.691      11.86
  3.85       30.0       2.702      14.28
  3.85       30.0       2.713      15.40
  3.85       30.0       2.723      16.83
  3.85       30.0       2.734      14.72
  3.85       30.0       2.743      12.99
  3.85       30.0       2.751      13.00
  3.85       30.0       2.762      11.66
  3.85       30.0       2.773      12.23
  3.85       30.0       2.783      11.71
  3.85       30.0       2.795      12.36
  3.85       30.0       2.804      11.93      1.077
  3.85       47.0       2.355      10.89
  3.85       47.0       2.364      12.25
  3.85       47.0       2.375      13.02
  3.85       47.0       2.384      14.02
  3.85       47.0       2.394      13.26
  3.85       47.0       2.405      14.11
  3.85       47.0       2.413      14.91
  3.85       47.0       2.425      15.47
  3.85       47.0       2.435      15.96
  3.85       47.0       2.446      19.52
  3.85       47.0       2.457      23.20
  3.85       47.0       2.466      25.96
  3.85       47.0       2.467      26.84
  3.85       47.0       2.476      33.12
  3.85       47.0       2.487      41.80
  3.85       47.0       2.497      48.80     0.9997
  3.85       47.0       2.507      45.05
  3.85       47.0       2.517      32.38
  3.85       47.0       2.526      17.87
  3.85       47.0       2.534      10.20
  3.85       47.0       2.543      7.206
  3.85       47.0       2.553      5.212
  3.85       47.0       2.565      5.736
  3.85       47.0       2.575      6.020
  3.85       47.0       2.583      5.503
  3.85       47.0       2.592      6.866
  3.85       47.0       2.603      7.670
  3.85       47.0       2.614      7.794
  3.85       47.0       2.624      8.918
  3.85       47.0       2.631      9.000
  3.85       47.0       2.642      9.724
  3.85       47.0       2.654      9.210
  3.85       47.0       2.663      11.13
  3.85       47.0       2.673      12.90
  3.85       47.0       2.684      14.62
  3.85       47.0       2.696      18.38
  3.85       47.0       2.707      20.38
  3.85       47.0       2.716      22.91
  3.85       47.0       2.726      23.07
  3.85       47.0       2.736      22.07
  3.85       47.0       2.746      19.56
  3.85       47.0       2.755      18.32
  3.85       47.0       2.765      17.25
  3.85       47.0       2.775      17.13
  3.85       47.0       2.785      16.66
  3.85       47.0       2.794      16.46     0.7995
  3.85       65.0       2.041      1.755
  3.85       65.0       2.081      2.204
  3.85       65.0       2.101      2.939
  3.85       65.0       2.121      3.102
  3.85       65.0       2.139      3.674
  3.85       65.0       2.159      4.041
  3.85       65.0       2.169      4.286
  3.85       65.0       2.179      4.204
  3.85       65.0       2.188      4.449
  3.85       65.0       2.198      4.939     0.4898
  3.85       65.0       2.208      5.306
  3.85       65.0       2.219      5.020
  3.85       65.0       2.239      6.326
  3.85       65.0       2.248      6.449
  3.85       65.0       2.258      6.939
  3.85       65.0       2.267      7.265
  3.85       65.0       2.279      7.510
  3.85       65.0       2.289      7.510
  3.85       65.0       2.320      8.531
  3.85       65.0       2.329      8.449
  3.85       65.0       2.339      8.531
  3.85       65.0       2.358      8.776
  3.85       65.0       2.364      8.735
  3.85       65.0       2.369      8.776
  3.85       65.0       2.378      9.102
  3.85       65.0       2.388      9.020
  3.85       65.0       2.400      9.510
  3.85       65.0       2.412      9.796
  3.85       65.0       2.440      12.45
  3.85       65.0       2.451      14.12
  3.85       65.0       2.458      15.14
  3.85       65.0       2.469      18.65
  3.85       65.0       2.479      22.12
  3.85       65.0       2.491      26.00
  3.85       65.0       2.502      32.12
  3.85       65.0       2.511      33.35     0.5714
  3.85       65.0       2.521      27.80
  3.85       65.0       2.529      16.08
  3.85       65.0       2.539      9.265
  3.85       65.0       2.548      4.122
  3.85       65.0       2.558      4.612
  3.85       65.0       2.570      4.245
  3.85       65.0       2.579      4.816
  3.85       65.0       2.589      5.306
  3.85       65.0       2.599      5.918
  3.85       65.0       2.609      6.939
  3.85       65.0       2.618      7.878
  3.85       65.0       2.668      10.29
  3.85       65.0       2.677      11.43
  3.85       65.0       2.686      12.69
  3.85       65.0       2.696      14.90
  3.85       65.0       2.707      18.04
  3.85       65.0       2.718      21.67
  3.85       65.0       2.728      22.20
  3.85       65.0       2.737      22.08
  3.85       65.0       2.746      19.96
  3.85       65.0       2.756      17.51
  3.85       65.0       2.786      14.65
  3.85       65.0       2.798      14.20
  3.85       65.0       2.807      13.92     0.5714
  3.85       65.0       2.816      15.18
  3.85       65.0       2.826      15.76
  3.85       65.0       2.836      17.31
  3.85       65.0       2.849      16.57
  3.85       65.0       2.855      16.82
  3.85       65.0       2.867      16.65
  3.85       65.0       2.876      17.02
  3.85       65.0       2.886      17.47
  3.85       65.0       2.895      17.88
  3.85       65.0       2.907      17.63
  3.85       65.0       2.917      17.67
  3.85       65.0       2.927      18.61
  3.85       65.0       2.935      19.27
  3.85       65.0       2.946      24.41
  3.85       65.0       2.955      21.27
  3.85       65.0       2.966      16.41
  3.85       65.0       2.973      17.18
  3.85       65.0       2.985      20.45
  3.85       65.0       2.995      15.47
  3.85       65.0       3.006      16.04
  3.85       65.0       3.014      16.45
  3.85       65.0       3.026      17.31
  3.85       65.0       3.034      17.80
  3.85       65.0       3.044      19.39
  3.85       65.0       3.054      20.41
  3.85       65.0       3.064      19.92
  3.85       65.0       3.076      22.29
  3.85       65.0       3.086      22.41
  3.85       65.0       3.094      25.14
  3.85       65.0       3.105      23.67
  3.85       65.0       3.116      32.53
  3.85       65.0       3.125      29.47
  3.85       65.0       3.135      23.76
  3.85       65.0       3.143      23.51     0.4898
  3.85       65.0       3.152      17.39
  3.85       65.0       3.164      16.98
  3.85       65.0       3.173      17.43
  3.85       65.0       3.184      17.39
  3.85       65.0       3.193      19.02
  3.85       65.0       3.201      18.65
  3.85       65.0       3.212      18.73
  3.85       65.0       3.224      19.47
  3.85       65.0       3.236      20.08
  3.85       80.5       2.100      2.786
  3.85       80.5       2.118      2.784
  3.85       80.5       2.139      3.028
  3.85       80.5       2.158      3.684
  3.85       80.5       2.168      3.683
  3.85       80.5       2.173      3.765
  3.85       80.5       2.178      3.888
  3.85       80.5       2.188      4.051
  3.85       80.5       2.200      3.926
  3.85       80.5       2.207      4.049
  3.85       80.5       2.218      4.500
  3.85       80.5       2.229      4.375
  3.85       80.5       2.240      4.580
  3.85       80.5       2.249      4.743
  3.85       80.5       2.260      4.906
  3.85       80.5       2.271      5.358
  3.85       80.5       2.280      5.398
  3.85       80.5       2.289      5.602
  3.85       80.5       2.299      5.190
  3.85       80.5       2.311      5.353
  3.85       80.5       2.321      5.434
  3.85       80.5       2.331      5.721
  3.85       80.5       2.340      5.391
  3.85       80.5       2.349      5.389
  3.85       80.5       2.360      5.265
  3.85       80.5       2.369      5.263
  3.85       80.5       2.380      5.344
  3.85       80.5       2.385      5.385
  3.85       80.5       2.392      5.466
  3.85       80.5       2.398      5.548
  3.85       80.5       2.411      6.452
  3.85       80.5       2.421      7.191
  3.85       80.5       2.431      7.889
  3.85       80.5       2.440      8.177
  3.85       80.5       2.450      9.739
  3.85       80.5       2.461      11.80
  3.85       80.5       2.471      14.14
  3.85       80.5       2.471      15.13
  3.85       80.5       2.494      23.56
  3.85       80.5       2.504      25.16     0.6995
  3.85       80.5       2.511      18.00
  3.85       80.5       2.519      10.10
  3.85       80.5       2.532      6.272
  3.85       80.5       2.540      4.872
  3.85       80.5       2.552      4.459
  3.85       80.5       2.560      4.252
  3.85       80.5       2.570      4.374
  3.85       80.5       2.578      4.744
  3.85       80.5       2.588      5.524
  3.85       80.5       2.598      6.717
  3.85       80.5       2.610      7.044
  3.85       80.5       2.620      6.837
  3.85       80.5       2.629      7.577
  3.85       80.5       2.640      7.452
  3.85       80.5       2.648      8.274
  3.85       80.5       2.659      9.014
  3.85       80.5       2.669      10.29
  3.85       80.5       2.678      11.19
  3.85       80.5       2.690      13.99
  3.85       80.5       2.701      15.84
  3.85       80.5       2.712      17.24
  3.85       80.5       2.722      15.92
  3.85       80.5       2.731      14.64
  3.85       80.5       2.740      11.88
  3.85       80.5       2.750      10.85
  3.85       80.5       2.760      9.495
  3.85       80.5       2.770      8.959
  3.85       80.5       2.779      8.423
  3.85       80.5       2.788      8.545
  3.85       80.5       2.799      9.079
  3.85       80.5       2.809      10.27     0.4938
  3.85      117.0       2.161      2.326
  3.85      117.0       2.171      2.842
  3.85      117.0       2.180      2.747
  3.85      117.0       2.191      3.297
  3.85      117.0       2.202      2.454
  3.85      117.0       2.211      2.392
  3.85      117.0       2.221      2.399
  3.85      117.0       2.231      2.745
  3.85      117.0       2.240      2.207
  3.85      117.0       2.249      2.247
  3.85      117.0       2.259      2.526
  3.85      117.0       2.269      2.770
  3.85      117.0       2.282      2.438
  3.85      117.0       2.292      2.478
  3.85      117.0       2.300      2.552
  3.85      117.0       2.312      1.982
  3.85      117.0       2.319      2.122
  3.85      117.0       2.331      1.959
  3.85      117.0       2.341      2.034
  3.85      117.0       2.351      1.871
  3.85      117.0       2.360      2.114
  3.85      117.0       2.371      1.952
  3.85      117.0       2.381      2.366
  3.85      117.0       2.391      2.543
  3.85      117.0       2.401      3.127
  3.85      117.0       2.412      3.203
  3.85      117.0       2.421      3.820
  3.85      117.0       2.432      4.542
  3.85      117.0       2.441      4.819
  3.85      117.0       2.450      6.118
  3.85      117.0       2.460      8.845
  3.85      117.0       2.470      12.15
  3.85      117.0       2.483      16.61
  3.85      117.0       2.502      29.31     0.7138
  3.85      117.0       2.514      26.77
  3.85      117.0       2.523      18.17
  3.85      117.0       2.532      11.10
  3.85      117.0       2.541      9.238
  3.85      117.0       2.550      6.319
  3.85      117.0       2.559      5.270
  3.85      117.0       2.570      4.529
  3.85      117.0       2.580      4.093
  3.85      117.0       2.591      4.270
  3.85      117.0       2.602      4.856
  3.85      117.0       2.611      5.031
  3.85      117.0       2.620      4.697
  3.85      117.0       2.628      4.907
  3.85      117.0       2.640      4.982
  3.85      117.0       2.651      4.921
  3.85      117.0       2.660      4.587
  3.85      117.0       2.671      5.241
  3.85      117.0       2.680      5.655
  3.85      117.0       2.690      6.681
  3.85      117.0       2.701      7.743
  3.85      117.0       2.712      7.886
  3.85      117.0       2.721      7.552
  3.85      117.0       2.730      7.047
  3.85      117.0       2.741      5.286
  3.85      117.0       2.751      4.986
  3.85      117.0       2.759      3.733
  3.85      117.0       2.770      3.570
  3.85      117.0       2.780      3.679
  3.85      117.0       2.790      3.855
  3.85      117.0       2.799      3.487
  3.85      134.0       2.392     0.9518
  3.85      134.0       2.401      1.116     0.6035
  3.85      134.0       2.412      1.758
  3.85      134.0       2.423      2.622
  3.85      134.0       2.432      2.152
  3.85      134.0       2.441      4.380
  3.85      134.0       2.452      5.403
  3.85      134.0       2.462      7.758
  3.85      134.0       2.472      11.13
  3.85      134.0       2.482      17.04
  3.85      134.0       2.493      25.08
  3.85      134.0       2.504      30.04     0.8249
  3.85      134.0       2.514      26.59
  3.85      134.0       2.523      23.32
  3.85      134.0       2.533      15.64
  3.85      134.0       2.542      9.746
  3.85      134.0       2.552      7.054
  3.85      134.0       2.562      5.504
  3.85      134.0       2.571      4.399
  3.85      134.0       2.582      4.533
  3.85      134.0       2.592      4.190
  3.85      134.0       2.600      4.258
  3.85      134.0       2.613      4.553
  3.85      134.0       2.622      4.431
  3.85      134.0       2.632      3.961
  3.85      134.0       2.641      4.062
  3.85      134.0       2.651      4.164
  3.85      134.0       2.661      3.853
  3.85      134.0       2.672      4.146
  3.85      134.0       2.681      3.992
  3.85      134.0       2.693      5.080
  3.85      134.0       2.702      5.149
  3.85      134.0       2.708      5.502
  3.85      134.0       2.721      5.447
  3.85      134.0       2.731      4.501
  3.85      134.0       2.741      3.777
  3.85      134.0       2.752      3.371
  3.85      134.0       2.761      3.377
  3.85      134.0       2.772      3.130
  3.85      134.0       2.781      3.008
  3.85      134.0       2.792      2.857
  3.85      147.0       2.349      1.363
  3.85      147.0       2.359      1.659
  3.85      147.0       2.371      1.794
  3.85      147.0       2.378      2.218
  3.85      147.0       2.389      3.357
  3.85      147.0       2.399      3.394
  3.85      147.0       2.409      4.370
  3.85      147.0       2.439      4.093
  3.85      147.0       2.451      5.943
  3.85      147.0       2.460      7.922
  3.85      147.0       2.469      12.13
  3.85      147.0       2.481      17.80
  3.85      147.0       2.493      24.93
  3.85      147.0       2.503      30.66      1.166
  3.85      147.0       2.521      23.52
  3.85      147.0       2.531      18.09
  3.85      147.0       2.540      12.17
  3.85      147.0       2.551      8.160
  3.85      147.0       2.560      6.740
  3.85      147.0       2.569      4.512
  3.85      147.0       2.579      3.449
  3.85      147.0       2.590      3.616
  3.85      147.0       2.600      3.362
  3.85      147.0       2.609      3.431
  3.85      147.0       2.620      3.339
  3.85      147.0       2.631      2.956
  3.85      147.0       2.639      2.831
  3.85      147.0       2.650      2.707
  3.85      147.0       2.658      2.775
  3.85      147.0       2.669      2.780
  3.85      147.0       2.678      2.850
  3.85      147.0       2.688      3.049
  3.85      147.0       2.701      2.990
  3.85      147.0       2.709      3.285
  3.85      147.0       2.728      2.680
  3.85      147.0       2.740      2.167
  3.85      147.0       2.750      1.881
  3.85      147.0       2.758      1.917
  3.85      147.0       2.769      1.826
  3.85      147.0       2.788      1.835
  3.85      147.0       2.800      1.906
ENDDATA           1085
ENDSUBENT         1103
SUBENT        T0226004   20030926   20031223
BIB                  6          9
REACTION   (6-C-12(D,P)6-C-13,PAR,DA)
MONITOR    (6-C-12(D,P)6-C-13,PAR,DA)
MONIT-REF  (,MCELLISTREM+,J,PR,104,1008,1956)
ERR-ANALYS (DATA-ERR2) Relative errors due to statistics and
            background subtraction.
           Digitizing error in energy 0.08.
           Digitizing error in data 0.02.
STATUS     (CURVE) Scanned from Figs.6-8 in reference by NPDC.
HISTORY    (20030926A) Added monitor reference.
ENDBIB               9
COMMON               1          3
E-LVL-NRM
MEV
  3.09
ENDCOMMON            3
DATA                 5        447
E-LVL      EN         ANG-CM     DATA       DATA-ERR2
MEV        MEV        ADEG       MB/SR      MB/SR
  3.09       2.10       38.37      22.49     0.7025
  3.09       2.10       44.61      13.98
  3.09       2.10       49.85      9.156
  3.09       2.10       55.43      5.925
  3.09       2.10       60.29      5.781
  3.09       2.10       66.61      6.100
  3.09       2.10       71.47      5.974
  3.09       2.10       76.93      9.324
  3.09       2.10       81.91      11.03
  3.09       2.10       87.06      12.64
  3.09       2.10       92.33      13.66
  3.09       2.10       97.74      15.59
  3.09       2.10       102.4      15.02     0.4436
  3.09       2.10       107.0      15.96
  3.09       2.10       112.5      15.62
  3.09       2.10       116.7      16.38
  3.09       2.10       121.9      15.60
  3.09       2.10       126.9      15.18
  3.09       2.10       131.2      13.87
  3.09       2.10       135.6      13.16
  3.09       2.10       140.7      12.42
  3.09       2.10       145.3      12.11
  3.09       2.10       149.7      11.48
  3.09       2.10       154.5      11.08     0.2589
  3.09       2.20       34.16      39.20
  3.09       2.20       39.67      29.37
  3.09       2.20       44.96      16.04      2.050
  3.09       2.20       50.25      9.806
  3.09       2.20       55.34      6.722
  3.09       2.20       61.00      6.140
  3.09       2.20       66.39      7.107
  3.09       2.20       71.88      8.725
  3.09       2.20       77.04      10.34
  3.09       2.20       82.16      13.56
  3.09       2.20       87.57      13.87
  3.09       2.20       91.62      17.24
  3.09       2.20       97.29      16.41      1.349
  3.09       2.20       102.4      19.32
  3.09       2.20       107.2      18.34
  3.09       2.20       112.1      18.60
  3.09       2.20       116.8      17.67
  3.09       2.20       121.9      17.98
  3.09       2.20       126.3      17.35
  3.09       2.20       131.0      15.86
  3.09       2.20       135.7      14.83
  3.09       2.20       140.4      14.59
  3.09       2.20       144.6      12.11
  3.09       2.20       149.4      12.97
  3.09       2.20       153.7      12.29      1.100
  3.09       2.35       23.28      82.23
  3.09       2.35       26.08      67.45
  3.09       2.35       28.73      59.12
  3.09       2.35       33.83      38.87
  3.09       2.35       39.12      19.59
  3.09       2.35       44.66      11.04
  3.09       2.35       50.18      6.095
  3.09       2.35       61.35      7.348
  3.09       2.35       66.42      10.55
  3.09       2.35       71.73      13.57
  3.09       2.35       74.35      14.42
  3.09       2.35       76.81      16.64
  3.09       2.35       82.29      18.37
  3.09       2.35       87.44      19.60
  3.09       2.35       92.51      19.90
  3.09       2.35       97.01      20.29      1.013
  3.09       2.35       102.7      19.21
  3.09       2.35       107.5      18.18
  3.09       2.35       112.3      17.23
  3.09       2.35       116.9      15.41
  3.09       2.35       121.7      13.59
  3.09       2.50       26.21      76.68
  3.09       2.50       28.55      60.04
  3.09       2.50       31.31      47.18
  3.09       2.50       33.10      40.34
  3.09       2.50       36.52      33.70
  3.09       2.50       38.83      28.65
  3.09       2.50       44.60      20.90
  3.09       2.50       49.94      18.34     0.9958
  3.09       2.50       55.36      16.64
  3.09       2.50       60.85      15.95
  3.09       2.50       66.12      16.93
  3.09       2.50       71.80      17.23
  3.09       2.50       76.60      19.76
  3.09       2.50       81.40      22.29
  3.09       2.50       86.80      23.23
  3.09       2.50       91.59      25.92
  3.09       2.50       97.19      27.65     0.8354
  3.09       2.50       102.0      27.79
  3.09       2.50       106.6      27.49
  3.09       2.50       111.5      29.63
  3.09       2.50       116.4      27.93
  3.09       2.50       121.2      26.16
  3.09       2.50       126.0      25.26
  3.09       2.50       130.4      22.89
  3.09       2.62       23.20      155.0
  3.09       2.62       25.32      131.7
  3.09       2.62       27.36      115.3      2.463
  3.09       2.62       29.40      98.39
  3.09       2.62       31.60      81.80
  3.09       2.62       33.77      67.99
  3.09       2.62       39.66      39.41
  3.09       2.62       44.46      24.97
  3.09       2.62       50.10      18.56
  3.09       2.62       55.66      5.724
  3.09       2.62       60.93      19.23
  3.09       2.62       66.59      25.55
  3.09       2.62       71.99      27.17
  3.09       2.62       76.88      32.54
  3.09       2.62       81.81      34.79
  3.09       2.62       86.89      37.05
  3.09       2.62       92.30      37.82      2.141
  3.09       2.62       97.42      37.29
  3.09       2.62       102.4      38.37
  3.09       2.62       107.2      33.67
  3.09       2.62       112.2      32.40
  3.09       2.62       116.8      30.48
  3.09       2.71       32.70      103.3
  3.09       2.71       32.98      81.07
  3.09       2.71       35.25      64.64
  3.09       2.71       36.79      48.92
  3.09       2.71       42.26      32.45     0.8898
  3.09       2.71       47.06      20.47
  3.09       2.71       52.44      20.50
  3.09       2.71       57.57      23.24
  3.09       2.71       62.68      28.27
  3.09       2.71       67.91      31.74
  3.09       2.71       73.35      35.20
  3.09       2.71       78.59      37.56
  3.09       2.71       83.97      37.70
  3.09       2.71       88.17      32.33
  3.09       2.71       93.41      34.69      1.834
  3.09       2.71       98.36      27.93
  3.09       2.71       103.2      25.84
  3.09       2.71       112.4      23.11
  3.09       2.71       122.3      23.99
  3.09       2.89       23.00      127.7
  3.09       2.89       25.39      102.4
  3.09       2.89       28.13      96.24
  3.09       2.89       31.03      74.27
  3.09       2.89       33.91      60.11
  3.09       2.89       36.75      54.92
  3.09       2.89       38.60      40.69
  3.09       2.89       44.78      28.46
  3.09       2.89       49.61      20.87
  3.09       2.89       55.13      19.76
  3.09       2.89       60.67      17.69
  3.09       2.89       65.97      16.52
  3.09       2.89       71.33      18.01
  3.09       2.89       76.50      17.85
  3.09       2.89       81.73      20.30
  3.09       2.89       87.00      20.71
  3.09       2.89       92.12      22.84
  3.09       2.89       96.69      23.57
  3.09       2.89       102.8      23.48      1.334
  3.09       2.89       107.0      23.76
  3.09       2.89       111.7      25.76
  3.68       2.35       22.42      8.547
  3.68       2.35       25.92      7.006
  3.68       2.35       28.29      8.030
  3.68       2.35       34.42      6.552
  3.68       2.35       40.24      5.442     0.4959
  3.68       2.35       51.98      4.518
  3.68       2.35       62.45      4.091
  3.68       2.35       73.66      3.151
  3.68       2.35       74.09      2.932
  3.68       2.35       78.87      2.633
  3.68       2.35       89.39      1.891
  3.68       2.35       99.30     0.8076
  3.68       2.35       104.0      1.181     0.2986
  3.68       2.35       108.9     0.8387
  3.68       2.35       117.5     0.6673
  3.68       2.35       122.9     0.6668
  3.68       2.50       34.36      8.598
  3.68       2.50       36.65      7.915
  3.68       2.50       39.71      7.497     0.6880
  3.68       2.50       50.55      5.212
  3.68       2.50       56.04      4.381
  3.68       2.50       62.29      3.364
  3.68       2.50       67.13      2.641
  3.68       2.50       72.36      2.223
  3.68       2.50       77.98      2.012
  3.68       2.50       82.70      1.358
  3.68       2.50       88.82      1.471
  3.68       2.50       98.77      1.677
  3.68       2.50       103.7      1.510     0.1769
  3.68       2.50       108.7      1.480
  3.68       2.50       113.7      1.583
  3.68       2.50       117.8      1.578
  3.68       2.50       123.0      1.882
  3.68       2.50       127.3      1.474
  3.68       2.50       132.2      1.857
  3.68       2.50       136.9      2.068
  3.68       2.50       141.1      1.616
  3.68       2.50       145.8      2.712
  3.68       2.50       150.3      3.085     0.2064
  3.68       2.50       154.5      3.370
  3.68       2.62       23.30      13.61
  3.68       2.62       25.04      10.51
  3.68       2.62       27.28      11.57
  3.68       2.62       31.63      11.01
  3.68       2.62       34.74      11.28     0.9477
  3.68       2.62       40.34      10.97
  3.68       2.62       45.19      8.693
  3.68       2.62       50.54      7.200
  3.68       2.62       56.76      5.767
  3.68       2.62       61.48      3.976
  3.68       2.62       67.33      4.632
  3.68       2.62       72.30      3.244
  3.68       2.62       72.43      3.393
  3.68       2.62       78.27      2.744
  3.68       2.62       82.88      2.229
  3.68       2.62       87.98      1.624
  3.68       2.62       93.57      1.572
  3.68       2.62       98.18      1.109     0.2314
  3.68       2.62       103.5      1.639
  3.68       2.62       108.4      1.743
  3.68       2.62       113.1      1.706
  3.68       2.62       117.8      2.041
  3.68       2.62       122.7      1.683
  3.68       2.62       127.9      2.339
  3.68       2.62       132.5      2.675
  3.68       2.62       137.0      2.772
  3.68       2.62       141.5      2.570
  3.68       2.62       146.1      3.175
  3.68       2.62       150.7      3.958
  3.68       2.62       155.0      4.346     0.4925
  3.68       2.71       27.10      19.59
  3.68       2.71       31.54      18.42
  3.68       2.71       34.10      15.73     0.9072
  3.68       2.71       37.15      15.62
  3.68       2.71       39.80      15.58
  3.68       2.71       45.53      10.90
  3.68       2.71       50.75      9.991     0.4153
  3.68       2.71       56.80      8.460
  3.68       2.71       61.70      6.361
  3.68       2.71       66.42      5.103
  3.68       2.71       72.74      3.528
  3.68       2.71       76.91      2.500
  3.68       2.71       82.61      2.182
  3.68       2.71       88.63      1.263
  3.68       2.71       93.79      1.142     0.2405
  3.68       2.71       98.71     0.7913
  3.68       2.71       103.5     0.9107
  3.68       2.71       108.6     0.9208
  3.68       2.71       113.4      1.390
  3.68       2.71       117.8      1.520
  3.68       2.71       122.7      2.044
  3.68       2.71       127.6      2.404
  3.68       2.71       132.0      2.982
  3.68       2.71       136.2      3.736
  3.68       2.71       141.0      3.560
  3.68       2.71       145.2      4.062
  3.68       2.71       149.8      4.345     0.3279
  3.68       2.71       153.6      4.727
  3.68       2.89       23.31      10.75     0.8264
  3.68       2.89       25.47      10.55
  3.68       2.89       30.75      8.952
  3.68       2.89       34.28      9.098
  3.68       2.89       45.61      5.855
  3.68       2.89       50.98      4.946     0.2569
  3.68       2.89       56.86      3.863
  3.68       2.89       61.69      3.439
  3.68       2.89       67.68      2.641
  3.68       2.89       72.74      2.599
  3.68       2.89       77.67      2.572
  3.68       2.89       83.11      2.620
  3.68       2.89       88.56      2.371
  3.68       2.89       93.25      2.128     0.3542
  3.68       2.89       98.80      2.426
  3.68       2.89       103.5      2.107
  3.68       2.89       108.2      2.392
  3.68       2.89       112.9      2.573
  3.68       2.89       118.9      3.024
  3.68       2.89       122.5      2.830
  3.68       2.89       127.0      3.010
  3.68       2.89       131.9      3.511
  3.68       2.89       136.4      3.566
  3.68       2.89       141.0      4.275
  3.68       2.89       145.3      4.907
  3.68       2.89       149.7      4.796
  3.68       2.89       154.4      5.095     0.3403
  3.85       2.10       37.65      2.665
  3.85       2.10       41.06      1.981     0.3127
  3.85       2.10       46.04      2.856
  3.85       2.10       51.95      2.876
  3.85       2.10       62.25      3.161
  3.85       2.10       68.32      2.888
  3.85       2.10       73.63      3.220
  3.85       2.10       79.33      2.823
  3.85       2.10       84.57      2.861
  3.85       2.10       89.79      2.812
  3.85       2.10       94.70      2.346
  3.85       2.10       100.1      2.433     0.2107
  3.85       2.10       105.3      2.261
  3.85       2.10       110.0      2.157
  3.85       2.10       114.7      2.066
  3.85       2.10       118.7      2.180
  3.85       2.10       119.7      1.947
  3.85       2.10       124.7      1.856
  3.85       2.10       128.8      2.022
  3.85       2.10       133.6      1.825
  3.85       2.10       138.5      1.882
  3.85       2.10       142.3      2.070
  3.85       2.10       146.3      2.036
  3.85       2.10       150.8      1.959     0.1371
  3.85       2.20       40.38      3.206
  3.85       2.20       51.86      5.062     0.6210
  3.85       2.20       62.88      4.819
  3.85       2.20       73.70      5.106
  3.85       2.20       84.82      4.570
  3.85       2.20       94.92      4.268
  3.85       2.20       99.70      3.528     0.3951
  3.85       2.20       104.9      3.466
  3.85       2.20       109.9      3.368
  3.85       2.20       114.5      3.349
  3.85       2.20       119.4      2.862
  3.85       2.20       124.1      2.719
  3.85       2.20       128.6      2.775
  3.85       2.20       133.6      1.406
  3.85       2.20       137.7      2.519
  3.85       2.20       141.9      2.355
  3.85       2.20       146.4      2.136
  3.85       2.20       150.7      2.292
  3.85       2.20       155.2      1.498     0.3065
  3.85       2.35       23.29      3.721
  3.85       2.35       26.04      6.384
  3.85       2.35       34.79      6.755
  3.85       2.35       40.92      8.393     0.4948
  3.85       2.35       45.67      8.358
  3.85       2.35       52.54      9.162
  3.85       2.35       63.54      7.893
  3.85       2.35       68.67      7.732
  3.85       2.35       74.29      7.051
  3.85       2.35       74.29      6.634
  3.85       2.35       79.79      6.473
  3.85       2.35       85.29      5.768
  3.85       2.35       90.17      5.069
  3.85       2.35       95.42      4.825
  3.85       2.35       99.92      3.825
  3.85       2.35       104.8      3.494     0.2473
  3.85       2.35       110.0      3.119
  3.85       2.35       114.8      2.696
  3.85       2.35       119.4      2.336
  3.85       2.35       124.4      2.054
  3.85       2.50       40.79      55.53
  3.85       2.50       46.09      49.13      1.237
  3.85       2.50       57.76      40.22
  3.85       2.50       63.31      34.56
  3.85       2.50       68.48      31.27
  3.85       2.50       74.24      28.24
  3.85       2.50       79.41      25.68
  3.85       2.50       84.44      24.78
  3.85       2.50       89.72      23.54
  3.85       2.50       95.10      24.34
  3.85       2.50       100.0      25.34     0.8125
  3.85       2.50       105.0      26.07
  3.85       2.50       110.2      27.76
  3.85       2.50       114.7      29.26
  3.85       2.50       119.6      32.97
  3.85       2.50       124.3      34.08
  3.85       2.50       129.2      36.63
  3.85       2.50       133.5      39.33
  3.85       2.50       138.1      43.07
  3.85       2.50       142.5      46.28
  3.85       2.50       146.8      49.64
  3.85       2.50       151.8      50.94     0.7350
  3.85       2.50       155.5      53.76
  3.85       2.62       23.96      4.827
  3.85       2.62       25.98      4.389
  3.85       2.62       28.19      5.155
  3.85       2.62       30.41      5.432
  3.85       2.62       35.21      5.521     0.8318
  3.85       2.62       40.87      6.319
  3.85       2.62       51.67      7.141
  3.85       2.62       73.53      7.651
  3.85       2.62       78.22      7.586
  3.85       2.62       83.94      6.914
  3.85       2.62       88.71      7.744
  3.85       2.62       94.18      7.569     0.3933
  3.85       2.62       99.33      7.077
  3.85       2.62       104.8      7.231
  3.85       2.62       109.4      7.333
  3.85       2.62       114.4      7.383
  3.85       2.62       119.0      7.382
  3.85       2.62       123.4      7.477
  3.85       2.62       128.2      7.334
  3.85       2.62       133.0      6.940
  3.85       2.62       138.0      6.648
  3.85       2.62       142.3      6.499
  3.85       2.62       146.7      6.414
  3.85       2.62       150.9      5.975
  3.85       2.62       155.4      5.303     0.4964
  3.85       2.71       26.52      10.27
  3.85       2.71       30.16      11.98
  3.85       2.71       34.78      12.42
  3.85       2.71       37.54      12.36
  3.85       2.71       40.24      13.49     0.5557
  3.85       2.71       51.26      15.43
  3.85       2.71       56.68      15.59
  3.85       2.71       62.47      16.33
  3.85       2.71       68.20      15.77
  3.85       2.71       73.05      16.24
  3.85       2.71       78.44      15.91
  3.85       2.71       83.61      15.66
  3.85       2.71       89.00      15.35
  3.85       2.71       93.63      15.91     0.2627
  3.85       2.71       99.42      14.14
  3.85       2.71       104.0      13.97
  3.85       2.71       109.1      12.66
  3.85       2.71       113.7      11.97
  3.85       2.71       118.6      11.51
  3.85       2.71       123.5      10.20
  3.85       2.71       123.9      11.06
  3.85       2.71       128.0      9.733
  3.85       2.71       132.7      9.040
  3.85       2.71       136.7      8.671
  3.85       2.71       141.8      7.311
  3.85       2.71       145.6      6.679
  3.85       2.71       150.0      5.994     0.4054
  3.85       2.71       154.4      5.287
  3.85       2.89       22.62      10.69
  3.85       2.89       24.92      11.67
  3.85       2.89       28.22      12.60
  3.85       2.89       31.22      14.82
  3.85       2.89       34.26      13.63
  3.85       2.89       39.53      18.30     0.6436
  3.85       2.89       50.50      18.51
  3.85       2.89       56.10      18.34
  3.85       2.89       61.92      17.84
  3.85       2.89       67.05      16.26
  3.85       2.89       72.87      15.72
  3.85       2.89       77.31      15.01
  3.85       2.89       83.25      14.36
  3.85       2.89       87.77      13.05
  3.85       2.89       93.13      13.06
  3.85       2.89       97.79      11.93     0.4627
  3.85       2.89       103.1      11.17
  3.85       2.89       108.3      10.08
  3.85       2.89       113.3      9.708
  3.85       2.89       117.4      9.209
  3.85       2.89       122.3      7.863
  3.85       2.89       131.7      7.880
  3.85       2.89       136.1      7.573
  3.85       2.89       140.3      7.311
  3.85       2.89       144.8      7.015
  3.85       2.89       149.4      6.877
  3.85       2.89       154.0      6.693
ENDDATA            449
ENDSUBENT          467
ENDENTRY             4
