ENTRY            T0242   20120320   20120530   20120515       T022
SUBENT        T0242001   20120320   20120530   20120515       T022
BIB                 11         45
INSTITUTE  (1USAFSU)
REFERENCE  (J,PR,160,782,196708)
AUTHOR     (W.E.Hunt,M.K.Mehta,R.H.Davis)
TITLE      Scattering of alpha particles by oxygen. I. Bombarding
            energy range 5.8 to 10.0 MeV
FACILITY   (VDG,1USAFSU)
SAMPLE     Oxygen target prepared by vacuum deposition of thin
            layers of lithium metal onto thin carbon backings
            with subsequent oxidation of the lithium to form LiOH.
           Targets 25-35 keV thick to 10-Me alpha-particles.
           For normalization: The SiO2 targets were prepared from
           blown quartz, and their thicknesses were determined
           by weighing.
METHOD     (BCINT)
DETECTOR   (SI) p-type silicon-junction detectors.
MONITOR    Because of uncertainties in determination of the exact
           oxygen content of the LiOH targets, the absolute cross
           sections were assigned by normalizing the data to cross
           sections measured with Si02 targets whose thicknesses
           were known to within 6%. Exclusive use of quartz
           targets was precluded by the frequent overlap of
           silicon inelastic and oxygen elastic groups.
           90 degree analyzing magnet calibrated using well-known
            13C(p,n)13N threshold with assumed threshold of 3.237
            MeV.
           Additional checks on the calibration and linearity of
            the magnet were provided using (p,n) threshold
            measurements and by threshold measurements of the
            6Li(a,n)9B and 7Li(a,n)10B reactions. The 7Li(a,n)10B
            threshold at 4.37 MeV (lab) was determined with both
            singly and doubly charged helium beams.
ERR-ANALYS Maximum calibration error not more than 20 keV, and
            probably not more than 10 keV.
           (DATA-ERR) The estimated error in the cross sections
           is 12% (from normalizations to data from SiO2 target),
           except for the region of excitation below 6.3 MeV,
           where statistical errors of +-10% resulted from very
           poor beam currents (the order of 1 nA). Statistical
           errors also increased the cross-section errors near
           the minimum of the angular distribution where the
           cross section is less than 10 mb/sr.
HISTORY    (20030204C)
           (20120320A) SD. Duplication in energy(or angle) values
            in Subents 2,3 were checked and corrected. BIB upgaded
            Cosmetic changes in all Subents.
ENDBIB              45
COMMON               1          3
DATA-ERR
PER-CENT
  12.
ENDCOMMON            3
ENDSUBENT           52
SUBENT        T0242002   20120320   20120530   20120515       T022
BIB                  4          6
REACTION   (8-O-16(A,EL)8-O-16,,DA)
ERR-ANALYS (EN-ERR-DIG) Digitizing error in energy 0.02 MeV.
           (ERR-DIG) Digitizing error in data 1 mb/sr.
STATUS     (CURVE) Data scanned from Fig.2-3 of PR,160,782,1967
                                                        at CNPD.
HISTORY    (20120320A) SD. Duplication in energy values corrected.
ENDBIB               6
COMMON               2          3
EN-ERR-DIG ERR-DIG
MEV        MB/SR
  0.02       1.
ENDCOMMON            3
DATA                 3       2032
ANG-CM     EN         DATA-CM
ADEG       MEV        MB/SR
       90.0       5.88        63.
       90.0       5.91        45.
       90.0       5.93        44.
       90.0       5.94        28.
       90.0       5.96        27.
       90.0       5.98        29.
       90.0       6.00        41.
       90.0       6.01        50.
       90.0       6.04        51.
       90.0       6.05        44.
       90.0       6.07        42.
       90.0       6.08        43.
       90.0       6.11        41.
       90.0       6.12        45.
       90.0       6.16        43.
       90.0       6.19        38.
       90.0       6.22        34.
       90.0       6.26        35.
       90.0       6.29        29.
       90.0       6.33        18.
       90.0       6.37        19.
       90.0       6.40        21.
       90.0       6.43        17.
       90.0       6.45        13.
       90.0       6.47        11.
       90.0       6.48         6.
       90.0       6.53         5.
       90.0       6.54        10.
       90.0       6.56        17.
       90.0       6.58        37.
       90.0       6.59        77.
       90.0       6.61       113.
       90.0       6.63       158.
       90.0       6.65       155.
       90.0       6.67       138.
       90.0       6.69       124.
       90.0       6.70       102.
       90.0       6.73        98.
       90.0       6.74        82.
       90.0       6.76        69.
       90.0       6.78        63.
       90.0       6.84        44.
       90.0       6.85        50.
       90.0       6.87        45.
       90.0       6.89        37.
       90.0       6.90        36.
       90.0       6.92        35.
       90.0       6.95        32.
       90.0       6.96        32.
       90.0       6.97        25.
       90.0       6.98        18.
       90.0       7.02        16.
       90.0       7.06        13.
       90.0       7.10        10.
       90.0       7.13         4.
       90.0       7.15         5.
       90.0       7.17         5.
       90.0       7.19         5.
       90.0       7.23         3.
       90.0       7.24         3.
       90.0       7.27         6.
       90.0       7.28        26.
       90.0       7.30        24.
       90.0       7.32        24.
       90.0       7.34        26.
       90.0       7.36        20.
       90.0       7.38        19.
       90.0       7.39        17.
       90.0       7.42        19.
       90.0       7.43        24.
       90.0       7.45        24.
       90.0       7.47        18.
       90.0       7.50        22.
       90.0       7.52        23.
       90.0       7.53        27.
       90.0       7.55        28.
       90.0       7.57        34.
       90.0       7.59        29.
       90.0       7.61        26.
       90.0       7.63        23.
       90.0       7.65        48.
       90.0       7.67        57.
       90.0       7.69        64.
       90.0       7.71        63.
       90.0       7.73        55.
       90.0       7.74        58.
       90.0       7.77        51.
       90.0       7.79        53.
       90.0       7.80        55.
       90.0       7.83        53.
       90.0       7.84        58.
       90.0       7.86        45.
       90.0       7.88        28.
       90.0       7.89        21.
       90.0       7.91        25.
       90.0       7.93        30.
       90.0       7.94        33.
       90.0       7.97        31.
       90.0       7.98        31.
       90.0       7.99        37.
       90.0       8.01        39.
       90.0       8.03        34.
       90.0       8.05        34.
       90.0       8.06        30.
       90.0       8.08        26.
       90.0       8.11        34.
       90.0       8.13        25.
       90.0       8.14        23.
       90.0       8.17        22.
       90.0       8.19        20.
       90.0       8.20        16.
       90.0       8.22         7.
       90.0       8.24        11.
       90.0       8.27        32.
       90.0       8.28        44.
       90.0       8.31        51.
       90.0       8.33        56.
       90.0       8.35        58.
       90.0       8.37        49.
       90.0       8.39        49.
       90.0       8.41        50.
       90.0       8.43        48.
       90.0       8.45        43.
       90.0       8.47        46.
       90.0       8.49        49.
       90.0       8.51        43.
       90.0       8.53        39.
       90.0       8.55        43.
       90.0       8.57        38.
       90.0       8.60        39.
       90.0       8.61        41.
       90.0       8.64        35.
       90.0       8.65        33.
       90.0       8.72        36.
       90.0       8.74        30.
       90.0       8.76        32.
       90.0       8.78        25.
       90.0       8.80        26.
       90.0       8.82        22.
       90.0       8.85        19.
       90.0       8.87        13.
       90.0       8.89         9.
       90.0       8.91         4.
       90.0       8.93         9.
       90.0       8.95        25.
       90.0       8.97        37.
       90.0       8.99        33.
       90.0       9.01        33.
       90.0       9.03        35.
       90.0       9.05        34.
       90.0       9.08        34.
       90.0       9.10        33.
       90.0       9.12        30.
       90.0       9.14        29.
       90.0       9.16        27.
       90.0       9.18        24.
       90.0       9.20        28.
       90.0       9.22        25.
       90.0       9.24        23.
       90.0       9.27        20.
       90.0       9.29        22.
       90.0       9.31        19.
       90.0       9.33        18.
       90.0       9.35        20.
       90.0       9.38        19.
       90.0       9.39        16.
       90.0       9.42        13.
       90.0       9.43        12.
       90.0       9.45        14.
       90.0       9.48        12.
       90.0       9.50         9.
       90.0       9.52         9.
       90.0       9.55        10.
       90.0       9.56        12.
       90.0       9.58        15.
       90.0       9.61        25.
       90.0       9.63        35.
       90.0       9.65        36.
       90.0       9.67        47.
       90.0       9.69        59.
       90.0       9.72        60.
       90.0       9.74        78.
       90.0       9.76        94.
       90.0       9.78       116.
       90.0       9.80       152.
       90.0       9.81       145.
       90.0       9.83       154.
       90.0       9.85       140.
       90.0       9.87       115.
       90.0       9.89       101.
       90.0       9.91       103.
       90.0       9.94        93.
       90.0       9.96        83.
       90.0       9.98        79.
       90.0      10.00        63.
       90.0      10.01        50.
       90.0      10.02        39.
       90.0      10.03        33.
       90.0      10.05        26.
       90.0      10.07        25.
       90.0      10.09        38.
       90.0      10.11        46.
       90.0      10.14        58.
       90.0      10.16        61.
       90.0      10.18        69.
       90.0      10.19        75.
       90.0      10.20        80.
       90.0      10.22        93.
       90.0      10.23        86.
       90.0      10.25        83.
       90.0      10.27        61.
       90.0      10.29        30.
       90.0      10.31        32.
       90.0      10.34        43.
       90.0      10.35        39.
      109.9       5.76        66.
      109.9       5.77        60.
      109.9       5.81        78.
      109.9       5.84        65.
      109.9       5.88        67.
      109.9       5.89        67.
      109.9       5.91        54.
      109.9       5.92        60.
      109.9       5.94        43.
      109.9       5.96        36.
      109.9       5.98        58.
      109.9       6.00        87.
      109.9       6.01        78.
      109.9       6.04        72.
      109.9       6.08        75.
      109.9       6.11        77.
      109.9       6.12        70.
      109.9       6.15        71.
      109.9       6.18        77.
      109.9       6.22        69.
      109.9       6.26        79.
      109.9       6.29        66.
      109.9       6.33        66.
      109.9       6.36        80.
      109.9       6.40        78.
      109.9       6.43        63.
      109.9       6.47        61.
      109.9       6.49        55.
      109.9       6.50        74.
      109.9       6.52        76.
      109.9       6.54        70.
      109.9       6.56        72.
      109.9       6.57        67.
      109.9       6.59        72.
      109.9       6.61        87.
      109.9       6.62        93.
      109.9       6.63       101.
      109.9       6.65        99.
      109.9       6.67        90.
      109.9       6.68       100.
      109.9       6.71       104.
      109.9       6.72       104.
      109.9       6.74        89.
      109.9       6.76       105.
      109.9       6.78       105.
      109.9       6.80       111.
      109.9       6.82       118.
      109.9       6.83       127.
      109.9       6.84       118.
      109.9       6.85       126.
      109.9       6.88       131.
      109.9       6.89       137.
      109.9       6.91       117.
      109.9       6.92       102.
      109.9       6.94        81.
      109.9       6.96        51.
      109.9       6.98        31.
      109.9       7.00        18.
      109.9       7.02        15.
      109.9       7.03        15.
      109.9       7.06        16.
      109.9       7.07        18.
      109.9       7.09        22.
      109.9       7.11        26.
      109.9       7.13        33.
      109.9       7.15        30.
      109.9       7.17        32.
      109.9       7.18        29.
      109.9       7.20        22.
      109.9       7.22        20.
      109.9       7.24        21.
      109.9       7.26        16.
      109.9       7.28        17.
      109.9       7.30        14.
      109.9       7.32        25.
      109.9       7.34        37.
      109.9       7.36        42.
      109.9       7.38        41.
      109.9       7.40        32.
      109.9       7.41        36.
      109.9       7.43        27.
      109.9       7.45        27.
      109.9       7.47        28.
      109.9       7.49        28.
      109.9       7.51        30.
      109.9       7.53        32.
      109.9       7.55        26.
      109.9       7.57        23.
      109.9       7.58        17.
      109.9       7.59        11.
      109.9       7.61        14.
      109.9       7.63        12.
      109.9       7.65        29.
      109.9       7.67        32.
      109.9       7.69        30.
      109.9       7.71        30.
      109.9       7.73        36.
      109.9       7.75        29.
      109.9       7.79        36.
      109.9       7.80        34.
      109.9       7.82        31.
      109.9       7.84        28.
      109.9       7.86        18.
      109.9       7.89        16.
      109.9       7.90        21.
      109.9       7.93        21.
      109.9       7.94        21.
      109.9       7.96        18.
      109.9       7.99        14.
      109.9       8.00        14.
      109.9       8.03        14.
      109.9       8.04         8.
      109.9       8.06         9.
      109.9       8.08         8.
      109.9       8.10         5.
      109.9       8.12         2.
      109.9       8.14         2.
      109.9       8.16         2.
      109.9       8.18         2.
      109.9       8.20         2.
      109.9       8.23         8.
      109.9       8.24        28.
      109.9       8.26        36.
      109.9       8.28        44.
      109.9       8.30        38.
      109.9       8.32        37.
      109.9       8.34        31.
      109.9       8.36        37.
      109.9       8.39        32.
      109.9       8.41        33.
      109.9       8.43        29.
      109.9       8.44        23.
      109.9       8.47        26.
      109.9       8.49        29.
      109.9       8.51        27.
      109.9       8.53        28.
      109.9       8.55        22.
      109.9       8.57        20.
      109.9       8.59        19.
      109.9       8.61        21.
      109.9       8.64        21.
      109.9       8.65        18.
      109.9       8.67        17.
      109.9       8.69        16.
      109.9       8.71        16.
      109.9       8.74        17.
      109.9       8.75        15.
      109.9       8.78        12.
      109.9       8.80         9.
      109.9       8.82         9.
      109.9       8.84         3.
      109.9       8.86         3.
      109.9       8.88         3.
      109.9       8.90         8.
      109.9       8.93        28.
      109.9       8.95        33.
      109.9       8.97        37.
      109.9       8.99        29.
      109.9       9.01        32.
      109.9       9.03        19.
      109.9       9.05        14.
      109.9       9.08        20.
      109.9       9.09        20.
      109.9       9.11        21.
      109.9       9.14        14.
      109.9       9.16        17.
      109.9       9.18        13.
      109.9       9.20        15.
      109.9       9.22        16.
      109.9       9.24        11.
      109.9       9.26         9.
      109.9       9.29         9.
      109.9       9.31         4.
      109.9       9.33         3.
      109.9       9.35         4.
      109.9       9.37         2.
      109.9       9.39         2.
      109.9       9.42         2.
      109.9       9.43         2.
      109.9       9.46         2.
      109.9       9.48         1.
      109.9       9.50         3.
      109.9       9.52         3.
      109.9       9.55         2.
      109.9       9.56        13.
      109.9       9.58        63.
      109.9       9.60        76.
      109.9       9.63        63.
      109.9       9.65        47.
      109.9       9.67        40.
      109.9       9.69        35.
      109.9       9.71        31.
      109.9       9.73        21.
      109.9       9.76        17.
      109.9       9.78        20.
      109.9       9.80        25.
      109.9       9.82        35.
      109.9       9.84        41.
      109.9       9.86        36.
      109.9       9.89        26.
      109.9       9.91        33.
      109.9       9.94        34.
      109.9       9.95        58.
      109.9       9.96        48.
      109.9       9.98        58.
      109.9      10.00        48.
      109.9      10.02        33.
      109.9      10.05        33.
      109.9      10.07        33.
      109.9      10.09        36.
      114.0       6.19        19.
      114.0       6.25        22.
      114.0       6.33        23.
      114.0       6.40        81.
      114.0       6.47        73.
      114.0       6.51        78.
      114.0       6.55        83.
      114.0       6.59        74.
      114.0       6.61        74.
      114.0       6.65        50.
      114.0       6.68        45.
      114.0       6.72        59.
      114.0       6.76        61.
      114.0       6.83       104.
      114.0       6.87       100.
      114.0       6.91        83.
      114.0       6.94        45.
      114.0       6.98        24.
      114.0       7.01        13.
      114.0       7.05         8.
      114.0       7.09         8.
      114.0       7.13        18.
      114.0       7.15        28.
      114.0       7.17        28.
      114.0       7.18        27.
      114.0       7.20        39.
      114.0       7.22        44.
      114.0       7.24        34.
      114.0       7.26        27.
      114.0       7.27        29.
      114.0       7.28        21.
      114.0       7.30        23.
      114.0       7.31        26.
      114.0       7.34        49.
      114.0       7.36        55.
      114.0       7.38        63.
      114.0       7.40        60.
      114.0       7.41        57.
      114.0       7.43        55.
      114.0       7.46        51.
      114.0       7.47        46.
      114.0       7.49        52.
      114.0       7.51        42.
      114.0       7.53        41.
      114.0       7.55        47.
      114.0       7.57        48.
      114.0       7.59        46.
      114.0       7.61        45.
      114.0       7.63        40.
      114.0       7.65        25.
      114.0       7.66        11.
      114.0       7.68         8.
      114.0       7.70         6.
      114.0       7.72         6.
      114.0       7.74        13.
      114.0       7.76        10.
      114.0       7.78         9.
      114.0       7.80         9.
      114.0       7.82        10.
      114.0       7.84        11.
      114.0       7.86        18.
      114.0       7.87        15.
      114.0       7.88        25.
      114.0       7.89        19.
      114.0       7.91        16.
      114.0       7.92        15.
      114.0       7.94        15.
      114.0       7.96        12.
      114.0       7.98         8.
      114.0       8.00        10.
      114.0       8.02         9.
      114.0       8.04        10.
      114.0       8.06         6.
      114.0       8.08         5.
      114.0       8.10         4.
      114.0       8.12         2.
      114.0       8.14         2.
      114.0       8.15         2.
      114.0       8.17         1.
      114.0       8.19         1.
      114.0       8.21         2.
      114.0       8.22         3.
      114.0       8.24         8.
      114.0       8.26        21.
      114.0       8.28        17.
      114.0       8.30        19.
      114.0       8.32        16.
      114.0       8.34        13.
      114.0       8.36        10.
      114.0       8.38        10.
      114.0       8.40         9.
      114.0       8.43         8.
      114.0       8.44         8.
      114.0       8.46        10.
      114.0       8.49         9.
      114.0       8.50        10.
      114.0       8.53         7.
      114.0       8.55         9.
      114.0       8.57         9.
      114.0       8.59         8.
      114.0       8.61         8.
      114.0       8.63         8.
      114.0       8.65         8.
      114.0       8.67         7.
      114.0       8.69        10.
      114.0       8.71         6.
      114.0       8.74         8.
      114.0       8.76         5.
      114.0       8.78         4.
      114.0       8.80         3.
      114.0       8.81         2.
      114.0       8.83         1.
      114.0       8.86         2.
      114.0       8.89         1.
      114.0       8.90         8.
      114.0       8.92         9.
      114.0       8.94        13.
      114.0       8.97        15.
      114.0       8.98         9.
      114.0       9.01        15.
      114.0       9.02        11.
      114.0       9.05         5.
      114.0       9.07         8.
      114.0       9.09        10.
      114.0       9.11         7.
      114.0       9.14        10.
      114.0       9.16         9.
      114.0       9.18        13.
      114.0       9.19         9.
      114.0       9.22        10.
      114.0       9.24         9.
      114.0       9.26        14.
      114.0       9.28        14.
      114.0       9.31        20.
      114.0       9.33        20.
      114.0       9.35        14.
      114.0       9.37        19.
      114.0       9.39         9.
      114.0       9.41        10.
      114.0       9.43         9.
      114.0       9.44        15.
      114.0       9.46        17.
      114.0       9.48         8.
      114.0       9.50         5.
      114.0       9.52         8.
      114.0       9.54        16.
      114.0       9.56        26.
      114.0       9.58        59.
      114.0       9.60        88.
      114.0       9.63        69.
      114.0       9.65        44.
      114.0       9.67        39.
      114.0       9.69        30.
      114.0       9.72        30.
      114.0       9.73        36.
      114.0       9.76        56.
      114.0       9.78        79.
      114.0       9.80       106.
      114.0       9.81       117.
      114.0       9.83       146.
      114.0       9.84       139.
      114.0       9.87       123.
      114.0       9.89       117.
      114.0       9.91       106.
      114.0       9.93       119.
      114.0       9.96       115.
      114.0       9.98       118.
      114.0      10.00        94.
      114.0      10.02        75.
      114.0      10.04        73.
      114.0      10.07        63.
      114.0      10.14        24.
      114.0      10.18        24.
      114.0      10.23        22.
      114.0      10.27        24.
      114.0      10.31        59.
      114.0      10.34        52.
      114.0      10.35        61.
      114.0      10.36        55.
      125.3       5.84        77.
      125.3       5.88        48.
      125.3       5.91        74.
      125.3       5.93        75.
      125.3       5.94        61.
      125.3       5.95        56.
      125.3       5.97        78.
      125.3       5.99        67.
      125.3       6.01        83.
      125.3       6.03        73.
      125.3       6.04        72.
      125.3       6.06        71.
      125.3       6.08        69.
      125.3       6.09        79.
      125.3       6.10        94.
      125.3       6.11        96.
      125.3       6.15        75.
      125.3       6.19        79.
      125.3       6.22        91.
      125.3       6.26        80.
      125.3       6.29        94.
      125.3       6.33       107.
      125.3       6.36       101.
      125.3       6.40       109.
      125.3       6.43       115.
      125.3       6.45       111.
      125.3       6.47       111.
      125.3       6.49       117.
      125.3       6.51       127.
      125.3       6.53       153.
      125.3       6.54       161.
      125.3       6.57       167.
      125.3       6.59       146.
      125.3       6.61        88.
      125.3       6.63        53.
      125.3       6.65        14.
      125.3       6.67         3.
      125.3       6.70        10.
      125.3       6.72        19.
      125.3       6.74        23.
      125.3       6.76        28.
      125.3       6.78        37.
      125.3       6.80        27.
      125.3       6.82        43.
      125.3       6.83        46.
      125.3       6.85        55.
      125.3       6.87        55.
      125.3       6.89        71.
      125.3       6.91        87.
      125.3       6.92        85.
      125.3       6.94        95.
      125.3       6.96        78.
      125.3       6.98       103.
      125.3       7.00        82.
      125.3       7.02        81.
      125.3       7.03        35.
      125.3       7.05        51.
      125.3       7.07         9.
      125.3       7.09        13.
      125.3       7.11        24.
      125.3       7.13        71.
      125.3       7.15        92.
      125.3       7.17       128.
      125.3       7.18       142.
      125.3       7.20       136.
      125.3       7.21       143.
      125.3       7.22       129.
      125.3       7.24       138.
      125.3       7.26       143.
      125.3       7.28        83.
      125.3       7.29        89.
      125.3       7.32       124.
      125.3       7.34       137.
      125.3       7.36       155.
      125.3       7.37       152.
      125.3       7.39       167.
      125.3       7.41       149.
      125.3       7.43       166.
      125.3       7.45       174.
      125.3       7.47       154.
      125.3       7.49       154.
      125.3       7.51       168.
      125.3       7.53       167.
      125.3       7.55       167.
      125.3       7.56       163.
      125.3       7.58       172.
      125.3       7.60       154.
      125.3       7.62       141.
      125.3       7.64        99.
      125.3       7.66        54.
      125.3       7.68        28.
      125.3       7.70        23.
      125.3       7.72        26.
      125.3       7.74        27.
      125.3       7.76        30.
      125.3       7.78        23.
      125.3       7.80        32.
      125.3       7.82        25.
      125.3       7.84         7.
      125.3       7.86        24.
      125.3       7.87        60.
      125.3       7.88        75.
      125.3       7.89        74.
      125.3       7.90        84.
      125.3       7.92        62.
      125.3       7.94        67.
      125.3       7.96        59.
      125.3       7.98        52.
      125.3       8.00        48.
      125.3       8.02        57.
      125.3       8.04        48.
      125.3       8.06        46.
      125.3       8.08        57.
      125.3       8.11        45.
      125.3       8.12        42.
      125.3       8.14        58.
      125.3       8.16        31.
      125.3       8.18        22.
      125.3       8.20        23.
      125.3       8.22        15.
      125.3       8.24        12.
      125.3       8.26         9.
      125.3       8.28         6.
      125.3       8.30         4.
      125.3       8.32         2.
      125.3       8.34         3.
      125.3       8.36         2.
      125.3       8.39         1.
      125.3       8.40         1.
      125.3       8.43         1.
      125.3       8.44         1.
      125.3       8.47         1.
      125.3       8.48         1.
      125.3       8.50         1.
      125.3       8.52         1.
      125.3       8.54         1.
      125.3       8.57         1.
      125.3       8.59         1.
      125.3       8.61         1.
      125.3       8.63         1.
      125.3       8.65         1.
      125.3       8.68         1.
      125.3       8.70         1.
      125.3       8.72         1.
      125.3       8.74         1.
      125.3       8.76         1.
      125.3       8.78         1.
      125.3       8.80         1.
      125.3       8.82         1.
      125.3       8.84         1.
      125.3       8.86         1.
      125.3       8.88         1.
      125.3       8.90         1.
      125.3       8.92         1.
      125.3       8.95         1.
      125.3       8.96         1.
      125.3       8.98         1.
      125.3       9.01         2.
      125.3       9.03         1.
      125.3       9.05         5.
      125.3       9.07        14.
      125.3       9.09        15.
      125.3       9.11        15.
      125.3       9.14        17.
      125.3       9.15        16.
      125.3       9.17        12.
      125.3       9.19        16.
      125.3       9.22        15.
      125.3       9.24        34.
      125.3       9.26        24.
      125.3       9.27        25.
      125.3       9.28        32.
      125.3       9.30        32.
      125.3       9.33        28.
      125.3       9.35        44.
      125.3       9.37        42.
      125.3       9.38        47.
      125.3       9.39        68.
      125.3       9.41        49.
      125.3       9.43        64.
      125.3       9.44        44.
      125.3       9.45        75.
      125.3       9.48        38.
      125.3       9.50        32.
      125.3       9.52        25.
      125.3       9.55        40.
      125.3       9.56        36.
      125.3       9.57        50.
      125.3       9.58        42.
      125.3       9.61        40.
      125.3       9.63        18.
      125.3       9.65         8.
      125.3       9.67        12.
      125.3       9.69        13.
      125.3       9.70        13.
      125.3       9.74        25.
      125.3       9.76        32.
      125.3       9.78        56.
      125.3       9.80        80.
      125.3       9.81        87.
      125.3       9.83       102.
      125.3       9.85       108.
      125.3       9.87        95.
      125.3       9.89        88.
      125.3       9.91        83.
      125.3       9.94        80.
      125.3       9.96        76.
      125.3       9.98        82.
      125.3       9.99        96.
      125.3      10.00       111.
      125.3      10.02       101.
      125.3      10.05       103.
      125.3      10.07       113.
      125.3      10.14        76.
      125.3      10.18       120.
      125.3      10.23       114.
      125.3      10.27       131.
      125.3      10.31       131.
      125.3      10.34       131.
      125.3      10.35       117.
      125.3      10.36       126.
      131.4       6.18        37.
      131.4       6.25        39.
      131.4       6.32        38.
      131.4       6.40        52.
      131.4       6.47        70.
      131.4       6.50        71.
      131.4       6.54        77.
      131.4       6.58        98.
      131.4       6.61        59.
      131.4       6.65        25.
      131.4       6.68        12.
      131.4       6.72        16.
      131.4       6.76        20.
      131.4       6.79        35.
      131.4       6.83        57.
      131.4       6.87        97.
      131.4       6.91       177.
      131.4       6.93       199.
      131.4       6.98       163.
      131.4       7.02       164.
      131.4       7.05       121.
      131.4       7.10        74.
      131.4       7.13        53.
      131.4       7.15       103.
      131.4       7.17       119.
      131.4       7.18       142.
      131.4       7.20       163.
      131.4       7.22       172.
      131.4       7.24       180.
      131.4       7.26       172.
      131.4       7.28       111.
      131.4       7.30       118.
      131.4       7.32       165.
      131.4       7.34       186.
      131.4       7.36       176.
      131.4       7.38       165.
      131.4       7.39       170.
      131.4       7.41       177.
      131.4       7.43       180.
      131.4       7.45       169.
      131.4       7.47       167.
      131.4       7.50       177.
      131.4       7.51       169.
      131.4       7.53       176.
      131.4       7.55       173.
      131.4       7.57       175.
      131.4       7.59       160.
      131.4       7.61       171.
      131.4       7.62       153.
      131.4       7.64       130.
      131.4       7.66        96.
      131.4       7.68        70.
      131.4       7.70        63.
      131.4       7.72        57.
      131.4       7.74        54.
      131.4       7.76        65.
      131.4       7.78        52.
      131.4       7.80        52.
      131.4       7.82        40.
      131.4       7.84        25.
      131.4       7.86        26.
      131.4       7.87        64.
      131.4       7.88        95.
      131.4       7.90        95.
      131.4       7.92       103.
      131.4       7.94        85.
      131.4       7.96        82.
      131.4       7.97        84.
      131.4       7.98        70.
      131.4       8.00        79.
      131.4       8.02        72.
      131.4       8.04        75.
      131.4       8.06        66.
      131.4       8.08        65.
      131.4       8.10        78.
      131.4       8.13        72.
      131.4       8.14        55.
      131.4       8.16        56.
      131.4       8.18        42.
      131.4       8.20        31.
      131.4       8.22        21.
      131.4       8.25        12.
      131.4       8.27        15.
      131.4       8.28        16.
      131.4       8.30        14.
      131.4       8.32        18.
      131.4       8.35        12.
      131.4       8.36        11.
      131.4       8.39         6.
      131.4       8.41         6.
      131.4       8.43         8.
      131.4       8.44         8.
      131.4       8.47         6.
      131.4       8.49         1.
      131.4       8.51         1.
      131.4       8.52        0.1
      131.4       8.54        0.1
      131.4       8.57         2.
      131.4       8.59         3.
      131.4       8.61        0.1
      131.4       8.63         4.
      131.4       8.65         1.
      131.4       8.68         1.
      131.4       8.69        0.1
      131.4       8.71        0.1
      131.4       8.73        0.1
      131.4       8.75        0.1
      131.4       8.77        0.1
      131.4       8.80        0.1
      131.4       8.81        0.1
      131.4       8.83        0.1
      131.4       8.86        0.1
      131.4       8.88        0.1
      131.4       8.90        0.1
      131.4       8.92        0.1
      131.4       8.95        0.1
      131.4       8.97        0.1
      131.4       8.99        0.1
      131.4       9.00         2.
      131.4       9.02         1.
      131.4       9.05        13.
      131.4       9.07        21.
      131.4       9.09        19.
      131.4       9.11        18.
      131.4       9.13        10.
      131.4       9.15        13.
      131.4       9.18        11.
      131.4       9.19        14.
      131.4       9.22        20.
      131.4       9.24        20.
      131.4       9.26        19.
      131.4       9.29        29.
      131.4        9.3        36.
      131.4       9.31        36.
      131.4       9.33        51.
      131.4       9.35        58.
      131.4       9.37        35.
      131.4       9.39        84.
      131.4       9.41        97.
      131.4       9.43        74.
      131.4       9.44        81.
      131.4       9.46        99.
      131.4       9.47        59.
      131.4       9.48        52.
      131.4       9.50        43.
      131.4       9.52        40.
      131.4       9.54        35.
      131.4       9.56        38.
      131.4       9.57        52.
      131.4       9.58        26.
      131.4       9.60         8.
      131.4       9.61         3.
      131.4       9.64         1.
      131.4       9.65         1.
      131.4       9.68         1.
      131.4       9.70         2.
      131.4       9.72         1.
      131.4       9.74         1.
      131.4       9.77         5.
      131.4       9.79         5.
      131.4       9.80         6.
      131.4       9.83         9.
      131.4       9.85        11.
      131.4       9.88        16.
      131.4       9.90        17.
      131.4       9.92        18.
      131.4       9.94        15.
      131.4       9.96        27.
      131.4       9.99        46.
      131.4      10.01        75.
      131.4      10.03        87.
      131.4      10.05        95.
      131.4      10.07       110.
      131.4      10.14        77.
      131.4      10.18       138.
      131.4      10.23       148.
      131.4      10.27       122.
      131.4      10.32       115.
      131.4      10.35       132.
      131.4      10.36       120.
      140.8       5.76        14.
      140.8       5.80        13.
      140.8       5.84        16.
      140.8       5.87        16.
      140.8       5.91        19.
      140.8       5.92        18.
      140.8       5.94        34.
      140.8       5.95        32.
      140.8       5.97        24.
      140.8       5.98        16.
      140.8       6.00         5.
      140.8       6.01         3.
      140.8       6.03         7.
      140.8       6.06        10.
      140.8       6.08        12.
      140.8       6.10        13.
      140.8       6.11        13.
      140.8       6.15        16.
      140.8       6.18        13.
      140.8       6.21        13.
      140.8       6.25        15.
      140.8       6.29        13.
      140.8       6.32        17.
      140.8       6.36        19.
      140.8       6.39        19.
      140.8       6.41        16.
      140.8       6.43        18.
      140.8       6.46        18.
      140.8       6.47        18.
      140.8       6.49        18.
      140.8       6.51        15.
      140.8       6.53        18.
      140.8       6.54        19.
      140.8       6.56        18.
      140.8       6.57        15.
      140.8       6.58        12.
      140.8       6.59        15.
      140.8       6.61        18.
      140.8       6.62        11.
      140.8       6.63        15.
      140.8       6.64        21.
      140.8       6.65        14.
      140.8       6.67        14.
      140.8       6.68        20.
      140.8       6.69        32.
      140.8       6.70        27.
      140.8       6.72        54.
      140.8       6.76        64.
      140.8       6.79        69.
      140.8       6.83       112.
      140.8       6.87       188.
      140.8       6.90       253.
      140.8       6.95       286.
      140.8       6.98       259.
      140.8       7.02       179.
      140.8       7.05       151.
      140.8       7.09       134.
      140.8       7.12       110.
      140.8       7.14       109.
      140.8       7.17       102.
      140.8       7.19       105.
      140.8       7.20        94.
      140.8       7.22       111.
      140.8       7.24        99.
      140.8       7.26       109.
      140.8       7.27        76.
      140.8       7.28        63.
      140.8       7.30        90.
      140.8       7.32       150.
      140.8       7.34        98.
      140.8       7.36       103.
      140.8       7.38       102.
      140.8       7.39       106.
      140.8       7.40        97.
      140.8       7.43       103.
      140.8       7.45        97.
      140.8       7.47        89.
      140.8       7.49        91.
      140.8       7.51       104.
      140.8       7.52        84.
      140.8       7.55       103.
      140.8       7.57        78.
      140.8       7.58        87.
      140.8       7.60        79.
      140.8       7.62        75.
      140.8       7.65       128.
      140.8       7.67       125.
      140.8       7.68        97.
      140.8       7.70        83.
      140.8       7.72        78.
      140.8       7.74        58.
      140.8       7.76        56.
      140.8       7.78        58.
      140.8       7.80        59.
      140.8       7.82        49.
      140.8       7.84        35.
      140.8       7.86        27.
      140.8       7.87        41.
      140.8       7.88        56.
      140.8       7.89        76.
      140.8       7.92        77.
      140.8       7.94        65.
      140.8       7.96        73.
      140.8       7.98        72.
      140.8       7.99        64.
      140.8       8.00        84.
      140.8       8.02        76.
      140.8       8.04        72.
      140.8       8.06        80.
      140.8       8.08        75.
      140.8       8.10        77.
      140.8       8.12        86.
      140.8       8.14        86.
      140.8       8.16        59.
      140.8       8.18        56.
      140.8       8.20        32.
      140.8       8.22        17.
      140.8       8.24         7.
      140.8       8.26        20.
      140.8       8.28        27.
      140.8       8.30        29.
      140.8       8.32        35.
      140.8       8.34        31.
      140.8       8.36        21.
      140.8       8.38        25.
      140.8       8.40        19.
      140.8       8.43        15.
      140.8       8.44        18.
      140.8       8.47        10.
      140.8       8.49        10.
      140.8       8.51        13.
      140.8       8.53        11.
      140.8       8.55         7.
      140.8       8.56         7.
      140.8       8.59         9.
      140.8       8.61         5.
      140.8       8.63         6.
      140.8       8.65         9.
      140.8       8.67         9.
      140.8       8.69         5.
      140.8       8.71         5.
      140.8       8.73         3.
      140.8       8.75         5.
      140.8       8.78         4.
      140.8       8.80         1.
      140.8       8.82         3.
      140.8       8.84         2.
      140.8       8.86         4.
      140.8       8.88         2.
      140.8       8.90         6.
      140.8       8.92         7.
      140.8       8.94        15.
      140.8       8.97         8.
      140.8       8.99        11.
      140.8       9.00        13.
      140.8       9.03        16.
      140.8       9.05        32.
      140.8       9.07        48.
      140.8       9.09        37.
      140.8       9.11        31.
      140.8       9.14        15.
      140.8       9.15        11.
      140.8       9.18        15.
      140.8       9.19        12.
      140.8       9.22        14.
      140.8       9.24        17.
      140.8       9.26        23.
      140.8       9.29        23.
      140.8       9.31        35.
      140.8       9.32        31.
      140.8       9.35        51.
      140.8       9.37        50.
      140.8       9.38        58.
      140.8       9.39        65.
      140.8       9.41        44.
      140.8       9.42        59.
      140.8       9.43        70.
      140.8       9.44        50.
      140.8       9.48        42.
      140.8       9.49        34.
      140.8       9.50        36.
      140.8       9.52        44.
      140.8       9.56        47.
      140.8       9.57        41.
      140.8       9.59        41.
      140.8       9.61        43.
      140.8       9.63        53.
      140.8       9.65        53.
      140.8       9.67        51.
      140.8       9.70        37.
      140.8       9.72        23.
      140.8       9.74        17.
      140.8       9.76        30.
      140.8       9.78        53.
      140.8       9.81        62.
      140.8       9.83        70.
      140.8       9.85        51.
      140.8       9.87        41.
      140.8       9.90        32.
      140.8       9.91        13.
      140.8       9.94        18.
      140.8       9.96        26.
      140.8       9.98        31.
      140.8      10.00        40.
      140.8      10.03        35.
      140.8      10.05        40.
      140.8      10.07        44.
      140.8      10.14        57.
      140.8      10.18       103.
      140.8      10.23       106.
      140.8      10.27        93.
      140.8      10.28        74.
      140.8      10.30        57.
      140.8      10.32        59.
      140.8      10.33        65.
      140.8      10.34        81.
      140.8      10.36        80.
      140.8      10.37        94.
      149.4       6.18         9.
      149.4       6.25        13.
      149.4       6.32        15.
      149.4       6.39        17.
      149.4       6.47        17.
      149.4       6.50        11.
      149.4       6.54        12.
      149.4       6.58        22.
      149.4       6.61        21.
      149.4       6.65        23.
      149.4       6.68        30.
      149.4       6.72        33.
      149.4       6.76        35.
      149.4       6.79        50.
      149.4       6.84        72.
      149.4       6.87        86.
      149.4       6.91       108.
      149.4       6.95       132.
      149.4       6.98        78.
      149.4       7.02        56.
      149.4       7.06        59.
      149.4       7.10        34.
      149.4       7.13        44.
      149.4       7.15        21.
      149.4       7.17        19.
      149.4       7.19        10.
      149.4       7.20         8.
      149.4       7.22         5.
      149.4       7.24         3.
      149.4       7.27         5.
      149.4       7.28        11.
      149.4       7.30        17.
      149.4       7.32        45.
      149.4       7.34        28.
      149.4       7.36        15.
      149.4       7.38         4.
      149.4       7.40         1.
      149.4       7.41         1.
      149.4       7.44         1.
      149.4       7.45         1.
      149.4       7.47         1.
      149.4       7.50         1.
      149.4       7.52         1.
      149.4       7.53         1.
      149.4       7.55         1.
      149.4       7.57         1.
      149.4       7.59         7.
      149.4       7.61        14.
      149.4       7.63        31.
      149.4       7.65        85.
      149.4       7.67        75.
      149.4       7.69        48.
      149.4       7.70        33.
      149.4       7.73        19.
      149.4       7.74        13.
      149.4       7.76        12.
      149.4       7.78        16.
      149.4       7.80         9.
      149.4       7.82        14.
      149.4       7.84        11.
      149.4       7.87         8.
      149.4       7.88         6.
      149.4       7.90        10.
      149.4       7.91        12.
      149.4       7.92        12.
      149.4       7.94        15.
      149.4       7.96        17.
      149.4       7.99        16.
      149.4       8.00        13.
      149.4       8.02        22.
      149.4       8.05        25.
      149.4       8.06        30.
      149.4       8.09        36.
      149.4       8.10        39.
      149.4       8.13        45.
      149.4       8.15        54.
      149.4       8.16        38.
      149.4       8.19        40.
      149.4       8.20        31.
      149.4       8.23        17.
      149.4       8.24         5.
      149.4       8.26         7.
      149.4       8.28        17.
      149.4       8.31        23.
      149.4       8.32        21.
      149.4       8.34        25.
      149.4       8.37        26.
      149.4       8.39        25.
      149.4       8.40        28.
      149.4       8.43        23.
      149.4       8.45        23.
      149.4       8.47        23.
      149.4       8.49        20.
      149.4       8.51        16.
      149.4       8.53        14.
      149.4       8.55        17.
      149.4       8.57        17.
      149.4       8.59        18.
      149.4       8.61        15.
      149.4       8.64        17.
      149.4       8.65        17.
      149.4       8.67        16.
      149.4       8.69        15.
      149.4       8.72        12.
      149.4       8.74        14.
      149.4       8.76        19.
      149.4       8.78        13.
      149.4       8.80        10.
      149.4       8.82        10.
      149.4       8.84        12.
      149.4       8.86        18.
      149.4       8.88        15.
      149.4       8.90        19.
      149.4       8.92        18.
      149.4       8.95        17.
      149.4       8.97        10.
      149.4       8.99        13.
      149.4       9.00        17.
      149.4       9.03        22.
      149.4       9.05        57.
      149.4       9.07        69.
      149.4       9.10        46.
      149.4       9.11        33.
      149.4       9.14        21.
      149.4       9.16        22.
      149.4       9.18        22.
      149.4       9.20        18.
      149.4       9.22        18.
      149.4       9.25        18.
      149.4       9.26        15.
      149.4       9.29        14.
      149.4       9.31        14.
      149.4       9.33        15.
      149.4       9.39        12.
      149.4       9.41        16.
      149.4       9.44        24.
      149.4       9.45        17.
      149.4       9.48        24.
      149.4       9.49        18.
      149.4       9.50        23.
      149.4       9.53        33.
      149.4       9.54        37.
      149.4       9.56        53.
      149.4       9.57        39.
      149.4       9.59        57.
      149.4       9.61        91.
      149.4       9.64        83.
      149.4       9.65        73.
      149.4       9.70        52.
      149.4       9.73        24.
      149.4       9.74        19.
      149.4       9.76        24.
      149.4       9.79        53.
      149.4       9.83        83.
      149.4       9.85       110.
      149.4       9.90        48.
      149.4       9.92        33.
      149.4       9.94        33.
      149.4       9.95        27.
      149.4       9.96        23.
      149.4       9.98        22.
      149.4      10.01        22.
      149.4      10.02        28.
      149.4      10.03        28.
      149.4      10.05        30.
      149.4      10.08        30.
      149.4      10.09        23.
      149.4      10.10        18.
      149.4      10.12        18.
      149.4      10.14        38.
      149.4      10.15        46.
      149.4      10.19        24.
      149.4      10.21        17.
      149.4      10.23        17.
      149.4      10.26        11.
      149.4      10.27         7.
      149.4      10.30         9.
      149.4      10.32        13.
      149.4      10.35        11.
      149.4      10.37        17.
      154.0       5.77        29.
      154.0       5.80        29.
      154.0       5.84        26.
      154.0       5.87        29.
      154.0       5.88        31.
      154.0       5.89        34.
      154.0       5.90        37.
      154.0       5.94        41.
      154.0       5.95        28.
      154.0       5.97        16.
      154.0       5.99        20.
      154.0       6.01        22.
      154.0       6.04        29.
      154.0       6.08        26.
      154.0       6.11        15.
      154.0       6.12        27.
      154.0       6.15        25.
      154.0       6.18        29.
      154.0       6.22        27.
      154.0       6.25        33.
      154.0       6.29        25.
      154.0       6.32        26.
      154.0       6.36        37.
      154.0       6.40        35.
      154.0       6.43        51.
      154.0       6.47        39.
      154.0       6.50        43.
      154.0       6.54        50.
      154.0       6.57        68.
      154.0       6.61        70.
      154.0       6.65        42.
      154.0       6.68        24.
      154.0       6.73        19.
      154.0       6.75        19.
      154.0       6.80        26.
      154.0       6.84        23.
      154.0       6.87        35.
      154.0       6.90        36.
      154.0       6.95        33.
      154.0       6.98        32.
      154.0       7.00        36.
      154.0       7.02        36.
      154.0       7.03        41.
      154.0       7.05        44.
      154.0       7.07        43.
      154.0       7.09        37.
      154.0       7.11        19.
      154.0       7.13        10.
      154.0       7.14         2.
      154.0       7.16         1.
      154.0       7.18         2.
      154.0       7.20         8.
      154.0       7.22         8.
      154.0       7.24        10.
      154.0       7.26        25.
      154.0       7.28        29.
      154.0       7.29        22.
      154.0       7.30        13.
      154.0       7.32        11.
      154.0       7.34        18.
      154.0       7.36        28.
      154.0       7.38        31.
      154.0       7.40        31.
      154.0       7.43        40.
      154.0       7.45        34.
      154.0       7.47        34.
      154.0       7.49        36.
      154.0       7.50        39.
      154.0       7.51        43.
      154.0       7.52        42.
      154.0       7.53        44.
      154.0       7.54        45.
      154.0       7.56        50.
      154.0       7.57        54.
      154.0       7.59        62.
      154.0       7.61        77.
      154.0       7.63       104.
      154.0       7.65        69.
      154.0       7.67        64.
      154.0       7.68        25.
      154.0       7.70        11.
      154.0       7.73         2.
      154.0       7.74         1.
      154.0       7.76        0.5
      154.0       7.78         1.
      154.0       7.80         1.
      154.0       7.82         1.
      154.0       7.84         3.
      154.0       7.86        11.
      154.0       7.87        26.
      154.0       7.89        29.
      154.0       7.90        20.
      154.0       7.93        11.
      154.0       7.95        13.
      154.0       7.96        10.
      154.0       7.98        10.
      154.0       8.00        13.
      154.0       8.02        11.
      154.0       8.04        20.
      154.0       8.06        24.
      154.0       8.08        28.
      154.0       8.10        32.
      154.0       8.13        43.
      154.0       8.14        51.
      154.0       8.16        58.
      154.0       8.18        55.
      154.0       8.20        67.
      154.0       8.22        39.
      154.0       8.24        16.
      154.0       8.26         8.
      154.0       8.28        12.
      154.0       8.31        24.
      154.0       8.32        31.
      154.0       8.35        31.
      154.0       8.36        27.
      154.0       8.39        30.
      154.0       8.40        30.
      154.0       8.43        30.
      154.0       8.45        31.
      154.0       8.47        35.
      154.0       8.48        31.
      154.0       8.51        34.
      154.0       8.53        32.
      154.0       8.55        13.
      154.0       8.57        27.
      154.0       8.59        31.
      154.0       8.61        24.
      154.0       8.63        22.
      154.0       8.65        29.
      154.0       8.67        27.
      154.0       8.69        26.
      154.0       8.71        20.
      154.0       8.74        32.
      154.0       8.76        26.
      154.0       8.78        28.
      154.0       8.80        31.
      154.0       8.81        26.
      154.0       8.82        33.
      154.0       8.84        34.
      154.0       8.86        28.
      154.0       8.88        24.
      154.0       8.90        28.
      154.0       8.92        18.
      154.0       8.94        14.
      154.0       8.97        14.
      154.0       8.98        18.
      154.0       9.00        11.
      154.0       9.03        19.
      154.0       9.05        59.
      154.0       9.07        76.
      154.0       9.09        56.
      154.0       9.11        39.
      154.0       9.13        35.
      154.0       9.15        30.
      154.0       9.18        28.
      154.0       9.20        26.
      154.0       9.22        26.
      154.0       9.24        26.
      154.0       9.27        28.
      154.0       9.29        27.
      154.0       9.31        24.
      154.0       9.33        32.
      154.0       9.35        31.
      154.0       9.37        38.
      154.0       9.38        47.
      154.0       9.39        59.
      154.0       9.41        52.
      154.0       9.44        68.
      154.0       9.48        60.
      154.0       9.49        73.
      154.0       9.50        69.
      154.0       9.51        79.
      154.0       9.52        69.
      154.0       9.55        85.
      154.0       9.56        88.
      154.0       9.57       103.
      154.0       9.59       132.
      154.0       9.61       118.
      154.0       9.63        96.
      154.0       9.65        72.
      154.0       9.68        47.
      154.0       9.69        28.
      154.0       9.72        35.
      154.0       9.74        10.
      154.0       9.76        10.
      154.0       9.79        11.
      154.0       9.81        27.
      154.0       9.83        27.
      154.0       9.86        29.
      154.0       9.88        23.
      154.0       9.90        14.
      154.0       9.92        10.
      154.0       9.94        11.
      154.0       9.96        22.
      154.0       9.99        45.
      154.0      10.01        57.
      154.0      10.03        81.
      154.0      10.05        81.
      154.0      10.08        77.
      154.0      10.15        73.
      154.0      10.19        22.
      154.0      10.23         7.
      154.0      10.32        33.
      154.0      10.35        17.
      154.0      10.37         9.
      158.8       5.76        47.
      158.8       5.77        58.
      158.8       5.81        45.
      158.8       5.84        47.
      158.8       5.88        47.
      158.8       5.91        51.
      158.8       5.92        41.
      158.8       5.94        48.
      158.8       5.95        41.
      158.8       5.97        38.
      158.8       5.99        59.
      158.8       6.01        50.
      158.8       6.03        62.
      158.8       6.04        54.
      158.8       6.05        44.
      158.8       6.06        57.
      158.8       6.08        55.
      158.8       6.10        59.
      158.8       6.11        64.
      158.8       6.15        49.
      158.8       6.18        67.
      158.8       6.22        51.
      158.8       6.25        64.
      158.8       6.29        70.
      158.8       6.32        81.
      158.8       6.36        68.
      158.8       6.39        74.
      158.8       6.41        69.
      158.8       6.45       104.
      158.8       6.46       100.
      158.8       6.47       115.
      158.8       6.50       113.
      158.8       6.53       132.
      158.8       6.54       150.
      158.8       6.55       190.
      158.8       6.57       187.
      158.8       6.59       181.
      158.8       6.61       158.
      158.8       6.64       160.
      158.8       6.65        89.
      158.8       6.67        54.
      158.8       6.68        30.
      158.8       6.70        16.
      158.8       6.72        13.
      158.8       6.73        13.
      158.8       6.76        16.
      158.8       6.78        15.
      158.8       6.79        17.
      158.8       6.81        21.
      158.8       6.83        17.
      158.8       6.84        22.
      158.8       6.87        26.
      158.8       6.88        30.
      158.8       6.90        41.
      158.8       6.92        63.
      158.8       6.94        73.
      158.8       6.96        86.
      158.8       6.98       100.
      158.8       6.99        99.
      158.8       7.02       114.
      158.8       7.03        83.
      158.8       7.05        89.
      158.8       7.07        63.
      158.8       7.09        43.
      158.8       7.11        15.
      158.8       7.13         3.
      158.8       7.15        12.
      158.8       7.17        31.
      158.8       7.19        34.
      158.8       7.20        87.
      158.8       7.21        80.
      158.8       7.22        70.
      158.8       7.24        69.
      158.8       7.27        91.
      158.8       7.28        59.
      158.8       7.29         5.
      158.8       7.32        17.
      158.8       7.34        65.
      158.8       7.36        92.
      158.8       7.38       126.
      158.8       7.39       124.
      158.8       7.40       151.
      158.8       7.41       146.
      158.8       7.42       125.
      158.8       7.43       168.
      158.8       7.44       146.
      158.8       7.45       105.
      158.8       7.46       148.
      158.8       7.47       155.
      158.8       7.48       148.
      158.8       7.49       163.
      158.8       7.50       142.
      158.8       7.51       138.
      158.8       7.52       177.
      158.8       7.53       156.
      158.8       7.57       210.
      158.8       7.58       208.
      158.8       7.59       192.
      158.8        7.6       180.
      158.8       7.61       268.
      158.8       7.63       212.
      158.8       7.65       178.
      158.8       7.67        21.
      158.8       7.69         5.
      158.8       7.70         2.
      158.8       7.72         5.
      158.8       7.74         4.
      158.8       7.76         9.
      158.8       7.78         4.
      158.8       7.80         8.
      158.8       7.82         3.
      158.8       7.84        56.
      158.8       7.86        50.
      158.8       7.88        86.
      158.8       7.89        73.
      158.8       7.90        41.
      158.8       7.92        38.
      158.8       7.94        41.
      158.8       7.96        27.
      158.8       7.98        26.
      158.8       8.00        28.
      158.8       8.02        17.
      158.8       8.04        35.
      158.8       8.07        51.
      158.8       8.08        52.
      158.8       8.09        55.
      158.8       8.12        81.
      158.8       8.14        89.
      158.8       8.16       110.
      158.8       8.18       124.
      158.8       8.20       108.
      158.8       8.22        69.
      158.8       8.24        27.
      158.8       8.26         6.
      158.8       8.28        17.
      158.8       8.30        45.
      158.8       8.32        47.
      158.8       8.34        53.
      158.8       8.36        62.
      158.8       8.37        49.
      158.8       8.38        42.
      158.8       8.43        43.
      158.8       8.47        42.
      158.8       8.51        54.
      158.8       8.55        60.
      158.8       8.60        61.
      158.8       8.63        41.
      158.8       8.68        62.
      158.8       8.72        62.
      158.8       8.75        49.
      158.8       8.80        31.
      158.8       8.83        42.
      158.8       8.88        29.
      158.8       8.90        32.
      158.8       8.92        20.
      158.8       8.94        17.
      158.8       8.96        16.
      158.8       8.99        20.
      158.8       9.01        21.
      158.8       9.02        31.
      158.8       9.04        60.
      158.8       9.05        93.
      158.8       9.06       100.
      158.8       9.07       103.
      158.8       9.08        89.
      158.8       9.09        74.
      158.8       9.14        55.
      158.8       9.16        48.
      158.8       9.18        40.
      158.8       9.20        34.
      158.8       9.22        45.
      158.8       9.24        40.
      158.8       9.26        36.
      158.8       9.29        69.
      158.8       9.30        67.
      158.8       9.32        82.
      158.8       9.35        94.
      158.8       9.37       121.
      158.8       9.39       142.
      158.8       9.42       170.
      158.8       9.44       206.
      158.8       9.46       207.
      158.8       9.48       175.
      158.8       9.50       185.
      158.8       9.52       170.
      158.8       9.55       176.
      158.8       9.56       203.
      158.8       9.57       182.
      158.8       9.59       282.
      158.8       9.61       200.
      158.8       9.63       112.
      158.8       9.64        76.
      158.8       9.65        63.
      158.8       9.68        35.
      158.8       9.70        20.
      158.8       9.72        13.
      158.8       9.74        13.
      158.8       9.79         6.
      158.8       9.80         7.
      158.8       9.83         9.
      158.8       9.85         8.
      158.8       9.87         6.
      158.8       9.89         2.
      158.8       9.92        10.
      158.8       9.94        23.
      158.8       9.96        59.
      158.8       9.98       118.
      158.8      10.00       186.
      158.8      10.01       197.
      158.8      10.03       205.
      158.8      10.05       240.
      158.8      10.07       211.
      158.8      10.09       173.
      158.8      10.10       157.
      158.8      10.12       114.
      158.8      10.14       210.
      158.8      10.16       141.
      158.8      10.19        78.
      158.8      10.20        42.
      158.8      10.23        30.
      158.8      10.25        30.
      158.8      10.28        83.
      158.8      10.30       135.
      158.8      10.32       127.
      158.8      10.34        71.
      158.8      10.36        45.
      158.8      10.39        18.
      163.8       6.18        90.
      163.8       6.25        93.
      163.8       6.32        89.
      163.8       6.39       109.
      163.8       6.47       142.
      163.8       6.50       176.
      163.8       6.53       239.
      163.8       6.57       293.
      163.8       6.61       330.
      163.8       6.65       199.
      163.8       6.68        68.
      163.8       6.72        15.
      163.8       6.76         4.
      163.8       6.79         6.
      163.8       6.83        16.
      163.8       6.86        46.
      163.8       6.90       129.
      163.8       6.94       252.
      163.8       6.98       317.
      163.8       7.02       273.
      163.8       7.05       231.
      163.8       7.09       115.
      163.8       7.13        43.
      163.8       7.14        84.
      163.8       7.17       157.
      163.8       7.18       185.
      163.8       7.20       211.
      163.8       7.22       240.
      163.8       7.24       267.
      163.8       7.25       318.
      163.8       7.26       258.
      163.8       7.27       244.
      163.8       7.29       123.
      163.8       7.31        70.
      163.8       7.34       172.
      163.8       7.36       270.
      163.8       7.38       349.
      163.8       7.40       360.
      163.8       7.41       405.
      163.8       7.43       403.
      163.8       7.46       400.
      163.8       7.47       449.
      163.8       7.49       420.
      163.8       7.52       445.
      163.8       7.53       458.
      163.8       7.55       447.
      163.8       7.59       497.
      163.8       7.61       543.
      163.8       7.63       557.
      163.8       7.65       408.
      163.8       7.67       161.
      163.8       7.68        61.
      163.8       7.70        19.
      163.8       7.72        15.
      163.8       7.74        45.
      163.8       7.76        56.
      163.8       7.78        52.
      163.8       7.80        38.
      163.8       7.82        39.
      163.8       7.84        13.
      163.8       7.86        87.
      163.8       7.88       173.
      163.8       7.89       195.
      163.8       7.90       192.
      163.8       7.93       176.
      163.8       7.94        97.
      163.8       7.96       113.
      163.8       7.98       101.
      163.8       8.00        99.
      163.8       8.02        82.
      163.8       8.03        81.
      163.8       8.06        93.
      163.8       8.08        94.
      163.8       8.10       113.
      163.8       8.13       129.
      163.8       8.15       156.
      163.8       8.16       179.
      163.8       8.19       188.
      163.8       8.20       177.
      163.8       8.22       153.
      163.8       8.24        84.
      163.8       8.26        27.
      163.8       8.28        28.
      163.8       8.30        54.
      163.8       8.32        85.
      163.8       8.34        85.
      163.8       8.36        92.
      163.8       8.38       100.
      163.8       8.40        87.
      163.8       8.43       103.
      163.8       8.45        86.
      163.8       8.47        95.
      163.8       8.49        99.
      163.8       8.51       104.
      163.8       8.53       106.
      163.8       8.55        88.
      163.8       8.57       100.
      163.8       8.60       103.
      163.8       8.61        98.
      163.8       8.64        86.
      163.8       8.65        91.
      163.8       8.67       106.
      163.8       8.69        69.
      163.8       8.71        99.
      163.8       8.74        86.
      163.8       8.75        79.
      163.8       8.78        91.
      163.8       8.80        80.
      163.8       8.81        74.
      163.8       8.82        85.
      163.8       8.84        78.
      163.8       8.86        78.
      163.8       8.88        65.
      163.8       8.90        49.
      163.8       8.92        20.
      163.8       8.95        16.
      163.8       8.96        22.
      163.8       8.99        33.
      163.8       9.01        40.
      163.8       9.03        47.
      163.8       9.05        94.
      163.8       9.08       146.
      163.8       9.10       142.
      163.8       9.11       116.
      163.8       9.12        62.
      163.8       9.14       101.
      163.8       9.16        79.
      163.8       9.18        85.
      163.8       9.19        80.
      163.8       9.22        79.
      163.8       9.24        90.
      163.8       9.27       109.
      163.8       9.28       125.
      163.8       9.29       109.
      163.8       9.31       128.
      163.8       9.33       164.
      163.8       9.35       223.
      163.8       9.38       231.
      163.8       9.39       315.
      163.8       9.40       394.
      163.8       9.42       332.
      163.8       9.44       405.
      163.8       9.45       413.
      163.8       9.46       451.
      163.8       9.49       412.
      163.8       9.50       406.
      163.8       9.51       362.
      163.8       9.53       348.
      163.8       9.56       336.
      163.8       9.58       375.
      163.8       9.59       343.
      163.8       9.60       372.
      163.8       9.61       185.
      163.8       9.63       103.
      163.8       9.65        44.
      163.8       9.68        31.
      163.8       9.70        41.
      163.8       9.72        49.
      163.8       9.74        69.
      163.8       9.76        79.
      163.8       9.79        95.
      163.8       9.81       113.
      163.8       9.82        96.
      163.8       9.83        90.
      163.8       9.85        79.
      163.8       9.88        61.
      163.8       9.90        51.
      163.8       9.92        55.
      163.8       9.94        49.
      163.8       9.97       155.
      163.8       9.98       163.
      163.8       9.99       271.
      163.8      10.02       391.
      163.8      10.04       436.
      163.8      10.05       445.
      163.8      10.06       451.
      163.8      10.07       442.
      163.8      10.08       353.
      163.8      10.09       430.
      163.8      10.10       322.
      163.8      10.12       247.
      163.8      10.15       330.
      163.8      10.16       234.
      163.8      10.18       150.
      163.8      10.19       122.
      163.8      10.21       108.
      163.8      10.23       102.
      163.8      10.25        95.
      163.8      10.27       165.
      163.8      10.28       178.
      163.8      10.30       271.
      163.8      10.31       243.
      163.8      10.32       229.
      163.8      10.34       158.
      163.8      10.35       149.
      163.8      10.36        98.
      163.8      10.39        47.
ENDDATA           2034
ENDSUBENT         2049
SUBENT        T0242003   20120320   20120530   20120515       T022
BIB                  4          5
REACTION   (8-O-16(A,EL)8-O-16,,DA)
ERR-ANALYS (ANG-ERR-D) Digitizing error in angle 1 degree.
           (ERR-DIG) Digitizing error in data 1%.
STATUS     (CURVE) Data scanned from Fig.4-6 in reference at NPDC.
HISTORY    (20120320A) SD. Duplication in angle values corrected.
ENDBIB               5
COMMON               2          3
ANG-ERR-D  ERR-DIG
ADEG       PER-CENT
  1.0        1.0
ENDCOMMON            3
DATA                 3        137
EN         ANG-CM     DATA-CM
MEV        ADEG       MB/SR
       6.97        51.  0.143E+03
       6.97        59.  0.251E+02
       6.97        66.  0.114E+02
       6.97        69.  0.370E+02
       6.97        72.  0.652E+02
       6.97        78.  0.757E+02
       6.97        85.  0.470E+02
       6.97        90.  0.206E+02
       6.97        92.  0.165E+02
       6.97        95.  0.245E+02
       6.97        97.  0.297E+02
       6.97       104.  0.428E+02
       6.97       110.  0.427E+02
       6.97       115.  0.183E+02
       6.97       119.  0.263E+02
       6.97       122.  0.335E+02
       6.97       127.  0.109E+03
       6.97       133.  0.225E+03
       6.97       139.  0.243E+03
       6.97       144.  0.238E+03
       6.97       149.  0.148E+03
       6.97       153.  0.568E+02
       6.97       155.  0.390E+02
       6.97       157.  0.723E+02
       6.97       163.  0.226E+03
       6.97       167.  0.520E+03
       6.97       172.  0.841E+03
       8.63        37.  0.409E+03
       8.63        41.  0.376E+03
       8.63        44.  0.379E+03
       8.63        48.  0.337E+03
       8.63        52.  0.294E+03
       8.63        54.  0.257E+03
       8.63        55.  0.289E+03
       8.63        59.  0.195E+03
       8.63        63.  0.134E+03
       8.63        67.  0.103E+03
       8.63        69.  0.568E+02
       8.63        72.  0.286E+02
       8.63        76.  0.163E+02
       8.63        79.  0.177E+02
       8.63        82.  0.281E+02
       8.63        86.  0.300E+02
       8.63        89.  0.332E+02
       8.63        93.  0.376E+02
       8.63        95.  0.430E+02
       8.63        99.  0.444E+02
       8.63       102.  0.419E+02
       8.63       103.  0.218E+02
       8.63       104.  0.320E+02
       8.63       107.  0.221E+02
       8.63       108.  0.186E+02
       8.63       110.  0.926E+01
       8.63       113.  0.720E+01
       8.63       115.  0.407E+01
       8.63       119.  0.205E+01
       8.63       128.  0.204E+01
       8.63       130.  0.308E+01
       8.63       133.  0.409E+01
       8.63       135.  0.730E+01
       8.63       137.  0.730E+01
       8.63       140.  0.126E+02
       8.63       143.  0.113E+02
       8.63       145.  0.144E+02
       8.63       148.  0.188E+02
       8.63       150.  0.218E+02
       8.63       152.  0.340E+02
       8.63       155.  0.423E+02
       8.63       157.  0.480E+02
       8.63       160.  0.632E+02
       8.63       161.  0.921E+02
       8.63       164.  0.101E+03
       8.63       166.  0.163E+03
       8.63       168.  0.185E+03
       8.63       171.  0.229E+03
       8.63       173.  0.271E+03
       9.92        39.  0.681E+03
       9.92        44.  0.576E+03
       9.92        48.  0.433E+03
       9.92        51.  0.306E+03
       9.92        55.  0.219E+03
       9.92        58.  0.147E+03
       9.92        60.  0.202E+01
       9.92        64.  0.694E+01
       9.92        68.  0.338E+02
       9.92        71.  0.549E+02
       9.92        74.  0.952E+02
       9.92        78.  0.151E+03
       9.92        80.  0.206E+03
       9.92        81.  0.221E+03
       9.92        82.  0.244E+03
       9.92        85.  0.229E+03
       9.92        87.  0.207E+03
       9.92        88.  0.221E+03
       9.92        91.  0.145E+03
       9.92        94.  0.904E+02
       9.92        98.  0.476E+02
       9.92        99.  0.134E+02
       9.92       100.  0.104E+02
       9.92       101.  0.307E+01
       9.92       103.  0.710E+01
       9.92       106.  0.182E+02
       9.92       108.  0.486E+02
       9.92       109.  0.355E+02
       9.92       111.  0.637E+02
       9.92       114.  0.879E+02
       9.92       115.  0.113E+03
       9.92       117.  0.991E+02
       9.92       118.  0.115E+03
       9.92       119.  0.101E+03
       9.92       123.  0.968E+02
       9.92       124.  0.619E+02
       9.92       127.  0.409E+02
       9.92       131.  0.156E+02
       9.92       134.  0.407E+01
       9.92       136.  0.207E+01
       9.92       138.  0.617E+01
       9.92       140.  0.132E+02
       9.92       142.  0.207E+02
       9.92       145.  0.330E+02
       9.92       146.  0.209E+02
       9.92       147.  0.460E+02
       9.92       148.  0.320E+02
       9.92       150.  0.246E+02
       9.92       151.  0.354E+02
       9.92       152.  0.185E+02
       9.92       154.  0.138E+02
       9.92       158.  0.815E+01
       9.92       161.  0.611E+01
       9.92       163.  0.300E+02
       9.92       165.  0.911E+02
       9.92       167.  0.148E+03
       9.92       169.  0.172E+03
       9.92       170.  0.237E+03
       9.92       171.  0.342E+03
       9.92       172.  0.483E+03
       9.92       174.  0.583E+03
ENDDATA            139
ENDSUBENT          153
SUBENT        T0242004   20120320   20120530   20120515       T022
BIB                  3         10
REACTION  1(8-O-16(A,0),,EN)
          2(8-O-16(A,0),,PTY)
          3(8-O-16(A,0),,J)
          4(8-O-16(A,EL),,WID)
FLAG       (1.) Resonance assignment uncertain.
           (2.) Spin and parity assignment uncertain.
           (3.) Resonance assignment uncertain. Spin either
                2 or 6.
           (4.) Spin parity either 0+, 1-, or 3-.
STATUS     (TABLE) Data taken from Table 1 of PR,160,782,1967.
ENDBIB              10
COMMON               1          3
DATA-ERR
MEV
  0.03
ENDCOMMON            3
DATA                 6         16
DATA      1DATA      2DATA      3DATA      4DATA-MAX  4FLAG
MEV        NO-DIM     NO-DIM     MEV        MEV        NO-DIM
  5.95       1.         2.                   0.05
  6.58       1.         4.        0.15
  6.97      -1.         5.        0.15
  7.20      -1.         3.                               2.
  7.27       1.         0.                   0.05        2.
  7.5        1.         4.        1.00
  7.63       1.         0.                   0.05        2.
  7.75                            0.10                   1.
  7.87       1.         4.
  8.20       1.         2.        0.15                   2.
  8.6        1.         2.        0.60                   2.
  8.95       1.                                          3.
  9.07      -1.         1.                               2.
  9.42       1.         4.                               2.
  9.58                            0.1                    4.
  9.82       1.         6.        0.13
ENDDATA             18
ENDSUBENT           37
ENDENTRY             4
