ENTRY            T0243   20030806   20030924
SUBENT        T0243001   20030806   20030924
BIB                  8          9
INSTITUTE  (1USAWIS)
REFERENCE  (J,PR,90,839,195306)
AUTHOR     (J.R.Cameron)
TITLE      Elastic scattering of alpha-particles by oxygen
FACILITY   (VDG,1USAWIS)
SAMPLE     16O gas target; only important impurities 0.28% H2O and
            0.60% H2.
DETECTOR   (PROPC)
HISTORY    (20030604C)
ENDBIB               9
NOCOMMON             0          0
ENDSUBENT           12
SUBENT        T0243002   20030806   20030924
BIB                  4         10
REACTION   (8-O-16(A,EL)8-O-16,,DA)
CORRECTION Data calculated using assumption that alpha particle
            beam is doubly ionized. Below 2 MeV, this is not
            correct. Since beam composition was not accurately
            known, this correction has not been applied
ERR-ANALYS Digitizing error in energy 0.005 MeV.
           Digitizing error in data 0.005 b/sr.
           No information on experimental uncertainties.
STATUS     (CURVE) Data scanned from Fig.2 in reference by NPDC.
            Data below 2 MeV not included.
ENDBIB              10
NOCOMMON             0          0
DATA                 3        662
ANG-CM     EN         DATA-CM
ADEG       MEV        B/SR
  90.0        2.403      0.379
  90.0        2.412      0.384
  90.0        2.417      0.376
  90.0        2.426      0.379
  90.0        2.436      0.381
  90.0        2.444      0.380
  90.0        2.455      0.377
  90.0        2.463      0.370
  90.0        2.471      0.367
  90.0        2.473      0.350
  90.0        2.475      0.338
  90.0        2.475      0.329
  90.0        2.481      0.303
  90.0        2.481      0.283
  90.0        2.484      0.246
  90.0        2.487      0.217
  90.0        2.490      0.192
  90.0        2.497      0.190
  90.0        2.501      0.201
  90.0        2.504      0.217
  90.0        2.505      0.232
  90.0        2.510      0.241
  90.0        2.514      0.247
  90.0        2.519      0.255
  90.0        2.524      0.261
  90.0        2.529      0.272
  90.0        2.535      0.270
  90.0        2.541      0.279
  90.0        2.552      0.289
  90.0        2.562      0.292
  90.0        2.571      0.296
  90.0        2.576      0.288
  90.0        2.580      0.284
  90.0        2.585      0.295
  90.0        2.594      0.293
  90.0        2.603      0.291
  90.0        2.611      0.290
  90.0        2.618      0.289
  90.0        2.627      0.289
  90.0        2.636      0.295
  90.0        2.646      0.286
  90.0        2.654      0.290
  90.0        2.663      0.279
  90.0        2.671      0.293
  90.0        2.679      0.282
  90.0        2.691      0.277
  90.0        2.701      0.277
  90.0        2.708      0.276
  90.0        2.718      0.270
  90.0        2.724      0.272
  90.0        2.736      0.278
  90.0        2.742      0.264
  90.0        2.753      0.264
  90.0        2.763      0.268
  90.0        2.769      0.258
  90.0        2.780      0.262
  90.0        2.787      0.254
  90.0        2.794      0.261
  90.0        2.805      0.255
  90.0        2.814      0.254
  90.0        2.825      0.253
  90.0        2.834      0.254
  90.0        2.843      0.252
  90.0        2.850      0.257
  90.0        2.855      0.247
  90.0        2.864      0.244
  90.0        2.874      0.243
  90.0        2.884      0.237
  90.0        2.894      0.244
  90.0        2.900      0.238
  90.0        2.903      0.240
  90.0        2.906      0.242
  90.0        2.915      0.230
  90.0        2.928      0.223
  90.0        2.937      0.228
  90.0        2.947      0.225
  90.0        2.955      0.216
  90.0        2.965      0.221
  90.0        2.974      0.231
  90.0        2.975      0.215
  90.0        2.981      0.219
  90.0        2.990      0.220
  90.0        2.999      0.224
  90.0        3.006      0.227
  90.0        3.014      0.217
  90.0        3.023      0.226
  90.0        3.031      0.215
  90.0        3.040      0.206
  90.0        3.049      0.209
  90.0        3.058      0.205
  90.0        3.066      0.217
  90.0        3.076      0.206
  90.0        3.085      0.198
  90.0        3.087      0.214
  90.0        3.088      0.186
  90.0        3.092      0.171
  90.0        3.096      0.173
  90.0        3.099      0.176
  90.0        3.102      0.185
  90.0        3.102      0.196
  90.0        3.107      0.201
  90.0        3.111      0.196
  90.0        3.119      0.194
  90.0        3.126      0.194
  90.0        3.135      0.205
  90.0        3.144      0.195
  90.0        3.155      0.200
  90.0        3.163      0.193
  90.0        3.171      0.195
  90.0        3.181      0.192
  90.0        3.189      0.194
  90.0        3.198      0.195
  90.0        3.207      0.191
  90.0        3.215      0.180
  90.0        3.225      0.183
  90.0        3.235      0.183
  90.0        3.244      0.179
  90.0        3.253      0.176
  90.0        3.260      0.176
  90.0        3.269      0.181
  90.0        3.276      0.173
  90.0        3.286      0.170
  90.0        3.295      0.172
  90.0        3.304      0.168
  90.0        3.315      0.168
  90.0        3.323      0.162
  90.0        3.329      0.155
  90.0        3.338      0.145
  90.0        3.345      0.143
  90.0        3.349      0.135
  90.0        3.352      0.123
  90.0        3.358      0.113
  90.0        3.361      0.100
  90.0        3.364      0.092
  90.0        3.367      0.083
  90.0        3.373      0.065
  90.0        3.377      0.069
  90.0        3.379      0.104
  90.0        3.381      0.174
  90.0        3.384      0.215
  90.0        3.386      0.244
  90.0        3.391      0.256
  90.0        3.396      0.244
  90.0        3.399      0.234
  90.0        3.401      0.223
  90.0        3.405      0.216
  90.0        3.409      0.210
  90.0        3.413      0.203
  90.0        3.421      0.196
  90.0        3.427      0.190
  90.0        3.435      0.184
  90.0        3.446      0.180
  90.0        3.455      0.177
  90.0        3.466      0.177
  90.0        3.474      0.174
  90.0        3.481      0.174
  90.0        3.491      0.175
  90.0        3.499      0.167
  90.0        3.509      0.164
  90.0        3.518      0.167
  90.0        3.527      0.161
  90.0        3.535      0.169
  90.0        3.547      0.163
  90.0        3.556      0.159
  90.0        3.564      0.159
  90.0        3.572      0.158
  90.0        3.578      0.154
  90.0        3.587      0.154
  90.0        3.593      0.156
  90.0        3.604      0.152
  90.0        3.615      0.148
  90.0        3.624      0.150
  90.0        3.633      0.148
  90.0        3.641      0.151
  90.0        3.647      0.147
  90.0        3.656      0.148
  90.0        3.664      0.146
  90.0        3.674      0.141
  90.0        3.682      0.147
  90.0        3.694      0.137
  90.0        3.702      0.139
  90.0        3.712      0.146
  90.0        3.720      0.144
  90.0        3.729      0.141
  90.0        3.738      0.139
  90.0        3.744      0.133
  90.0        3.754      0.133
  90.0        3.765      0.134
  90.0        3.773      0.127
  90.0        3.782      0.133
  90.0        3.789      0.122
  90.0        3.799      0.130
  90.0        3.807      0.127
  90.0        3.816      0.126
  90.0        3.825      0.120
  90.0        3.833      0.124
  90.0        3.844      0.121
  90.0        3.852      0.117
  90.0        3.859      0.111
  90.0        3.867      0.113
  90.0        3.873      0.102
  90.0        3.877      0.092
  90.0        3.884      0.090
  90.0        3.886      0.104
  90.0        3.890      0.140
  90.0        3.890      0.127
  90.0        3.893      0.153
  90.0        3.899      0.145
  90.0        3.902      0.133
  90.0        3.907      0.126
  90.0        3.912      0.120
  90.0        3.920      0.128
  90.0        3.926      0.121
 124.6        2.424      0.129
 124.6        2.431      0.122
 124.6        2.440      0.112
 124.6        2.452      0.106
 124.6        2.462      0.100
 124.6        2.465      0.081
 124.6        2.466      0.088
 124.6        2.471      0.073
 124.6        2.473      0.063
 124.6        2.476      0.056
 124.6        2.483      0.063
 124.6        2.486      0.074
 124.6        2.491      0.086
 124.6        2.494      0.102
 124.6        2.495      0.117
 124.6        2.497      0.136
 124.6        2.498      0.153
 124.6        2.507      0.159
 124.6        2.513      0.162
 124.6        2.521      0.160
 124.6        2.527      0.154
 124.6        2.559      0.149
 124.6        2.589      0.138
 124.6        2.603      0.138
 124.6        2.635      0.137
 124.6        2.665      0.129
 124.6        2.694      0.128
 124.6        2.722      0.125
 124.6        2.754      0.116
 124.6        2.782      0.117
 124.6        2.812      0.111
 124.6        2.841      0.112
 124.6        2.871      0.107
 124.6        2.900      0.101
 124.6        2.932      0.103
 124.6        2.945      0.095
 124.6        2.957      0.094
 124.6        2.964      0.089
 124.6        2.972      0.088
 124.6        2.979      0.091
 124.6        2.990      0.081
 124.6        3.002      0.082
 124.6        3.009      0.075
 124.6        3.019      0.073
 124.6        3.025      0.066
 124.6        3.029      0.055
 124.6        3.032      0.046
 124.6        3.032      0.035
 124.6        3.041      0.033
 124.6        3.043      0.044
 124.6        3.047      0.062
 124.6        3.051      0.091
 124.6        3.055      0.115
 124.6        3.056      0.126
 124.6        3.063      0.133
 124.6        3.067      0.125
 124.6        3.072      0.114
 124.6        3.076      0.104
 124.6        3.082      0.094
 124.6        3.092      0.094
 124.6        3.097      0.106
 124.6        3.099      0.116
 124.6        3.111      0.114
 124.6        3.136      0.104
 124.6        3.168      0.093
 124.6        3.196      0.091
 124.6        3.224      0.090
 124.6        3.256      0.087
 124.6        3.285      0.076
 124.6        3.313      0.081
 124.6        3.321      0.079
 124.6        3.326      0.082
 124.6        3.332      0.076
 124.6        3.338      0.083
 124.6        3.344      0.078
 124.6        3.352      0.084
 124.6        3.360      0.082
 124.6        3.372      0.079
 124.6        3.376      0.082
 124.6        3.378      0.084
 124.6        3.386      0.081
 124.6        3.403      0.078
 124.6        3.413      0.081
 124.6        3.428      0.085
 124.6        3.454      0.078
 124.6        3.482      0.074
 124.6        3.513      0.074
 124.6        3.543      0.074
 124.6        3.572      0.071
 124.6        3.603      0.072
 124.6        3.634      0.065
 124.6        3.663      0.063
 124.6        3.693      0.064
 124.6        3.723      0.062
 124.6        3.752      0.061
 124.6        3.782      0.060
 124.6        3.812      0.053
 124.6        3.838      0.052
 124.6        3.854      0.054
 124.6        3.865      0.051
 124.6        3.872      0.050
 124.6        3.879      0.051
 124.6        3.885      0.052
 124.6        3.893      0.051
 124.6        3.899      0.049
 124.6        3.905      0.050
 124.6        3.914      0.052
 124.6        3.919      0.052
 124.6        3.925      0.052
 140.1        2.420      0.098
 140.1        2.429      0.090
 140.1        2.437      0.087
 140.1        2.447      0.078
 140.1        2.460      0.076
 140.1        2.462      0.061
 140.1        2.467      0.058
 140.1        2.470      0.054
 140.1        2.477      0.055
 140.1        2.480      0.063
 140.1        2.482      0.073
 140.1        2.484      0.083
 140.1        2.487      0.102
 140.1        2.491      0.136
 140.1        2.492      0.126
 140.1        2.496      0.147
 140.1        2.500      0.155
 140.1        2.508      0.149
 140.1        2.513      0.139
 140.1        2.523      0.141
 140.1        2.528      0.132
 140.1        2.548      0.122
 140.1        2.588      0.114
 140.1        2.602      0.110
 140.1        2.634      0.108
 140.1        2.661      0.105
 140.1        2.691      0.099
 140.1        2.724      0.101
 140.1        2.751      0.097
 140.1        2.780      0.096
 140.1        2.810      0.092
 140.1        2.840      0.092
 140.1        2.868      0.087
 140.1        2.898      0.090
 140.1        2.932      0.087
 140.1        2.941      0.084
 140.1        2.954      0.083
 140.1        2.961      0.080
 140.1        2.970      0.075
 140.1        2.978      0.082
 140.1        2.987      0.077
 140.1        2.995      0.076
 140.1        3.005      0.075
 140.1        3.016      0.073
 140.1        3.026      0.074
 140.1        3.034      0.072
 140.1        3.042      0.064
 140.1        3.045      0.072
 140.1        3.056      0.075
 140.1        3.061      0.075
 140.1        3.072      0.074
 140.1        3.073      0.066
 140.1        3.084      0.065
 140.1        3.086      0.071
 140.1        3.092      0.082
 140.1        3.097      0.092
 140.1        3.104      0.086
 140.1        3.111      0.085
 140.1        3.136      0.076
 140.1        3.167      0.076
 140.1        3.196      0.073
 140.1        3.223      0.073
 140.1        3.257      0.074
 140.1        3.282      0.074
 140.1        3.310      0.073
 140.1        3.317      0.074
 140.1        3.322      0.079
 140.1        3.330      0.079
 140.1        3.335      0.075
 140.1        3.343      0.085
 140.1        3.349      0.095
 140.1        3.353      0.086
 140.1        3.356      0.081
 140.1        3.358      0.075
 140.1        3.361      0.065
 140.1        3.364      0.044
 140.1        3.367      0.036
 140.1        3.371      0.022
 140.1        3.375      0.027
 140.1        3.379      0.036
 140.1        3.384      0.043
 140.1        3.388      0.046
 140.1        3.392      0.047
 140.1        3.402      0.053
 140.1        3.411      0.058
 140.1        3.417      0.056
 140.1        3.424      0.056
 140.1        3.454      0.060
 140.1        3.483      0.060
 140.1        3.513      0.059
 140.1        3.539      0.059
 140.1        3.572      0.055
 140.1        3.601      0.056
 140.1        3.630      0.054
 140.1        3.661      0.054
 140.1        3.690      0.055
 140.1        3.722      0.054
 140.1        3.750      0.052
 140.1        3.778      0.055
 140.1        3.809      0.053
 140.1        3.834      0.050
 140.1        3.852      0.054
 140.1        3.861      0.052
 140.1        3.871      0.049
 140.1        3.876      0.054
 140.1        3.881      0.059
 140.1        3.881      0.050
 140.1        3.885      0.045
 140.1        3.888      0.037
 140.1        3.895      0.036
 140.1        3.901      0.042
 140.1        3.906      0.047
 140.1        3.912      0.051
 140.1        3.918      0.048
 140.1        3.924      0.047
 168.0        2.399      0.078
 168.0        2.406      0.075
 168.0        2.411      0.083
 168.0        2.418      0.074
 168.0        2.425      0.075
 168.0        2.432      0.075
 168.0        2.439      0.071
 168.0        2.446      0.067
 168.0        2.452      0.060
 168.0        2.458      0.054
 168.0        2.467      0.049
 168.0        2.471      0.058
 168.0        2.477      0.067
 168.0        2.478      0.083
 168.0        2.483      0.098
 168.0        2.483      0.119
 168.0        2.489      0.131
 168.0        2.491      0.142
 168.0        2.495      0.150
 168.0        2.501      0.155
 168.0        2.502      0.149
 168.0        2.508      0.144
 168.0        2.512      0.135
 168.0        2.519      0.126
 168.0        2.529      0.122
 168.0        2.534      0.117
 168.0        2.544      0.114
 168.0        2.555      0.108
 168.0        2.565      0.107
 168.0        2.572      0.102
 168.0        2.583      0.097
 168.0        2.593      0.100
 168.0        2.602      0.100
 168.0        2.608      0.095
 168.0        2.617      0.095
 168.0        2.627      0.097
 168.0        2.635      0.096
 168.0        2.645      0.098
 168.0        2.654      0.095
 168.0        2.661      0.095
 168.0        2.669      0.089
 168.0        2.680      0.095
 168.0        2.689      0.087
 168.0        2.697      0.088
 168.0        2.703      0.084
 168.0        2.714      0.088
 168.0        2.721      0.085
 168.0        2.733      0.086
 168.0        2.741      0.084
 168.0        2.747      0.085
 168.0        2.759      0.082
 168.0        2.770      0.087
 168.0        2.783      0.083
 168.0        2.795      0.084
 168.0        2.801      0.082
 168.0        2.812      0.083
 168.0        2.821      0.086
 168.0        2.829      0.082
 168.0        2.837      0.083
 168.0        2.844      0.087
 168.0        2.851      0.084
 168.0        2.862      0.084
 168.0        2.871      0.082
 168.0        2.881      0.089
 168.0        2.888      0.083
 168.0        2.897      0.084
 168.0        2.904      0.084
 168.0        2.915      0.088
 168.0        2.922      0.086
 168.0        2.933      0.087
 168.0        2.941      0.092
 168.0        2.953      0.095
 168.0        2.965      0.099
 168.0        2.973      0.106
 168.0        2.984      0.108
 168.0        2.993      0.116
 168.0        2.993      0.119
 168.0        2.997      0.125
 168.0        3.002      0.136
 168.0        3.004      0.144
 168.0        3.008      0.148
 168.0        3.014      0.163
 168.0        3.016      0.177
 168.0        3.017      0.188
 168.0        3.020      0.225
 168.0        3.022      0.214
 168.0        3.024      0.310
 168.0        3.024      0.243
 168.0        3.026      0.492
 168.0        3.027      0.376
 168.0        3.027      0.529
 168.0        3.031      0.654
 168.0        3.037      0.787
 168.0        3.040      0.854
 168.0        3.043      0.959
 168.0        3.045      0.867
 168.0        3.045      0.830
 168.0        3.049      0.553
 168.0        3.050      0.729
 168.0        3.050      0.377
 168.0        3.053      0.228
 168.0        3.058      0.152
 168.0        3.062      0.068
 168.0        3.063      0.046
 168.0        3.068      0.032
 168.0        3.071      0.022
 168.0        3.079      0.014
 168.0        3.083      0.021
 168.0        3.087      0.027
 168.0        3.089      0.033
 168.0        3.096      0.037
 168.0        3.102      0.043
 168.0        3.108      0.040
 168.0        3.115      0.038
 168.0        3.122      0.041
 168.0        3.132      0.041
 168.0        3.141      0.043
 168.0        3.149      0.042
 168.0        3.161      0.044
 168.0        3.171      0.045
 168.0        3.178      0.044
 168.0        3.188      0.048
 168.0        3.194      0.047
 168.0        3.203      0.050
 168.0        3.212      0.048
 168.0        3.222      0.049
 168.0        3.230      0.048
 168.0        3.239      0.055
 168.0        3.250      0.053
 168.0        3.258      0.053
 168.0        3.268      0.053
 168.0        3.276      0.052
 168.0        3.283      0.054
 168.0        3.293      0.055
 168.0        3.303      0.054
 168.0        3.312      0.055
 168.0        3.318      0.061
 168.0        3.327      0.065
 168.0        3.335      0.065
 168.0        3.344      0.073
 168.0        3.349      0.078
 168.0        3.353      0.084
 168.0        3.358      0.098
 168.0        3.364      0.132
 168.0        3.364      0.113
 168.0        3.371      0.159
 168.0        3.371      0.180
 168.0        3.373      0.207
 168.0        3.377      0.200
 168.0        3.382      0.172
 168.0        3.384      0.143
 168.0        3.386      0.097
 168.0        3.387      0.064
 168.0        3.391      0.043
 168.0        3.393      0.034
 168.0        3.402      0.028
 168.0        3.409      0.032
 168.0        3.417      0.034
 168.0        3.427      0.036
 168.0        3.434      0.037
 168.0        3.443      0.039
 168.0        3.450      0.039
 168.0        3.460      0.038
 168.0        3.471      0.037
 168.0        3.478      0.035
 168.0        3.488      0.041
 168.0        3.498      0.040
 168.0        3.506      0.038
 168.0        3.517      0.041
 168.0        3.523      0.038
 168.0        3.532      0.041
 168.0        3.540      0.038
 168.0        3.549      0.041
 168.0        3.561      0.043
 168.0        3.569      0.039
 168.0        3.577      0.040
 168.0        3.584      0.040
 168.0        3.593      0.042
 168.0        3.601      0.042
 168.0        3.612      0.041
 168.0        3.620      0.044
 168.0        3.622      0.040
 168.0        3.631      0.043
 168.0        3.638      0.041
 168.0        3.648      0.043
 168.0        3.656      0.044
 168.0        3.663      0.041
 168.0        3.671      0.042
 168.0        3.679      0.044
 168.0        3.685      0.043
 168.0        3.696      0.042
 168.0        3.704      0.043
 168.0        3.714      0.041
 168.0        3.720      0.040
 168.0        3.729      0.040
 168.0        3.740      0.041
 168.0        3.749      0.040
 168.0        3.760      0.041
 168.0        3.767      0.043
 168.0        3.776      0.042
 168.0        3.782      0.041
 168.0        3.789      0.043
 168.0        3.800      0.041
 168.0        3.811      0.040
 168.0        3.819      0.041
 168.0        3.829      0.044
 168.0        3.837      0.042
 168.0        3.847      0.045
 168.0        3.855      0.041
 168.0        3.861      0.047
 168.0        3.866      0.052
 168.0        3.870      0.057
 168.0        3.874      0.065
 168.0        3.876      0.075
 168.0        3.880      0.092
 168.0        3.884      0.100
 168.0        3.886      0.075
 168.0        3.887      0.089
 168.0        3.890      0.063
 168.0        3.893      0.046
 168.0        3.893      0.033
 168.0        3.903      0.030
 168.0        3.910      0.031
 168.0        3.918      0.031
 168.0        3.926      0.032
ENDDATA            664
ENDSUBENT          679
ENDENTRY             2
