ENTRY            T0291   20040129   20040422
SUBENT        T0291001   20040129   20040422
BIB                 10         13
INSTITUTE  (1USARUT,1USABRK)
REFERENCE  (J,NP/A,222,65,1974)
AUTHOR     (C.Glashausser, D.L.Hendrie, E.A.McClatchie)
TITLE      Level structure of 205Tl observed in (p,p') and
            (p,alpha) reactions.
FACILITY   (CYCLO,1USABRK) Berkeley 88-inch Cyclotron.
METHOD     (BCINT)
DETECTOR   (SILI) Four Si(Li) detectors, cooled to -20 degrees.
ERR-ANALYS (DATA-ERR) Uncertainty read from figures.
           Absolute cross sections accurate to about 15%.
           (ANG-ERR-D).Data-Point Reader Uncertainty.
STATUS     (CURVE) Scanned from figures in reference by CAJAD.
HISTORY    (20040129C)
ENDBIB              13
NOCOMMON             0          0
ENDSUBENT           16
SUBENT        T0291002   20040129   20040422
BIB                  4          6
REACTION   (81-TL-205(P,INL)81-TL-205,PAR,DA)
SAMPLE     Thin evaporated metallic foil target, isotopically
            enriched to 98.8% 205Tl; 600 to 800 microg/cm**2
            thick.
METHOD     Level energies calibrated using strong levels in 206Pb.
ERR-ANALYS (ERR-DIG)  Data-Point Reader Uncertainty.
ENDBIB               6
COMMON               4          3
EN         E-RSL      ANG-ERR-D  ERR-DIG
MEV        KEV        ADEG       PER-CENT
  19.64       25.        0.6        2.
ENDCOMMON            3
DATA                 4        394
E-LVL      ANG-CM     DATA       DATA-ERR
MEV        ADEG       MB/SR      PER-CENT
   0.207       51.2     0.4000      7.
   0.207       53.2     0.3950      7.
   0.207       56.1     0.3420
   0.207       58.8     0.2140
   0.207       62.4     0.1960
   0.207       65.3     0.1800
   0.207       67.2     0.1285
   0.207       70.3     0.1063
   0.207       72.8     0.0988
   0.207       75.3     0.1048
   0.207       79.0     0.0960
   0.207       81.0     0.1033
   0.207       84.0     0.1230
   0.207       87.2     0.1230
   0.207       90.1     0.1079
   0.207       92.5     0.1079
   0.207       93.7     0.0988
   0.207      100.9     0.0520
   0.207      104.1     0.0430
   0.207      106.9     0.0361
   0.207      109.7     0.0312
   0.207      120.0     0.0406
   0.207      140.3     0.0210     10.
   0.207      160.5     0.0308
   0.622       52.1     0.5200
   0.622       55.8     0.4690
   0.622       59.0     0.4370
   0.622       61.8     0.3560
   0.622       73.0     0.1530
   0.622       74.6     0.1670
   0.622       77.9     0.1750
   0.622       80.8     0.1830
   0.622       83.3     0.1910
   0.622       86.6     0.1970
   0.622       90.3     0.2000
   0.622       92.7     0.1780
   0.622      100.2     0.0938
   0.622      102.7     0.0835
   0.622      106.3     0.0681
   0.622      109.6     0.0682
   0.622      119.4     0.0757
   0.622      140.5     0.0456
   0.622      159.1     0.0579
   0.924       31.1     0.1200     25.
   0.924       34.2     0.0732
   0.924       37.4     0.0860     17.
   0.924       39.8     0.0600     12.
   0.924       42.3     0.0570     12.
   0.924       46.0     0.0550     15.
   0.924       52.2     0.0370     19.
   0.924       59.3     0.0190     21.
   0.924       63.0     0.0223      4.
   0.924       66.3     0.0219      5.
   0.924       69.6     0.0246      4.
   0.924       71.7     0.0340      9.
   0.924       74.3     0.0315
   0.924       77.0     0.0312      5.
   0.924       83.4     0.0151      9.
   0.924       88.6     0.0097      3.
   0.924       92.6     0.0078      3.
   0.924       97.2     0.0090      4.
   0.924       99.2     0.0091      3.
   0.924      102.1     0.0086      3.
   0.924      105.4     0.0092      3.
   0.924      108.8     0.0007      3.
   0.924      118.9     0.0112      3.
   0.924      140.0     0.0049
   0.924      159.2     0.0006
   1.140       49.0     0.0320     16.
   1.140       51.4     0.0330     15.
   1.140       51.8     0.0250     12.
   1.140       68.6     0.0056     16.
   1.140       69.8     0.0045     16.
   1.140       70.5     0.0036     17.
   1.140       75.9     0.0041     20.
   1.140       79.3     0.0066     27.
   1.140       81.7     0.0061     20.
   1.140       84.6     0.0052     19.
   1.140       87.8     0.0055     13.
   1.140      101.6     0.0027     19.
   1.140      118.2     0.0013     18.
   1.140      157.6     0.0015     15.
   1.340       29.4     0.0350     50.
   1.340       32.8     0.0440     40.
   1.340       35.5     0.0330     30.
   1.340       37.9     0.0250     28.
   1.340       41.7     0.0380     21.
   1.340       44.1     0.0280     14.
   1.340       46.5     0.0340     15.
   1.340       49.9     0.0323      8.
   1.340       50.6     0.0320     13.
   1.340       53.5     0.0270     15.
   1.340       55.1     0.0320      9.
   1.340       71.5     0.0093     14.
   1.340       75.2     0.0083     13.
   1.340       79.4     0.0087     11.
   1.340       81.1     0.0103     13.
   1.340       84.3     0.0094      9.
   1.340       87.0     0.0068     10.
   1.340       88.3     0.0073      4.
   1.340       89.5     0.0080      4.
   1.340       90.2     0.0049     10.
   1.340       92.6     0.0037     14.
   1.340       94.6     0.0042     14.
   1.340      138.0     0.0038     11.
   1.340      157.7     0.0027     15.
   1.431       32.3     0.1830     14.
   1.431       35.4     0.1570     10.
   1.431       37.8     0.1120     12.
   1.431       40.6     0.1150      9.
   1.431       44.3     0.1010     10.
   1.431       46.7     0.0870      6.
   1.431       49.4     0.0830      8.
   1.431       51.5     0.0630      6.
   1.431       55.2     0.0690      7.
   1.431       57.2     0.0600      7.
   1.431       63.3     0.0550      7.
   1.431       66.6     0.0640      5.
   1.431       68.7     0.0650      6.
   1.431       74.8     0.0640      6.
   1.431       77.2     0.0600      7.
   1.431       79.6     0.0570      7.
   1.431       83.4     0.0520      8.
   1.431       87.3     0.0397      6.
   1.431       89.3     0.0368      7.
   1.431       96.5     0.0258
   1.431       99.8     0.0251
   1.431      105.6     0.0318
   1.431      117.0     0.0295
   1.431      136.9     0.0210
   1.431      156.6     0.0282      8.
   1.480       30.9     0.0600     50.
   1.480       34.0     0.0440     50.
   1.480       36.8     0.0480     25.
   1.480       40.3     0.0560     23.
   1.480       43.1     0.0510     14.
   1.480       47.2     0.0510     10.
   1.480       48.3     0.0420     10.
   1.480       48.7     0.0490      6.
   1.480       50.8     0.0380     11.
   1.480       54.0     0.0340      9.
   1.480       56.9     0.0373      3.
   1.480       74.9     0.0336      3.
   1.480       78.1     0.0325      3.
   1.480       80.6     0.0360      4.
   1.480       83.1     0.0332      3.
   1.480       85.5     0.0318      3.
   1.480       89.6     0.0310      3.
   1.480       97.3     0.0225      4.
   1.480      100.4     0.0068      4.
   1.480      116.7     0.0041      4.
   1.480      137.2     0.0149      5.
   1.480      156.8     0.0140      4.
   2.487       27.0     0.0590     40.
   2.487       30.3     0.0660     30.
   2.487       33.6     0.0750     19.
   2.487       36.1     0.0690     13.
   2.487       38.9     0.0650      9.
   2.487       41.4     0.0680      6.
   2.487       44.6     0.0750      5.
   2.487       47.6     0.0764      3.
   2.487       50.1     0.1009
   2.487       53.8     0.1086
   2.487       56.6     0.1135
   2.487       58.4     0.1168
   2.487       62.5     0.1135      3.
   2.487       65.7     0.1055      3.
   2.487       68.5     0.0912
   2.487       69.7     0.0799
   2.487       70.5     0.0732
   2.487       73.7     0.0597
   2.487       76.0     0.0427
   2.487       79.2     0.0338
   2.487       87.6     0.0466
   2.487       87.9     0.0391      3.
   2.487       95.7     0.0466      4.
   2.487      101.9     0.0446      4.
   2.487      104.7     0.0421      3.
   2.487      116.4     0.0264
   2.487      137.0     0.0315      5.
   2.487      156.7     0.0268      3.
   2.625       30.4     0.2200     18.
   2.625       33.0     0.2100     19.
   2.625       35.7     0.1770     14.
   2.625       39.3     0.1960     13.
   2.625       42.4     0.2040      3.
   2.625       44.7     0.2010
   2.625       47.4     0.2100
   2.625       50.2     0.2450
   2.625       52.5     0.2560
   2.625       56.8     0.2860
   2.625       59.9     0.2900
   2.625       62.2     0.2940
   2.625       65.4     0.2820
   2.625       67.3     0.2590
   2.625       70.4     0.2560
   2.625       70.8     0.2250
   2.625       73.1     0.1960
   2.625       76.2     0.1680
   2.625       79.4     0.1267
   2.625       81.6     0.1149
   2.625       85.1     0.1215
   2.625       88.7     0.1286
   2.625       91.0     0.1233
   2.625       92.9     0.1286
   2.625       95.8     0.1460
   2.625      102.0     0.1322
   2.625      107.7     0.1087
   2.625      119.0     0.0713
   2.625      138.4     0.0734
   2.625      158.7     0.0704
   2.716       29.5     0.2800     18.
   2.716       32.4     0.2550     11.
   2.716       34.9     0.2420      7.
   2.716       38.8     0.2390
   2.716       41.5     0.2670
   2.716       44.2     0.2600
   2.716       46.6     0.2600
   2.716       49.7     0.2710
   2.716       52.8     0.2910
   2.716       55.9     0.3080
   2.716       59.1     0.3160
   2.716       61.4     0.3260
   2.716       64.9     0.3040
   2.716       66.7     0.2760
   2.716       69.1     0.2770
   2.716       69.9     0.2410
   2.716       73.1     0.2160
   2.716       74.4     0.1810
   2.716       78.0     0.1373
   2.716       81.9     0.1337
   2.716       83.9     0.1198
   2.716       89.7     0.1359
   2.716       92.2     0.1437
   2.716       95.5     0.1563
   2.716       98.3     0.1608
   2.716      101.8     0.1524
   2.716      104.2     0.1443
   2.716      117.7     0.0769
   2.716      136.8     0.0938
   2.716      157.4     0.0678
   2.970       48.4     0.0110     40.
   2.970       48.8     0.0140     21.
   2.970       50.7     0.0130     30.
   2.970       55.4     0.0190     26.
   2.970       58.5     0.0190     16.
   2.970       61.6     0.0200     15.
   2.970       64.0     0.0170     14.
   2.970       67.5     0.0178     12.
   2.970       69.8     0.0186     13.
   2.970       71.3     0.0116     17.
   2.970       75.5     0.0113     19.
   2.970       79.1     0.0063     14.
   2.970       81.4     0.0040     27.
   2.970       83.7     0.0038     29.
   2.970       85.3     0.0037     27.
   2.970       89.7     0.0052     17.
   2.970       98.1     0.0074     16.
   2.970      101.0     0.0073     15.
   2.970      107.1     0.0102     16.
   2.970      118.7     0.0037     16.
   2.970      137.4     0.0054     17.
   2.970      157.7     0.0055     16.
   3.180       48.6     0.0200     80.
   3.180       52.3     0.0280     29.
   3.180       54.5     0.0220     23.
   3.180       58.0     0.0270     19.
   3.180       60.7     0.0280     18.
   3.180       64.2     0.0250     16.
   3.180       66.9     0.0260     19.
   3.180       68.9     0.0250     16.
   3.180       70.0     0.0204      3.
   3.180       71.9     0.0178      3.
   3.180       75.1     0.0157     17.
   3.180       77.8     0.0115     17.
   3.180       80.5     0.0084     19.
   3.180       82.8     0.0074     15.
   3.180       86.7     0.0095     19.
   3.180       89.1     0.0140     18.
   3.180       91.1     0.0140     16.
   3.180      92.58     0.0099     18.
   3.180      92.95     0.0087     18.
   3.180      107.0     0.0160     19.
   3.180      117.1     0.0061     16.
   3.180      136.9     0.0048     19.
   3.180      156.7     0.0051     18.
   3.213       32.5     0.0210     70.
   3.213       37.5     0.0250     70.
   3.213       41.0     0.0320     25.
   3.213       44.5     0.0290     17.
   3.213       46.8     0.0370     16.
   3.213       49.5     0.0490     16.
   3.213       54.3     0.0510     10.
   3.213       58.6     0.0560      9.
   3.213       60.9     0.0540      3.
   3.213       63.6     0.0532
   3.213       66.8     0.0525
   3.213       69.5     0.0518
   3.213       70.6     0.0439
   3.213       72.2     0.0410      3.
   3.213       74.5     0.0352      3.
   3.213       78.8     0.0294      3.
   3.213       80.3     0.0267
   3.213       83.5     0.0286
   3.213       87.7     0.0264
   3.213      103.3     0.0302
   3.213      117.6     0.0050
   3.213      137.5     0.0156
   3.213      156.7     0.0174
   3.256       27.9     0.0770     18.
   3.256       30.6     0.0770     17.
   3.256       33.3     0.0780     14.
   3.256       36.7     0.0810     14.
   3.256       39.1     0.0890     10.
   3.256       41.6     0.0880     15.
   3.256       45.7     0.0800      9.
   3.256       46.9     0.0957
   3.256       49.6     0.1025
   3.256       53.1     0.1161
   3.256       56.2     0.1177
   3.256       59.7     0.1210
   3.256       62.0     0.1098
   3.256       64.7     0.1098
   3.256       68.2     0.0868
   3.256       70.6     0.0868
   3.256       73.3     0.0649
   3.256       76.4     0.0506
   3.256       79.2     0.0441
   3.256       83.0     0.0472
   3.256       85.4     0.0492
   3.256       88.1     0.0520
   3.256       93.1     0.0597
   3.256       96.2     0.0557
   3.256       96.3     0.0648
   3.256      102.0     0.0564
   3.256      116.0     0.0320
   3.256      136.2     0.0343
   3.256      155.2     0.0342
   3.414       27.2     0.0500     28.
   3.414       31.2     0.0370     30.
   3.414       34.3     0.0470     30.
   3.414       36.9     0.0250     28.
   3.414       40.4     0.0330     30.
   3.414       42.7     0.0300     17.
   3.414       46.2     0.0360     17.
   3.414       48.2     0.0420     14.
   3.414       49.1     0.0340     15.
   3.414       53.6     0.0300     17.
   3.414       56.7     0.0190     16.
   3.414       59.4     0.0250     12.
   3.414       63.4     0.0210     14.
   3.414       66.4     0.0175     10.
   3.414       68.0     0.0226     10.
   3.414       73.1     0.0190      8.
   3.414       76.9     0.0201
   3.414       80.0     0.0195      9.
   3.414       83.2     0.0193      9.
   3.414       87.1     0.0207      7.
   3.414       87.4     0.0052
   3.414       89.4     0.0176
   3.414       97.3     0.0052
   3.414      100.6     0.0020      4.
   3.414      105.3     0.0108      6.
   3.414      117.4     0.0142      6.
   3.414      136.9     0.0105      5.
   3.414      156.8     0.0110      6.
   3.540       29.0     0.1200     25.
   3.540       34.1     0.1060     24.
   3.540       36.6     0.0980     12.
   3.540       39.9     0.0940     11.
   3.540       43.0     0.1070     12.
   3.540       45.3     0.1040      9.
   3.540       48.0     0.1020      3.
   3.540       51.1     0.0980      4.
   3.540       53.9     0.0811
   3.540       58.1     0.0642
   3.540       60.1     0.0707
   3.540       63.2     0.0748
   3.540       65.5     0.0670
   3.540       67.9     0.0728
   3.540       69.9     0.0690
   3.540       73.4     0.0627
   3.540       75.6     0.0585
   3.540       79.9     0.0525
   3.540       83.1     0.0504
   3.540       86.1     0.0525
   3.540       86.9     0.0422
   3.540       90.4     0.0428
   3.540       94.3     0.0428
   3.540       97.0     0.0344
   3.540       99.7     0.0406
   3.540      102.4     0.0349
   3.540      116.1     0.0318
   3.540      156.9     0.0344
ENDDATA            396
ENDSUBENT          411
SUBENT        T0291003   20040129   20040422
BIB                  3          5
REACTION   (82-PB-206(P,INL)82-PB-206,PAR,DA)
SAMPLE     Thin evaporated metallic foil target, isotopically
            enriched to 97.2% 206Pb; 250 to 500 microg/cm**2
            thick.
ERR-ANALYS (ERR-DIG)  Data-Point Reader Uncertainty.
ENDBIB               5
COMMON               4          3
EN         E-RSL      ANG-ERR-D  ERR-DIG
MEV        KEV        ADEG       PER-CENT
  19.64      25.         0.5        2.
ENDCOMMON            3
DATA                 4        100
E-EXC      ANG-CM     DATA       DATA-ERR
MEV        ADEG       MB/SR      PER-CENT
   0.803       33.6     0.4770
   0.803       36.7     0.5610
   0.803       40.2     0.6070
   0.803       43.0     0.7140
   0.803       56.1     0.4740
   0.803       59.4     0.4020
   0.803       61.9     0.3200
   0.803       65.6     0.2500
   0.803       67.7     0.1780
   0.803       71.1     0.1780
   0.803       76.4     0.1710     12.
   0.803       91.4     0.1920      3.
   0.803       92.8     0.1770
   0.803       95.4     0.1424
   0.803       98.3     0.1161
   0.803      101.9     0.0885
   0.803      105.2     0.0762
   0.803      107.9     0.0770      6.
   0.803      111.0     0.0740
   0.803      118.8     0.0968
   0.803      137.9     0.0592
   0.803      157.4     0.0674
   1.684       30.9     0.1670     16.
   1.684       34.7     0.1830     10.
   1.684       37.3     0.1530      7.
   1.684       40.3     0.1390      9.
   1.684       42.6     0.0920      7.
   1.684       47.1     0.0750     16.
   1.684       50.6     0.0783      3.
   1.684       53.9     0.0660      8.
   1.684       56.9     0.0640      6.
   1.684       60.9     0.0450     18.
   1.684       63.6     0.0790     14.
   1.684       74.4     0.0580     14.
   1.684       83.4     0.0440      9.
   1.684       89.2     0.0290     14.
   1.684       90.9     0.0333      9.
   1.684       93.9     0.0323      6.
   1.684       96.9     0.0310      6.
   1.684      101.1     0.0320     22.
   1.684      103.5     0.0332      7.
   1.684      106.6     0.0360     11.
   1.684      109.1     0.0310     13.
   2.648       32.3     0.8500      5.
   2.648       36.1     0.8440
   2.648       38.4     0.8210
   2.648       41.0     0.7660
   2.648       44.0     0.7150
   2.648       46.8     0.7860
   2.648       49.5     0.8300
   2.648       51.8     0.9250
   2.648       55.3     1.0310
   2.648       58.1     1.1180
   2.648       61.1     1.1640
   2.648       63.7     1.0290
   2.648       66.7     0.9600
   2.648       70.4     0.8260
   2.648       72.3     0.7500
   2.648       74.8     0.5860
   2.648       78.1     0.4460
   2.648       80.6     0.3780
   2.648       84.7     0.3300      3.
   2.648       90.6     0.3880
   2.648       97.5     0.4400      7.
   2.648      100.3     0.5440
   2.648      103.3     0.5080
   2.648      109.7     0.4020
   2.648      117.1     0.2810
   2.648      137.3     0.2960
   2.648      157.1     0.2710
   3.776       31.4     0.2100     29.
   3.776       34.4     0.2100     19.
   3.776       36.6     0.1900     13.
   3.776       40.1     0.2010      6.
   3.776       42.7     0.1850      8.
   3.776       46.7     0.2170      8.
   3.776       48.8     0.1660      4.
   3.776       51.1     0.1710      3.
   3.776       54.0     0.1375      3.
   3.776       56.6     0.1285      3.
   3.776       60.0     0.1150      6.
   3.776       62.6     0.1078      2.
   3.776       66.4     0.1120      7.
   3.776       69.4     0.0980      6.
   3.776       71.2     0.0890      9.
   3.776       74.0     0.0960      5.
   3.776       76.9     0.0869      3.
   3.776       80.4     0.0920      5.
   3.776       82.6     0.0835      3.
   3.776       86.1     0.0880      5.
   3.776       88.3     0.0729      3.
   3.776       91.0     0.0759      3.
   3.776       94.4     0.0759      3.
   3.776       96.6     0.0664      2.
   3.776       99.7     0.0729      3.
   3.776      102.3     0.0655      4.
   3.776      105.4     0.0660      8.
   3.776      108.5     0.0749      2.
   3.776      136.4     0.0437      5.
   3.776      156.2     0.0403      4.
ENDDATA            102
ENDSUBENT          116
SUBENT        T0291004   20040129   20040422
BIB                  3          5
REACTION   (82-PB-208(P,A)81-TL-205,PAR,DA)
SAMPLE     Thin evaporated metallic foil target, isotopically
            enriched to 99% 208Pb; 300 microg/cm**2 thick.
METHOD     Spectrum calibrated using levels observed from
            206Pb(t,alpha)205Tl.
ENDBIB               5
COMMON               3          3
EN         E-RSL      ANG-ERR-D
MEV        KEV        ADEG
  35.2       35.         0.4
ENDCOMMON            3
DATA                 4        121
E-EXC      ANG        DATA       DATA-ERR
MEV        ADEG       MU-B/SR    PER-CENT
    0.00       12.4       35.0     20.
    0.00       14.1       18.0     28.
    0.00       15.4       26.0     23.
    0.00       17.1       20.3     14.
    0.00       17.6       18.0     22.
    0.00       18.8       10.6     23.
    0.00       19.6       13.6     21.
    0.00       20.9        6.4     30.
    0.00       21.9        4.6     40.
    0.00       22.8        6.1     25.
    0.00       24.4        4.0     30.
    0.20       11.8       51.0     20.
    0.20       13.4       42.0     14.
    0.20       15.2       41.0     10.
    0.20       16.3       35.1      8.
    0.20       17.3       27.0     19.
    0.20       18.1       28.0     14.
    0.20       19.7       22.0     18.
    0.20       20.4       14.8     20.
    0.20       21.0       18.6     12.
    0.20       22.6       21.0     14.
    0.20       23.0       10.1     24.
    0.20       24.5        7.8     21.
    0.20       24.7        3.9     40.
    0.20       25.6        4.8     21.
    0.62       12.2       58.0     17.
    0.62       13.5       40.0     18.
    0.62       15.3       33.0     15.
    0.62       16.4       45.0     16.
    0.62       17.4       28.0     18.
    0.62       19.0       49.0     19.
    0.62       19.2       26.0      8.
    0.62       20.8       27.0     15.
    0.62       21.4       36.0     11.
    0.62       22.7       28.0     14.
    0.62       23.7       22.0     12.
    0.62       24.6       17.1     14.
    0.62       25.2       12.0     21.
    0.62       26.4       17.0     18.
    0.62       28.1       10.0     20.
    0.62       30.2        7.2     24.
    0.92       11.3       33.0     15.
    0.92       13.3       35.0     17.
    0.92       14.7       40.0     18.
    0.92       16.2       38.0     13.
    0.92       16.8       36.0     14.
    0.92       18.2       25.0     12.
    0.92       18.9       27.0     15.
    0.92       20.2       29.0     14.
    0.92       21.5       29.0     14.
    0.92       22.0       24.6     10.
    0.92       23.1       16.0     19.
    0.92       23.8       23.0     17.
    0.92       24.9       19.0     21.
    0.92       26.0       22.0     14.
    0.92       27.5       13.4     16.
    0.92       29.9       10.1     13.
    1.43       11.1       37.0     16.
    1.43       13.1       54.0     17.
    1.43       15.5       55.0     15.
    1.43       16.0       37.0     11.
    1.43       17.5       45.0     13.
    1.43       18.3       45.0     11.
    1.43       19.3       31.0     16.
    1.43       20.3       42.0     14.
    1.43       21.6       42.0     12.
    1.43       22.2       32.0      9.
    1.43       23.4       17.7     15.
    1.43       24.1       23.0     13.
    1.43       25.3       20.0     15.
    1.43       26.1       23.0     13.
    1.43       28.7       15.2     14.
    1.43       30.7       14.4     13.
    1.48       10.8       72.0     13.
    1.48       12.7       69.0     16.
    1.48       14.8       52.0     13.
    1.48       15.7       54.0      7.
    1.48       16.9       54.0      6.
    1.48       17.7       50.3      4.
    1.48       18.7       63.0     10.
    1.48       20.1       52.0      6.
    1.48       21.0       56.0      5.
    1.48       21.7       41.0     10.
    1.48       23.2       53.0      6.
    1.48       23.9       48.8      4.
    1.48       24.2       43.0      7.
    1.48       25.8       38.8      5.
    1.48       28.2       27.1      8.
    1.48       30.1       23.2     10.
    2.04       10.3       14.0     29.
    2.04       12.0       28.0     18.
    2.04       14.2       16.0     30.
    2.04       15.6       42.0      7.
    2.04       16.7       32.0     13.
    2.04       17.8       48.0      8.
    2.04       19.1       51.0      8.
    2.04       19.8       40.0      8.
    2.04       20.6       51.0      8.
    2.04       21.8       35.0     11.
    2.04       23.3       46.0      9.
    2.04       23.6       35.0      9.
    2.04       24.8       46.8      6.
    2.04       25.5       31.9      5.
    2.04       27.7       26.6      6.
    2.04       30.0       29.5      5.
    2.12       11.2       38.0     18.
    2.12       13.2       52.0     13.
    2.12       14.9       33.0     18.
    2.12       15.8       44.0     14.
    2.12       17.2       35.0     14.
    2.12       17.9       34.0     15.
    2.12       19.4       25.0     24.
    2.12       19.9       37.0     16.
    2.12       20.7       34.0     15.
    2.12       22.1       31.5     10.
    2.12       22.9       25.0     12.
    2.12       24.3       20.0     13.
    2.12       25.4       21.0     14.
    2.12       26.2       21.6     13.
    2.12       28.3       13.7     14.
    2.12       29.8       10.4     21.
ENDDATA            123
ENDSUBENT          137
ENDENTRY             4
