ENTRY            C2706   20220120   20220829   20220825       C214
SUBENT        C2706001   20220120   20220829   20220825       C214
BIB                  8         16
TITLE      Fine structure of analogue states in 51Mn, 53Mn and
           55Mn
AUTHOR     (J.D.Moses,H.W.Newson,E.G.Bilpuch,G.E.Mitchell)
INSTITUTE  (1USANCS,1USATNL)
REFERENCE  (J,NP/A,175,556,1971)
           #doi:10.1016/0375-9474(71)90450-7
FACILITY   (VDG,1USATNL) The TUNL 3 MV Van de Graaff accelerator
SAMPLE     Enriched targets of thickness l-3 pg/cm2 were used in
           these experiments.
DETECTOR   (BF3) Neutrons from the 54Cr(p,n) reaction were
           detected with BF3 counters embedded in a polyethylene
           matrix. The assembly subtended approximately 2pi sr at
           the target and had an efficiency of about 10%.
           Charged particles were detected using surface-barrier
           detectors.
HISTORY    (20220120C) OG
ENDBIB              16
NOCOMMON             0          0
ENDSUBENT           19
SUBENT        C2706002   20220120   20220829   20220825       C214
BIB                  5         13
REACTION  1(24-CR-52(P,0),,EN)
          2(24-CR-52(P,EL),,WID)
          3(24-CR-52(P,0),,J)
          4(24-CR-52(P,0),,PTY)
SAMPLE     The 52Cr targets were prepared by vacuum deposition
           of metallic chromium onto carbon backings
           approximately 20 mu-g/cm2 thick.
           (24-CR-52,ENR=0.999)
MISC-COL   (MISC) Reduced width = Gc/2Pc
                  where Gc - the partial width,
                        Pc - the penetrability in channel c.
ERR-ANALYS (DATA-ERR) No information on sources of uncertainties.
STATUS     (TABLE) Tab.1 (p.560-561) in Nucl.Phys.A,175,556,1971
ENDBIB              13
COMMON               1          3
DATA-ERR  1
KEV
   3.
ENDCOMMON            3
DATA                 6        147
DATA      1DATA      2DATA-ERR  2DATA      3DATA      4MISC
MEV        EV         EV         NO-DIM     NO-DIM     KEV
     2.1188        25.         5.        0.5        -1.       1.56
     2.1348       110.        15.        0.5        +1.       2.78
     2.1479        35.         5.        0.5        +1.       0.85
     2.1545       400.        50.        0.5        +1.       9.50
     2.2148       100.        10.        0.5        +1.       1.97
     2.2212       110.        20.        0.5        -1.       4.13
     2.3126        10.         5.        0.5        -1.       0.32
     2.3231        30.         5.        0.5        -1.       0.94
     2.3301         4.         4.        2.5        +1.       0.58
     2.3474        45.        10.        0.5        +1.       0.59
     2.3484        15.         5.        1.5        +1.       2.06
     2.3509        10.         5.        0.5        -1.       0.29
     2.3645         5.         5.        2.5        +1.       0.65
     2.3670        50.        15.        0.5        -1.       1.38
     2.3722        35.         5.        2.5        +1.       4.47
     2.3740        70.        10.        0.5        +1.       0.85
     2.3873        50.         5.        0.5        -1.       1.30
     2.3975        20.         5.        0.5        -1.       0.51
     2.4093        25.        10.        0.5        +1.       0.29
     2.4192        20.        10.        0.5        -1.       0.49
     2.4223         5.         5.        2.5        +1.       0.57
     2.4235        75.        10.        0.5        -1.       1.82
     2.4401        40.        10.        0.5        -1.       0.93
     2.4454       100.        15.        0.5        -1.       2.29
     2.4515        30.         5.        1.5        -1.       0.68
     2.4707        30.         5.        2.5        +1.       2.94
     2.4991       105.        10.        0.5        -1.       2.09
     2.5108        30.         5.        0.5        -1.       0.58
     2.5142        30.         5.        2.5        +1.       2.59
     2.5178        50.        10.        0.5        -1.       0.95
     2.5227        20.         5.        0.5        -1.       0.17
     2.5438        95.        10.        0.5        -1.       0.78
     2.5569        75.        10.        0.5        +1.       0.60
     2.5828        40.         5.        1.5        -1.       0.64
     2.5837        10.         5.        1.5        +1.       0.71
     2.5845        60.        10.        1.5        -1.       0.96
     2.5890        60.        10.        0.5        +1.       0.44
     2.5953       300.        30.        0.5        +1.       2.19
     2.5969        50.        15.        0.5        -1.       0.78
     2.5986        55.        10.        2.5        +1.       3.75
     2.6161        70.        10.        1.5        -1.       1.04
     2.6236        50.         5.        0.5        +1.       0.34
     2.6367        50.        10.        0.5        -1.       0.71
     2.6425       300.        30.        0.5        +1.       1.98
     2.6548       105.         5.        2.5        +1.       0.59
     2.6627       275.        30.        0.5        +1.       1.73
     2.6642        15.         5.        2.5        +1.       0.86
     2.6691        15.         5.        0.5        -1.       0.20
     2.6774       100.        15.        0.5        +1.       0.61
     2.6792        10.         5.        2.5        +1.       0.55
     2.6885        25.         5.        0.5        -1.       0.31
     2.6904        50.         5.        1.5        -1.       0.62
     2.7002       125.        15.        0.5        -1.       1.53
     2.7054        75.        10.        1.5        -1.       0.91
     2.7080        75.        10.        0.5        +1.       0.43
     2.7157        50.        10.        1.5        -1.       0.59
     2.7196        25.         5.        1.5        +1.       1.24
     2.7227        50.         5.        2.5        +1.       2.47
     2.7347        40.        10.        2.5        +1.       1.91
     2.7353       200.        50.        0.5        -1.       2.29
     2.7396       500.       100.        0.5        +1.       2.69
     2.7409       120.        30.        2.5        +1.       5.66
     2.7434       125.        15.        1.5        -1.       1.39
     2.7569        75.        10.        0.5        -1.       0.81
     2.7659        30.         5.        1.5        -1.       0.32
     2.7686        40.        15.        2.5        +1.       1.76
     2.7689       700.       150.        0.5        +1.       3.56
     2.7691       800.       200.        1.5        -1.       8.40
     2.7734       600.       150.        1.5        -1.       6.24
     2.7737       300.        75.        1.5        -1.       3.11
     2.7868       400.        75.        1.5        -1.       4.04
     2.7979        25.         5.        1.5        -1.       0.25
     2.8036        70.        15.        0.5        +1.       0.33
     2.8050         5.         5.        2.5        +1.       0.20
     2.8165       175.        20.        0.5        +1.       0.81
     2.8279       250.        25.        0.5        +1.       2.32
     2.8352        10.         5.        2.5        +1.       0.37
     2.8356        90.        30.        0.5        +1.       0.82
     2.8520         5.         5.        2.5        +1.       0.18
     2.8589       200.        50.        0.5        +1.       0.86
     2.8607        20.         5.        2.5        +1.       0.71
     2.8648        20.        10.        2.5        +1.       0.70
     2.8771        20.         5.        0.5        -1.       0.17
     2.8784       125.        20.        0.5        -1.       1.05
     2.8795        40.         5.        0.5        +1.       0.17
     2.9047         5.         5.        1.5        +1.       0.16
     2.9064        60.        10.        0.5        -1.       0.47
     2.9146        10.         5.        2.5        +1.       0.31
     2.9199        15.         5.        2.5        +1.       0.46
     2.9301       110.        15.        0.5        -1.       0.83
     2.9384        20.         5.        2.5        +1.       0.59
     2.9400       600.       125.        0.5        +1.       2.23
     2.9405       300.       100.        0.5        -1.       2.22
     2.9466      1000.       100.        0.5        +1.       3.67
     2.9555       115.        25.        0.5        -1.       0.83
     2.9566        60.        15.        2.5        +1.       1.71
     2.9592        35.         5.        1.5        -1.       0.25
     2.9612        10.         5.        0.5        -1.       0.07
     2.9649        30.         5.        1.5        -1.       0.21
     2.9665       800.       100.        0.5        +1.       2.84
     2.9684       175.        30.        0.5        -1.       1.23
     2.9706        10.         5.        0.5        -1.       0.07
     2.9738         5.         5.        1.5        +1.       0.14
     2.9825        15.         5.        0.5        -1.       0.10
     2.9921        10.         5.        2.5        +1.       0.26
     3.0038       110.        10.        0.5        -1.       0.72
     3.0113        25.        10.        1.5        -1.       0.16
     3.0147       450.        50.        0.5        +1.        1.4
     3.0478        90.        10.        0.5        -1.       0.55
     3.0504       100.        10.        0.5        -1.       0.60
     3.0582        50.        25.        0.5        -1.       0.30
     3.0589        25.         5.        2.5        +1.       0.57
     3.0630        75.        10.        0.5        -1.       0.44
     3.0643        20.         5.        1.5        +1.       0.45
     3.0702         5.         5.        1.5        +1.       0.11
     3.0709        20.         5.        2.5        +1.       0.45
     3.0741        10.         5.        2.5        +1.       0.22
     3.0855        75.        15.        2.5        +1.       1.62
     3.0862         5.         5.        2.5        +1.       0.11
     3.1024        40.        10.        0.5        +1.       0.11
     3.1042        15.         5.        0.5        +1.       0.04
     3.1090      1300.       150.        0.5        +1.       3.68
     3.1110       115.        20.        1.5        +1.       2.36
     3.1210       100.        10.        0.5        -1.       0.53
     3.1251       800.       100.        0.5        +1.       2.21
     3.1268       250.        50.        0.5        -1.       1.32
     3.1285       100.        15.        2.5        +1.       1.98
     3.1302        10.         5.        2.5        +1.       0.20
     3.1320        10.         5.        1.5        +1.       0.20
     3.1339      1000.       100.        0.5        -1.       5.22
     3.1372      1000.       100.        0.5        +1.       2.71
     3.1399        20.         5.        2.5        +1.       0.39
     3.1447         4.         4.        2.5        -1.       0.53
     3.1507        10.         5.        1.5        +1.       0.19
     3.1521        60.         5.        1.5        -1.       0.30
     3.1574        80.        15.        0.5        -1.       0.40
     3.1594        20.         5.        2.5        +1.       0.37
     3.1629        35.         5.        2.5        +1.       0.65
     3.1649       175.        20.        0.5        -1.       0.87
     3.1713      4000.       200.        0.5        +1.      10.31
     3.1814       300.        30.        0.5        +1.       0.76
     3.1939        75.        10.        2.5        +1.       1.31
     3.2015      2200.       200.        0.5        +1.       4.43
     3.2094        40.        10.        2.5        +1.       0.68
     3.2112       300.        30.        0.5        +1.       0.73
     3.2156        20.         5.        0.5        +1.       0.05
     3.2197       160.        15.        0.5        +1.       0.38
ENDDATA            149
ENDSUBENT          171
SUBENT        C2706003   20220120   20220829   20220825       C214
BIB                  4          9
REACTION   (24-CR-50(P,EL)24-CR-50,,DA)
SAMPLE     The 50Cr targets were deposited onto backings of
           10 mu-g/cm2 of carbon reinforced by a thin layer of
           Formvar.
           (24-CR-50,ENR=0.959)
           (24-CR-52,ENR=0.038)
ERR-ANALYS No information on uncertainties
STATUS     (CURVE) Fig.5 (p.563) in Nucl.Phys.A,175,556,1971 was
           digitized by GSYS2.4.7.
ENDBIB               9
COMMON               1          3
ANG
ADEG
160.
ENDCOMMON            3
DATA                 2        260
EN         DATA
KEV        MB/SR
   3104.106    109.781
   3105.053    110.133
   3106.227    108.968
   3106.568    108.204
   3106.757    105.558
   3107.248    102.903
   3107.397     93.087
   3107.470     81.386
   3107.624     90.439
   3107.970    108.543
   3108.198    111.179
   3108.501    110.416
   3108.955    108.894
   3109.296    108.507
   3109.864    110.001
   3110.205    108.860
   3110.698    111.488
   3111.115    110.344
   3111.455    106.938
   3111.983    101.263
   3112.286    100.123
   3112.435     91.817
   3112.470     81.250
   3112.545     77.851
   3112.621     76.717
   3112.775     86.147
   3112.933    109.917
   3113.085    113.309
   3113.502    114.052
   3113.957    112.908
   3114.335    112.898
   3114.752    111.754
   3115.093    112.499
   3115.585    110.976
   3115.927    112.854
   3116.381    111.709
   3116.722    113.587
   3117.291    115.081
   3117.484    126.019
   3117.602    142.998
   3117.643    153.185
   3117.754    146.390
   3117.758    159.598
   3117.941    135.818
   3118.051    122.607
   3118.163    116.189
   3118.427    114.295
   3118.995    111.638
   3120.019    115.006
   3121.081    121.770
   3122.147    138.722
   3123.067    177.189
   3123.452    199.820
   3123.465    249.255
   3123.621    264.345
   3123.844    248.867
   3123.945    200.939
   3123.990    226.976
   3124.051    175.275
   3124.146    105.836
   3124.217     89.608
   3124.361     62.811
   3124.390     30.356
   3124.623     49.973
   3124.926     50.719
   3125.078     54.111
   3125.460     62.026
   3125.916     68.806
   3126.296     74.079
   3126.677     80.483
   3127.094     80.472
   3128.043     88.371
   3129.067     93.626
   3130.089     90.956
   3131.000     95.460
   3132.064    107.506
   3132.256    115.049
   3132.406    112.403
   3132.590     92.775
   3132.740     85.978
   3132.853     82.956
   3133.423     90.110
   3134.333     93.104
   3135.016     96.105
   3136.002    101.738
   3136.950    102.844
   3138.014    116.400
   3140.139    126.531
   3140.216    132.567
   3140.484    140.862
   3140.712    145.761
   3141.093    152.921
   3141.129    146.127
   3141.168    149.523
   3141.279    140.463
   3141.349    120.838
   3141.458    103.098
   3141.489     78.191
   3141.558     53.660
   3141.821     44.974
   3142.168     66.474
   3142.359     74.016
   3142.666     86.838
   3142.819     91.363
   3143.009     95.131
   3143.277    103.426
   3143.429    105.686
   3143.734    112.848
   3143.849    116.618
   3144.039    121.141
   3144.270    131.701
   3144.536    136.977
   3144.730    152.821
   3145.034    157.341
   3145.075    166.020
   3145.456    174.312
   3145.611    187.893
   3145.837    184.490
   3145.915    190.148
   3146.066    190.899
   3146.068    195.805
   3146.183    200.707
   3146.449    202.587
   3146.485    196.925
   3146.595    182.960
   3146.783    177.294
   3146.893    166.347
   3146.966    154.647
   3147.108    122.944
   3147.137     89.735
   3147.216    101.054
   3147.361     78.030
   3147.436     73.500
   3147.510     67.460
   3147.621     56.513
   3147.694     48.587
   3147.843     40.280
   3148.068     29.708
   3148.255     21.778
   3148.444     19.509
   3148.708     16.483
   3149.503     14.951
   3149.996     13.806
   3150.488     13.792
   3150.829     14.915
   3151.208     15.282
   3151.929     17.527
   3152.498     22.417
   3152.843     37.879
   3153.757     54.459
   3154.105     78.601
   3154.419    118.593
   3154.883    151.411
   3155.111    155.179
   3155.413    152.529
   3155.676    143.842
   3156.014    134.021
   3156.354    129.106
   3156.805    117.396
   3157.183    112.480
   3157.824    102.650
   3158.238     93.582
   3158.655     93.948
   3159.827     82.595
   3160.848     75.397
   3161.831     68.578
   3162.814     62.513
   3163.002     57.979
   3163.266     53.821
   3163.303     50.424
   3163.646     58.339
   3163.990     67.386
   3164.254     63.228
   3164.481     61.712
   3164.783     58.308
   3165.159     47.731
   3165.649     40.548
   3166.026     33.745
   3166.478     22.411
   3166.895     25.419
   3167.086     30.697
   3167.316     40.880
   3167.509     51.818
   3167.586     56.722
   3167.588     65.778
   3167.741     69.171
   3167.819     78.225
   3167.896     83.129
   3167.973     88.410
   3168.165     95.197
   3168.432    103.870
   3168.470    103.868
   3168.849    103.103
   3169.265    100.073
   3169.645    104.214
   3170.023    101.939
   3170.856    100.784
   3171.841    101.135
   3172.749     96.581
   3173.885     95.041
   3174.420    110.876
   3174.761    111.244
   3174.834    100.675
   3174.946     94.257
   3175.204     70.098
   3175.316     61.416
   3175.389     54.244
   3175.694     59.141
   3175.884     63.665
   3176.417     69.688
   3176.796     73.451
   3177.782     75.688
   3178.880     71.507
   3179.826     69.217
   3180.886     64.660
   3181.908     61.613
   3182.777     54.042
   3183.871     38.540
   3184.854     30.211
   3185.797     15.845
   3186.138     15.835
   3186.518     18.467
   3186.974     24.492
   3187.318     36.558
   3187.588     55.042
   3187.973     75.032
   3188.317     86.344
   3188.773     93.124
   3189.153     96.887
   3189.344    101.033
   3189.760    100.267
   3189.871     88.565
   3189.980     70.826
   3190.133     77.615
   3190.244     68.555
   3190.359     73.457
   3190.477     89.681
   3190.630     95.715
   3191.048    100.232
   3191.428    103.617
   3191.846    108.512
   3191.999    113.791
   3192.115    119.448
   3192.340    114.159
   3192.448     93.778
   3192.635     84.339
   3192.745     69.241
   3192.857     63.955
   3193.162     73.003
   3193.393     82.808
   3193.659     86.197
   3194.796     88.053
   3195.895     89.910
   3196.804     89.885
   3197.864     87.969
   3198.849     87.942
   3199.872     86.027
   3200.932     85.998
   3201.994     87.856
   3202.903     89.718
ENDDATA            262
ENDSUBENT          280
SUBENT        C2706004   20220120   20220829   20220825       C214
BIB                  5         10
REACTION   (24-CR-50(P,INL)24-CR-50,PAR,DA)
LEVEL-PROP (24-CR-50,E-LVL=0.783,SPIN=2.,PARITY=+1.)
SAMPLE     The 50Cr targets were deposited onto backings of
           10 mu-g/cm2 of carbon reinforced by a thin layer of
           Formvar.
           (24-CR-50,ENR=0.959)
           (24-CR-52,ENR=0.038)
ERR-ANALYS No information on uncertainties
STATUS     (CURVE) Fig.5 (p.563) in Nucl.Phys.A,175,556,1971 was
           digitized by GSYS2.4.7.
ENDBIB              10
COMMON               2          3
ANG        E-LVL
ADEG       MEV
160.       0.783
ENDCOMMON            3
DATA                 2        246
EN         DATA
MEV        MB/SR
   3104.034      0.672
   3104.982      0.445
   3106.345      0.779
   3106.422      1.792
   3107.065      0.665
   3107.179      1.677
   3107.407      4.716
   3107.445      3.140
   3107.597      5.729
   3107.786      4.152
   3107.937      2.351
   3108.808      0.998
   3109.225      1.222
   3110.513      0.881
   3111.384      1.104
   3112.331      0.876
   3112.673      3.127
   3112.673      4.253
   3112.937      0.875
   3113.733      0.310
   3114.187      0.196
   3114.680      0.758
   3114.983      0.419
   3115.400      0.418
   3115.703      0.418
   3116.195      0.304
   3116.650      0.528
   3116.877      0.527
   3117.370      1.201
   3117.711      2.439
   3117.787      1.088
   3118.506      0.410
   3119.037      0.522
   3119.946      0.407
   3121.007      0.742
   3121.461      0.628
   3121.916      0.739
   3123.053      3.213
   3123.586     10.754
   3123.738     11.992
   3123.965     10.865
   3124.115      5.799
   3124.191      6.812
   3124.342      4.223
   3124.757      0.845
   3125.023      1.745
   3125.363      0.618
   3125.667      0.730
   3126.083      0.504
   3126.500      0.503
   3126.879      0.614
   3128.015      0.499
   3128.925      0.496
   3129.947      0.381
   3130.970      0.491
   3131.918      0.714
   3132.070      2.290
   3132.260      5.553
   3132.412      8.142
   3132.487      4.090
   3132.525      5.440
   3132.789      2.400
   3133.244      1.048
   3133.774      0.709
   3134.153      0.708
   3134.910      0.369
   3135.858      0.817
   3136.880      0.814
   3137.903      1.374
   3138.888      0.809
   3139.912      4.408
   3140.178      6.546
   3140.368      6.996
   3140.634     10.373
   3140.901     15.888
   3140.939     19.602
   3141.055     26.469
   3141.132     31.196
   3141.133     34.573
   3141.248     39.864
   3141.323     36.261
   3141.474     34.235
   3141.548     28.381
   3141.660     23.653
   3141.735     18.475
   3141.847     11.945
   3142.071      3.277
   3142.298      2.263
   3142.601      1.362
   3143.131      1.023
   3143.510      1.472
   3143.851      0.909
   3144.041      2.484
   3144.345      5.185
   3144.496      4.622
   3144.724      6.085
   3144.952      8.673
   3145.066      9.461
   3145.294     12.162
   3145.332     10.923
   3145.560     16.101
   3145.674     17.452
   3145.827     21.278
   3145.865     20.378
   3146.093     22.629
   3146.170     26.681
   3146.246     29.607
   3146.285     31.971
   3146.438     37.487
   3146.552     40.638
   3146.819     45.816
   3147.083     41.200
   3147.234     38.610
   3147.384     35.571
   3147.535     33.769
   3147.572     29.942
   3147.799     26.789
   3147.949     22.849
   3148.137     19.134
   3148.402     15.981
   3148.628     11.140
   3148.855     10.014
   3149.233      6.974
   3149.687      5.397
   3150.065      4.833
   3150.406      2.693
   3150.898      2.579
   3151.201      0.665
   3151.618      1.002
   3152.072      0.888
   3152.337      1.000
   3153.322      1.222
   3154.118      1.220
   3154.648      0.994
   3155.292      1.217
   3155.633      1.216
   3156.353      1.215
   3156.732      1.214
   3157.262      1.212
   3157.793      1.324
   3158.172      1.210
   3158.816      1.208
   3159.763      1.206
   3160.786      0.978
   3161.771      0.976
   3163.059      2.211
   3163.097      2.661
   3163.250      6.037
   3163.477      7.388
   3163.591      6.374
   3163.628      4.798
   3163.703      3.335
   3163.892      1.646
   3164.233      1.645
   3164.612      1.306
   3165.029      1.193
   3165.635      1.078
   3166.014      1.528
   3166.317      1.977
   3166.696      3.890
   3166.962      3.664
   3167.455      5.577
   3167.493      6.477
   3167.757      4.563
   3168.098      3.211
   3168.401      1.409
   3169.196      1.407
   3169.537      0.956
   3169.878      1.405
   3170.712      3.542
   3171.734      1.626
   3172.682      4.100
   3173.629      1.396
   3174.273      4.321
   3174.387      5.109
   3174.501      6.684
   3174.692     11.074
   3174.769     15.126
   3174.846     20.642
   3174.999     24.356
   3175.037     25.707
   3175.264     23.455
   3175.301     19.065
   3175.526     13.886
   3175.563     10.847
   3175.715      9.383
   3175.866      7.469
   3176.206      4.766
   3176.736      3.189
   3177.721      3.412
   3178.137      1.609
   3178.668      4.310
   3179.653      2.506
   3180.676      3.404
   3181.661      3.402
   3182.722      3.511
   3183.327      1.709
   3183.669      3.171
   3184.616      5.195
   3185.639      4.179
   3185.942      5.980
   3186.169      5.191
   3186.700      4.965
   3187.041      4.401
   3187.495      4.738
   3187.798      2.598
   3188.291      3.385
   3188.821      3.158
   3189.124      3.383
   3189.201      8.448
   3189.353     10.136
   3189.544     13.625
   3189.621     19.591
   3189.698     22.405
   3189.812     26.232
   3189.925     22.179
   3190.037     16.438
   3190.112     14.074
   3190.112     14.749
   3190.223      5.519
   3190.564      6.081
   3190.640      3.942
   3190.791      5.067
   3191.094      4.166
   3191.511      3.264
   3191.890      4.389
   3192.042      7.653
   3192.273     18.121
   3192.465     27.576
   3192.690     19.358
   3192.764     15.418
   3192.877     12.378
   3193.028     10.127
   3193.217      8.213
   3193.406      6.524
   3193.709      5.397
   3194.693      3.819
   3195.678      4.041
   3196.587      3.139
   3197.648      3.811
   3198.633      3.358
   3199.580      4.031
   3199.996      2.004
   3200.830      3.240
   3201.588      4.251
   3202.687      4.136
ENDDATA            248
ENDSUBENT          267
SUBENT        C2706005   20220120   20220829   20220825       C214
BIB                  7         30
REACTION  1(24-CR-50(P,0),,EN)
          2(24-CR-50(P,EL),,WID)
          3(24-CR-50(P,INL),,WID)
          4(24-CR-50(P,0),,J)
          5(24-CR-50(P,0),,PTY)
SAMPLE     The 50Cr targets were deposited onto backings of
           10 mu-g/cm2 of carbon reinforced by a thin layer of
           Formvar.
           (24-CR-50,ENR=0.959)
           (24-CR-52,ENR=0.038)
MISC-COL   (MISC1) Reduced width = Gc/2Pc
                  where Gc - the partial width,
                        Pc - the penetrability in channel c.
           (MISC2) Reduced width for inelastic scattering to the
           first-excited state of 52Cr
FLAG       For inelastic scattering to the first-excited state of
           52Cr
           (1.) Channel spin=1.5
           (2.) Channel spin=2.5
ANALYSIS   The elastic and inelastic data were fitted
           simultaneously. Absolute cross sections for the
           inelastic scattering were determined by comparison
           with the elastic data (which were normalized off
           resonance to Rutherford scattering). The non-resonant
           background in the inelastic scattering was subtracted
           before fitting.
ERR-ANALYS (DATA-ERR) No information on sources of uncertainties.
STATUS     (TABLE) Tab.3 (p.564-565) in Nucl.Phys.A,175,556,1971
           (DEP,C2706004)
           (DEP,C2706005)
ENDBIB              30
COMMON               1          3
DATA-ERR  1
KEV
   3.
ENDCOMMON            3
DATA                10        101
DATA      1DATA      2DATA-ERR  2MISC1      DATA      4DATA      5
DATA      3DATA-ERR  3MISC2      FLAG
MEV        EV         EV         KEV        NO-DIM     NO-DIM
EV         EV         KEV        NO-DIM
     1.8091        20.        10.       1.84        0.5        +1.

     1.8916       125.        15.      19.95        0.5        -1.

     1.9400        80.        10.       4.25        0.5        +1.

     1.9539        50.         5.       6.16        0.5        -1.

     2.0263       210.        20.       8.16        0.5        +1.

     2.0388        15.         5.       1.38        1.5        -1.

     2.0615        30.         5.       2.44        0.5        -1.

     2.1077        75.        10.       5.20        1.5        -1.

     2.1330       340.        50.      21.55        1.5        -1.

     2.1574        15.         5.       0.86        1.5        -1.

     2.1792       400.        50.       9.29        0.5        +1.

     2.1997        60.        10.       1.31        0.5        +1.

     2.2335       380.        50.      17.27        0.5        -1.

     2.2947       130.        20.       2.14        0.5        +1.

     2.2972        65.        10.       2.42        0.5        -1.

     2.3194       300.        30.      10.46        0.5        -1.

     2.3293       550.        55.      18.63        1.5        -1.
        25.        10.      25.45         1.
     2.3403        30.        20.       4.75        2.5        +1.
        30.        10.      10.95
     2.3403       650.       100.       9.41        0.5        +1.

     2.3405       600.       100.       8.68        0.5        +1.

     2.3554        50.        10.       1.57        0.5        +1.

     2.4136        80.        20.       2.13        0.5        -1.

     2.4539        45.        15.       1.07        1.5        -1.
        35.        10.      17.63         1.
     2.4920       130.        25.       2.80        1.5        -1.
        20.        10.       8.26         1.
     2.4945        30.        10.       2.96        2.5        +1.
         8.         5.       1.28
     2.5057        20.        10.       1.91        2.5        +1.
        15.         5.       2.27
     2.5191        75.        20.       1.50        0.5        -1.

     2.5206       100.        20.       2.00        0.5        +1.

     2.5376       300.        50.       2.63        0.5        +1.

     2.5495        20.        10.       0.37        0.5        -1.
        10.         5.       3.13
     2.5697         5.         5.       3.40        2.5        +1.
         5.         5.       1.41
     2.5761       125.        15.       1.00        0.5        +1.

     2.6228         8.         5.       0.55        2.5        +1.
         8.         5.       0.71
     2.6283        30.        10.       0.46        0.5        -1.

     2.6541      1200.       100.       8.12        0.5        +1.

     2.6747        40.        15.       0.55        1.5        -1.

     2.6884        30.        10.       1.74        2.5        +1.
       110.        20.       7.39
     2.6946       325.        50.       4.27        1.5        -1.
        25.        10.       4.03         1.
     2.7242        10.         5.       0.12        0.5        -1.

     2.7265       200.        20.       1.16        0.5        +1.

     2.7490       500.        50.       5.82        1.5        -1.
        20.        10.       2.57         1.
     2.7490       500.        50.       5.82        1.5        -1.
        20.        10.       2.57         2.
     2.7617       151.        10.       0.72        2.5        +1.
        15.        10.       0.75
     2.7669        15.        10.       0.71        2.5        +1.
        10.         5.       0.49
     2.7812      1400.       200.      15.19        0.5        -1.
        75.        25.       8.49
     2.7921        55.        15.       0.58        1.5        -1.
        35.        10.       3.80         1.
     2.8056        40.        10.       1.73        2.5        +1.
         5.         5.       0.21
     2.8229       260.        25.       2.58        0.5        -1.

     2.8282       160.        20.       0.76        0.5        +1.

     2.8321         7.         5.       0.41        2.5        +1.

     2.8470        20.        10.       0.19        1.5        -1.

     2.8549        40.        20.       0.37        1.5        -1.
        10.        10.       0.85         1.
     2.8553       800.       150.       7.44        0.5        -1.
       200.        50.      17.07
     2.8637        25.        15.       0.94        2.5        +1.
        25.        15.       0.87
     2.8859        30.        10.       1.08        2.5        +1.
       100.        20.       3.21
     2.9224      3500.       200.      28.47        0.5        -1.

     2.9286        25.        10.       0.81        2.5        +1.
        10.         5.       0.28
     2.9235       435.        50.       3.47        1.5        -1.
       125.        25.       8.10         1.
     2.9235       435.        50.       3.47        1.5        -1.
        40.        10.       2.59         2.
     2.9541       550.        50.       2.10        0.5        +1.
        50.        15.      15.37
     2.9548        10.         5.       0.31        2.5        +1.
         7.         5.       0.18
     2.9599       500.        50.       3.78        1.5        -1.
        75.        20.       4.42         1.
     2.9718        50.        15.       1.48        2.5        +1.
        30.        10.       0.73
     2.9854       500.        50.       3.61        2.5        -1.
        75.        25.       4.06         1.
     2.9854       500.        50.       3.61        0.5        -1.
        75.        25.       4.06         2.
     3.0021       120.        20.       0.84        0.5        -1.
        40.        15.       2.05
     3.0226       100.        20.       0.67        0.5        -1.
        20.        10.       0.96
     3.0292      1350.       150.       8.99        0.5        -1.
       250.        50.       1.73
     3.0370       140.        15.       0.47        0.5        +1.

     3.0431        30.        10.       0.76        2.5        +1.
        50.        15.       0.97
     3.0566        30.        10.       0.69        2.5        +1.
        10.         5.       0.17
     3.0594      3400.       150.      21.44        0.5        -1.
       100.        50.       4.26
     3.0684        75.        20.       0.24        0.5        +1.

     3.0689       200.        25.       1.34        1.5        -1.

     3.0955      1700.       200.       5.15        0.5        +1.

     3.1075        50.        15.       0.29        0.5        -1.
        50.        15.       1.83
     3.1125        75.        20.       0.43        0.5        -1.
        25.        10.       0.90
     3.1174         7.         5.       1.09        2.5        -1.

     3.1237       400.        75.       8.60        2.5        +1.
        40.        10.       0.61
     3.1322        20.        10.       0.42        2.5        +1.
        10.         5.       0.15
     3.1411       225.        50.       4.67        2.5        +1.
       225.        50.       3.29
     3.1467      1250.       150.      25.68        2.5        +1.
       550.       100.       7.92
     3.1540      2000.       200.       5.54        0.5        +1.

     3.1634        50.        15.       0.26        0.5        -1.
       150.        20.       4.66
     3.1668      1400.       300.       7.32        0.5        -1.
       400.        25.      12.28
     3.1754       100.        25.       1.94        2.5        +1.
       400.        50.       5.33
     3.1872      3250.       350.      16.44        0.5        -1.
       250.       100.       7.25
     3.1901        85.        35.       1.60        2.5        +1.
       365.       100.       4.68
     3.1927        80.        25.       1.50        2.5        +1.
       240.        50.       3.05
     3.2148       250.        25.       1.21        0.5        -1.
        25.        10.       0.67
     3.2258        30.        10.       0.53        2.5        +1.
         5.         5.       0.06
     3.2289      1700.       200.       4.23        0.5        +1.

     3.2513        30.        15.       0.50        2.5        +1.
        20.        10.       0.22
     3.2521        20.        10.       0.34        2.5        +1.
        20.        10.       0.22
     3.2562      1000.       100.       2.39        0.5        +1.

     3.2578        20.        10.       0.33        2.5        +1.
        20.        10.       0.22
     3.2616       100.        25.       0.45        0.5        -1.
       100.        25.       2.36
     3.2792        80.        25.       1.28        2.5        +1.
       240.        50.       2.45
     3.2849        10.        10.       0.16        2.5        +1.
        30.        15.       0.30
     3.2873        80.        25.       1.26        2.5        +1.
       400.       100.       4.00
     3.2906       250.        50.       1.07        0.5        -1.
        25.        10.       0.55
ENDDATA            206
ENDSUBENT          245
SUBENT        C2706006   20220120   20220829   20220825       C214
BIB                  4          8
REACTION   (24-CR-54(P,EL)24-CR-54,,DA)
SAMPLE     The 54Cr targets were deposited onto backings of
           10 mu-g/cm2 of carbon reinforced by a thin layer of
           Formvar.
           (24-CR-54,ENR=0.980)
ERR-ANALYS No information on uncertainties
STATUS     (CURVE) Fig.8 (p.569) in Nucl.Phys.A,175,556,1971 was
           digitized by GSYS2.4.7.
ENDBIB               8
NOCOMMON             0          0
DATA                 3        718
ANG        EN         DATA
ADEG       MEV        MB/SR
        90.   1981.888    768.951
        90.   1982.278    786.494
        90.   1982.869    767.841
        90.   1982.979    751.132
        90.   1983.036    768.738
        90.   1983.203    775.197
        90.   1983.443    757.536
        90.   1983.666    777.892
        90.   1983.778    784.361
        90.   1983.850    758.388
        90.   1984.017    764.847
        90.   1984.240    774.077
        90.   1984.444    773.112
        90.   1984.554    764.747
        90.   1984.665    761.018
        90.   1984.869    768.397
        90.   1985.073    762.796
        90.   1985.294    749.775
        90.   1985.405    747.900
        90.   1985.462    768.287
        90.   1985.573    759.922
        90.   1985.685    774.735
        90.   1985.961    755.214
        90.   1986.055    768.177
        90.   1986.222    780.198
        90.   1986.446    794.991
        90.   1986.557    800.533
        90.   1986.666    777.334
        90.   1986.760    782.880
        90.   1986.943    763.376
        90.   1987.184    767.039
        90.   1987.462    763.279
        90.   1987.648    782.715
        90.   1987.850    753.008
        90.   1987.906    757.634
        90.   1988.277    764.055
        90.   1988.480    761.236
        90.   1988.646    750.079
        90.   1989.258    759.237
        90.   1989.943    762.818
        90.   1990.647    768.250
        90.   1991.110    766.310
        90.   1991.295    756.077
        90.   1991.501    796.833
        90.   1991.628    761.578
        90.   1991.777    768.040
        90.   1991.907    768.943
        90.   1992.018    770.777
        90.   1992.148    769.825
        90.   1992.277    762.384
        90.   1992.406    759.579
        90.   1992.684    758.600
        90.   1992.869    760.420
        90.   1993.055    762.240
        90.   1993.276    754.781
        90.   1993.333    765.897
        90.   1993.443    759.386
        90.   1993.758    758.400
        90.   1994.351    765.707
        90.   1994.721    757.294
        90.   1995.166    768.337
        90.   1995.368    748.829
        90.   1995.739    754.323
        90.   1995.925    757.070
        90.   1996.147    754.248
        90.   1996.517    757.887
        90.   1996.684    759.711
        90.   1997.925    757.626
        90.   1998.313    754.772
        90.   1998.907    764.860
        90.   1999.128    753.694
        90.   1999.906    757.258
        90.   2000.536    759.922
        90.   2000.834    776.555
        90.   2000.908    772.833
        90.   2001.055    766.315
        90.   2001.351    761.625
        90.   2001.443    751.409
        90.   2001.665    752.295
        90.   2001.813    752.267
        90.   2001.962    762.438
        90.   2002.165    753.129
        90.   2002.351    756.803
        90.   2002.590    736.361
        90.   2002.758    753.946
        90.   2002.925    758.551
        90.   2003.091    753.884
        90.   2003.314    754.770
        90.   2003.554    752.871
        90.   2003.980    754.646
        90.   2004.164    727.725
        90.   2004.388    755.497
        90.   2004.479    733.229
        90.   2004.554    748.049
        90.   2004.703    753.585
        90.   2004.869    754.481
        90.   2005.110    754.436
        90.   2005.240    760.902
        90.   2005.516    736.745
        90.   2005.704    766.379
        90.   2005.778    772.855
        90.   2006.072    744.986
        90.   2006.147    749.608
        90.   2006.166    765.365
        90.   2006.388    756.053
        90.   2006.555    767.147
        90.   2006.685    762.488
        90.   2006.869    755.036
        90.   2007.147    756.839
        90.   2007.351    755.874
        90.   2007.517    747.499
        90.   2007.702    748.391
        90.   2007.757    730.765
        90.   2007.869    751.142
        90.   2007.999    755.753
        90.   2008.221    751.076
        90.   2008.297    777.950
        90.   2008.389    765.880
        90.   2008.499    751.952
        90.   2008.832    749.108
        90.   2009.295    749.949
        90.   2009.425    752.707
        90.   2009.647    746.176
        90.   2009.888    749.839
        90.   2009.981    753.531
        90.   2010.277    752.548
        90.   2010.388    756.236
        90.   2010.554    750.643
        90.   2010.760    772.856
        90.   2010.981    760.762
        90.   2011.166    757.019
        90.   2011.943    752.239
        90.   2012.092    750.357
        90.   2012.239    747.548
        90.   2012.388    751.229
        90.   2012.666    760.449
        90.   2012.943    745.563
        90.   2013.018    755.748
        90.   2013.148    760.359
        90.   2013.258    752.921
        90.   2013.331    734.365
        90.   2013.388    754.752
        90.   2013.536    756.578
        90.   2013.647    747.286
        90.   2013.852    764.864
        90.   2014.017    737.946
        90.   2014.278    763.858
        90.   2014.462    746.208
        90.   2014.851    757.261
        90.   2014.907    752.615
        90.   2015.017    747.959
        90.   2015.202    744.216
        90.   2015.351    746.970
        90.   2015.553    730.243
        90.   2015.647    747.842
        90.   2015.906    744.085
        90.   2016.055    760.746
        90.   2016.480    742.124
        90.   2016.647    745.802
       120.   1980.952    349.559
       120.   1981.039    349.853
       120.   1981.940    342.414
       120.   1982.027    346.370
       120.   1982.212    346.957
       120.   1982.349    352.128
       120.   1982.755    342.921
       120.   1982.953    342.896
       120.   1982.990    342.586
       120.   1983.186    331.879
       120.   1983.262    340.720
       120.   1983.448    342.528
       120.   1983.559    342.513
       120.   1983.656    337.008
       120.   1983.757    346.150
       120.   1983.930    346.434
       120.   1984.152    343.964
       120.   1984.375    345.462
       120.   1984.573    345.436
       120.   1984.670    339.015
       120.   1984.770    343.885
       120.   1984.906    344.784
       120.   1984.981    347.521
       120.   1985.153    343.532
       120.   1985.337    333.437
       120.   1985.436    337.697
       120.   1985.548    337.683
       120.   1985.671    334.005
       120.   1985.721    340.713
       120.   1985.820    339.479
       120.   1985.868    330.928
       120.   1986.078    333.953
       120.   1986.188    327.225
       120.   1986.236    319.895
       120.   1986.381    301.565
       120.   1986.402    283.862
       120.   1986.535    272.248
       120.   1986.636    281.391
       120.   1986.777    307.619
       120.   1986.905    326.524
       120.   1987.068    339.626
       120.   1987.303    338.681
       120.   1987.365    339.894
       120.   1987.465    345.069
       120.   1987.538    337.735
       120.   1987.674    340.770
       120.   1987.885    343.490
       120.   1987.945    335.852
       120.   1988.108    344.072
       120.   1988.256    344.663
       120.   1988.367    341.597
       120.   1988.505    352.261
       120.   1988.565    345.845
       120.   1988.763    347.346
       120.   1988.998    345.179
       120.   1989.195    343.934
       120.   1989.392    339.941
       120.   1989.578    343.580
       120.   1989.949    342.007
       120.   1990.382    345.004
       120.   1990.765    344.650
       120.   1991.211    349.476
       120.   1991.420    343.956
       120.   1991.582    349.429
       120.   1991.680    347.890
       120.   1991.716    339.646
       120.   1991.899    330.467
       120.   1991.972    322.523
       120.   1992.146    328.605
       120.   1992.222    337.751
       120.   1992.310    346.590
       120.   1992.433    343.522
       120.   1992.496    348.702
       120.   1992.569    341.979
       120.   1992.792    342.561
       120.   1992.965    345.591
       120.   1993.163    345.261
       120.   1993.274    341.890
       120.   1993.411    348.891
       120.   1993.521    344.300
       120.   1993.595    341.849
       120.   1993.792    340.298
       120.   1994.003    341.187
       120.   1994.224    335.360
       120.   1994.374    342.665
       120.   1995.202    341.950
       120.   1995.622    340.065
       120.   1995.795    341.874
       120.   1996.600    347.876
       120.   1996.797    343.883
       120.   1997.216    341.083
       120.   1998.019    338.845
       120.   1998.403    340.017
       120.   1998.638    340.598
       120.   1999.010    347.264
       120.   1999.194    342.358
       120.   1999.416    338.057
       120.   1999.625    332.843
       120.   1999.836    338.004
       120.   2000.059    339.502
       120.   2000.231    337.649
       120.   2000.380    338.545
       120.   2000.639    337.902
       120.   2000.835    330.553
       120.   2000.983    325.956
       120.   2001.128    310.984
       120.   2001.227    311.887
       120.   2001.428    328.036
       120.   2001.479    331.997
       120.   2001.553    333.818
       120.   2001.728    341.731
       120.   2001.825    333.174
       120.   2002.234    341.056
       120.   2002.790    340.375
       120.   2003.012    338.211
       120.   2003.606    341.798
       120.   2003.803    337.500
       120.   2003.988    335.035
       120.   2004.225    342.940
       120.   2004.421    338.032
       120.   2004.570    338.318
       120.   2004.609    346.248
       120.   2004.754    331.581
       120.   2004.853    333.399
       120.   2004.891    335.836
       120.   2005.061    324.217
       120.   2005.208    315.653
       120.   2005.296    321.441
       120.   2005.445    327.220
       120.   2005.533    332.702
       120.   2005.608    336.660
       120.   2005.719    335.731
       120.   2005.805    335.414
       120.   2005.940    329.599
       120.   2006.028    338.133
       120.   2006.126    331.406
       120.   2006.212    329.870
       120.   2006.313    339.928
       120.   2006.411    334.727
       120.   2006.509    331.663
       120.   2006.607    329.819
       120.   2006.681    327.063
       120.   2006.815    318.196
       120.   2006.900    311.166
       120.   2007.001    320.003
       120.   2007.138    324.564
       120.   2007.312    331.256
       120.   2007.411    328.191
       120.   2007.634    335.182
       120.   2007.733    334.559
       120.   2007.893    329.656
       120.   2007.979    328.729
       120.   2008.040    324.754
       120.   2008.125    316.198
       120.   2008.205    285.975
       120.   2008.265    278.948
       120.   2008.282    299.393
       120.   2008.509    319.201
       120.   2008.596    322.242
       120.   2008.709    329.552
       120.   2008.919    333.188
       120.   2008.994    336.840
       120.   2009.243    342.302
       120.   2009.342    342.900
       120.   2009.539    339.213
       120.   2009.636    333.402
       120.   2009.723    334.001
       120.   2009.946    337.635
       120.   2010.008    336.101
       120.   2010.082    334.261
       120.   2010.267    333.322
       120.   2010.341    333.007
       120.   2010.464    329.024
       120.   2010.536    321.690
       120.   2010.676    281.694
       120.   2010.680    299.394
       120.   2010.864    292.656
       120.   2010.978    305.460
       120.   2011.055    322.235
       120.   2011.231    334.115
       120.   2011.293    336.548
       120.   2011.405    337.145
       120.   2011.442    337.140
       120.   2011.702    338.328
       120.   2011.912    338.606
       120.   2011.973    336.767
       120.   2012.096    333.395
       120.   2012.233    339.481
       120.   2012.358    342.822
       120.   2012.517    339.140
       120.   2012.765    339.108
       120.   2012.876    337.873
       120.   2012.926    341.224
       120.   2012.999    339.078
       120.   2013.086    337.847
       120.   2013.395    340.249
       120.   2013.482    342.984
       120.   2013.569    344.499
       120.   2013.705    345.092
       120.   2014.497    346.518
       120.   2014.902    335.480
       120.   2015.298    336.040
       120.   2015.523    349.439
       120.   2015.619    335.083
       120.   2015.928    335.044
       120.   2016.274    336.526
       120.   2016.472    335.585
       135.   1981.901    265.832
       135.   1982.254    267.612
       135.   1982.735    259.220
       135.   1982.878    262.848
       135.   1982.892    257.162
       135.   1983.067    251.779
       135.   1983.083    259.091
       135.   1983.217    257.286
       135.   1983.313    261.722
       135.   1983.366    264.409
       135.   1983.517    266.917
       135.   1983.720    263.190
       135.   1983.880    266.895
       135.   1984.051    266.840
       135.   1984.253    264.589
       135.   1984.421    262.787
       135.   1984.575    263.174
       135.   1984.692    261.387
       135.   1984.845    261.338
       135.   1985.065    259.955
       135.   1985.289    254.016
       135.   1985.388    259.414
       135.   1985.520    252.378
       135.   1985.756    250.991
       135.   1985.979    241.093
       135.   1986.069    228.623
       135.   1986.193    211.533
       135.   1986.302    201.827
       135.   1986.425    179.664
       135.   1986.427    183.815
       135.   1986.522    190.716
       135.   1986.525    203.631
       135.   1986.645    232.207
       135.   1986.716    264.321
       135.   1986.789    277.384
       135.   1986.892    282.094
       135.   1987.030    285.545
       135.   1987.184    289.866
       135.   1987.231    281.983
       135.   1987.300    284.584
       135.   1987.431    276.236
       135.   1987.551    277.510
       135.   1987.617    273.117
       135.   1987.800    266.939
       135.   1987.956    272.570
       135.   1988.143    279.361
       135.   1988.236    275.906
       135.   1988.380    285.313
       135.   1988.429    280.561
       135.   1988.510    275.367
       135.   1988.726    273.144
       135.   1988.942    271.352
       135.   1989.144    273.439
       135.   1989.325    267.783
       135.   1989.480    270.890
       135.   1989.944    269.421
       135.   1990.331    273.917
       135.   1990.763    269.472
       135.   1991.113    268.067
       135.   1991.364    269.035
       135.   1991.627    259.288
       135.   1991.646    272.100
       135.   1991.741    254.329
       135.   1991.889    251.073
       135.   1992.023    265.808
       135.   1992.135    266.710
       135.   1992.293    273.693
       135.   1992.418    278.160
       135.   1992.575    274.504
       135.   1992.694    272.603
       135.   1992.954    273.017
       135.   1993.219    268.887
       135.   1993.381    273.399
       135.   1993.569    269.224
       135.   1993.815    272.300
       135.   1993.988    267.737
       135.   1994.163    267.680
       135.   1994.424    266.243
       135.   1994.792    267.477
       135.   1995.159    265.104
       135.   1995.352    265.042
       135.   1995.592    275.297
       135.   1995.789    264.451
       135.   1996.190    263.419
       135.   1996.366    264.264
       135.   1996.839    265.463
       135.   1997.101    265.379
       135.   1997.204    263.468
       135.   1997.607    262.510
       135.   1998.393    262.787
       135.   1998.541    263.682
       135.   1998.969    264.065
       135.   1999.915    260.661
       135.   2000.341    256.431
       135.   2000.581    252.697
       135.   2000.784    247.124
       135.   2001.001    227.711
       135.   2001.090    216.625
       135.   2001.112    228.152
       135.   2001.326    259.017
       135.   2001.364    261.778
       135.   2001.459    269.601
       135.   2001.554    277.425
       135.   2001.644    267.261
       135.   2001.959    265.819
       135.   2002.183    267.623
       135.   2002.591    265.702
       135.   2002.812    259.665
       135.   2002.943    263.331
       135.   2003.221    260.973
       135.   2003.351    262.333
       135.   2003.629    259.976
       135.   2003.777    258.103
       135.   2004.000    256.217
       135.   2004.168    260.337
       135.   2004.281    265.852
       135.   2004.446    258.902
       135.   2004.650    257.481
       135.   2004.778    251.000
       135.   2005.017    242.653
       135.   2005.184    242.622
       135.   2005.337    257.815
       135.   2005.413    261.953
       135.   2005.507    265.625
       135.   2005.598    260.073
       135.   2005.746    259.585
       135.   2005.900    261.633
       135.   2006.024    257.688
       135.   2006.192    258.119
       135.   2006.283    254.412
       135.   2006.338    250.712
       135.   2006.487    252.990
       135.   2006.726    243.260
       135.   2006.795    227.564
       135.   2006.873    239.542
       135.   2006.988    251.514
       135.   2007.065    259.803
       135.   2007.289    263.451
       135.   2007.419    264.350
       135.   2007.565    254.175
       135.   2007.601    250.478
       135.   2007.714    255.070
       135.   2007.804    244.906
       135.   2007.845    258.736
       135.   2007.896    242.583
       135.   2007.985    229.651
       135.   2008.149    219.934
       135.   2008.434    242.022
       135.   2008.495    260.000
       135.   2008.721    270.106
       135.   2008.853    275.617
       135.   2008.966    281.131
       135.   2009.094    274.650
       135.   2009.260    272.313
       135.   2009.402    269.064
       135.   2009.522    264.068
       135.   2009.685    262.548
       135.   2009.815    263.907
       135.   2009.907    261.584
       135.   2009.999    258.338
       135.   2010.258    252.756
       135.   2010.404    246.732
       135.   2010.566    229.636
       135.   2010.786    218.064
       135.   2010.864    231.426
       135.   2010.966    262.772
       135.   2011.043    270.138
       135.   2011.137    274.734
       135.   2011.214    283.945
       135.   2011.417    279.756
       135.   2011.583    276.496
       135.   2011.824    272.762
       135.   2011.991    272.270
       135.   2012.343    270.821
       135.   2012.493    274.483
       135.   2012.715    273.059
       135.   2012.845    271.651
       135.   2013.012    272.542
       135.   2013.141    268.829
       135.   2013.363    265.559
       135.   2013.532    272.908
       135.   2014.050    265.893
       135.   2014.312    271.841
       135.   2014.700    264.851
       135.   2014.924    268.961
       135.   2015.128    267.539
       135.   2015.351    266.576
       135.   2015.518    266.084
       135.   2015.685    266.053
       135.   2016.762    264.470
       160.   1981.985    206.025
       160.   1982.338    203.472
       160.   1982.757    197.985
       160.   1982.859    198.391
       160.   1983.026    192.099
       160.   1983.162    197.935
       160.   1983.212    193.748
       160.   1983.315    203.769
       160.   1983.350    207.527
       160.   1983.569    212.098
       160.   1983.653    205.817
       160.   1983.752    200.369
       160.   1983.955    201.599
       160.   1984.124    203.668
       160.   1984.376    200.292
       160.   1984.543    193.582
       160.   1984.661    197.330
       160.   1984.846    196.888
       160.   1985.351    188.465
       160.   1985.468    185.106
       160.   1985.619    180.488
       160.   1985.853    173.353
       160.   1985.919    169.164
       160.   1986.036    161.206
       160.   1986.101    149.910
       160.   1986.232    131.082
       160.   1986.365    119.778
       160.   1986.451    132.308
       160.   1986.465    115.585
       160.   1986.559    164.067
       160.   1986.675    242.229
       160.   1986.765    268.973
       160.   1986.873    301.150
       160.   1987.018    265.179
       160.   1987.282    241.736
       160.   1987.334    246.746
       160.   1987.516    232.927
       160.   1987.533    230.417
       160.   1987.683    227.889
       160.   1987.919    222.843
       160.   1988.256    226.982
       160.   1988.560    228.617
       160.   1988.727    221.071
       160.   1988.996    218.529
       160.   1989.148    219.346
       160.   1989.350    217.648
       160.   1989.670    216.773
       160.   1989.939    216.321
       160.   1990.344    218.361
       160.   1990.747    212.458
       160.   1991.135    209.484
       160.   1991.336    207.368
       160.   1991.520    202.328
       160.   1991.755    193.520
       160.   1991.821    191.003
       160.   1991.975    203.525
       160.   1992.097    225.667
       160.   1992.167    232.348
       160.   1992.333    224.384
       160.   1992.687    220.995
       160.   1992.972    217.197
       160.   1993.173    211.738
       160.   1993.224    215.494
       160.   1993.493    212.116
       160.   1993.931    212.897
       160.   1994.758    216.557
       160.   1994.992    211.093
       160.   1995.178    211.070
       160.   1995.346    209.795
       160.   1995.549    209.351
       160.   1996.020    208.038
       160.   1996.189    208.853
       160.   1996.358    208.833
       160.   1996.576    210.478
       160.   1996.728    209.204
       160.   1997.166    209.986
       160.   1997.554    208.266
       160.   1997.957    205.707
       160.   1998.446    205.228
       160.   1998.716    205.613
       160.   1998.968    203.909
       160.   1999.187    203.045
       160.   1999.355    203.442
       160.   1999.725    200.888
       160.   2000.162    197.489
       160.   2000.381    194.118
       160.   2000.516    192.846
       160.   2000.848    170.230
       160.   2001.050    171.877
       160.   2001.156    196.111
       160.   2001.283    235.393
       160.   2001.484    231.187
       160.   2001.735    222.377
       160.   2002.137    215.219
       160.   2002.355    211.012
       160.   2002.540    210.153
       160.   2002.760    209.289
       160.   2002.962    206.337
       160.   2003.180    205.474
       160.   2003.383    205.031
       160.   2003.601    202.914
       160.   2003.753    204.985
       160.   2004.191    204.930
       160.   2004.409    198.632
       160.   2004.593    196.101
       160.   2004.761    189.810
       160.   2004.878    187.704
       160.   2004.928    178.919
       160.   2005.185    202.716
       160.   2005.288    215.663
       160.   2005.508    217.308
       160.   2005.725    205.994
       160.   2005.876    203.466
       160.   2006.026    199.267
       160.   2006.043    194.666
       160.   2006.144    199.671
       160.   2006.262    195.475
       160.   2006.344    188.358
       160.   2006.495    185.413
       160.   2006.694    170.338
       160.   2006.835    199.166
       160.   2006.923    216.295
       160.   2006.993    230.082
       160.   2007.208    212.080
       160.   2007.476    201.176
       160.   2007.643    191.540
       160.   2007.742    184.421
       160.   2007.824    174.795
       160.   2007.956    159.729
       160.   2008.188    142.978
       160.   2008.250    193.137
       160.   2008.428    245.790
       160.   2008.764    237.805
       160.   2009.065    229.824
       160.   2009.635    213.031
       160.   2009.769    207.580
       160.   2009.920    204.216
       160.   2010.037    201.276
       160.   2010.154    193.736
       160.   2010.269    184.524
       160.   2010.351    173.644
       160.   2010.517    158.156
       160.   2010.653    168.172
       160.   2010.941    257.600
       160.   2010.971    261.045
       160.   2011.161    260.081
       160.   2011.343    244.591
       160.   2011.510    236.627
       160.   2011.912    224.453
       160.   2012.653    226.869
       160.   2012.838    221.830
       160.   2012.973    221.813
       160.   2013.226    221.781
       160.   2013.394    219.252
       160.   2015.010    214.870
       160.   2015.314    217.759
       160.   2015.532    215.223
       160.   2016.005    218.927
       160.   2016.223    215.973
       160.   2016.391    213.026
       160.   2016.645    215.921
       160.   2016.847    215.477
ENDDATA            720
ENDSUBENT          733
SUBENT        C2706007   20220120   20220829   20220825       C214
BIB                  6         21
REACTION  1(24-CR-54(P,0),,EN)
          2(24-CR-54(P,EL),,WID)
          3(24-CR-54(P,N),,WID)
          4(24-CR-54(P,0),,J)
          5(24-CR-54(P,0),,PTY)
SAMPLE     The 54Cr targets were deposited onto backings of
           10 mu-g/cm2 of carbon reinforced by a thin layer of
           Formvar.
           (24-CR-54,ENR=0.980)
MISC-COL   (MISC1) Reduced width = Gc/2Pc
                  where Gc - the partial width,
                        Pc - the penetrability in channel c.
           (MISC2) Neutron reduced width
ERR-ANALYS (DATA-ERR) No information on sources of uncertainties.
ANALYSIS   The neutron reduced widths were calculated assuming
           that 1.5- resonances decay exclusively to the 3+
           ground state of 54Mn and that 0.5+ and 0.5-
           resonances decay exclusively to the 2+ first excited
           state (55 keV) of 54Mn.
STATUS     (TABLE) Tab.4 (p.570) in Nucl.Phys.A,175,556,1971
           (DEP,C2706006)
ENDBIB              21
COMMON               1          3
DATA-ERR  1
KEV
   3.
ENDCOMMON            3
DATA                 9         88
DATA      1DATA      2DATA-ERR  2MISC1      DATA      3DATA-ERR  3
MISC2      DATA      4DATA      5
MEV        EV         EV         EV         EV         EV
EV         NO-DIM     NO-DIM
     1.9833        10.         5.       1.00
                   1.5        -1.
     1.9867       115.        10.      10.97
                   1.5        -1.
     1.9920        20.         5.       1.87
                   1.5        -1.
     2.0012        40.         5.       3.61
                   1.5        -1.
     2.0052        20.         5.       1.78
                   1.5        -1.
     2.0069        25.         5.       2.21
                   1.5        -1.
     2.0084        55.         5.       4.83
                   1.5        -1.
     2.0108        65.        10.       5.65
                   1.5        -1.
     2.0415        30.         5.       0.94
                   0.5        +1.
     2.0605        10.         5.       0.31
                   0.5        +1.
     2.0684        30.         5.       0.89
                   0.5        +1.
     2.0846        25.         5.       0.73
                   0.5        +1.
     2.1454       100.        15.       2.31
                   0.5        +1.
     2.1666        30.         5.       0.65
                   0.5        +1.
     2.1798        30.         5.       0.62
                   0.5        +1.
     2.1890        10.         5.       0.20
                   0.5        +1.
     2.2036        60.        10.       1.16
                   0.5        +1.
     2.2240        35.         5.       0.63
                   0.5        +1.
     2.2285        15.         5.       0.27
                   0.5        +1.
     2.2326        30.         5.       0.53
                   0.5        +1.
     2.2410        80.        10.       1.38
                   0.5        +1.
     2.2564        25.         5.       0.41
                   0.5        +1.
     2.2599        70.        10.       2.58
                   0.5        -1.
     2.2642       195.        20.       7.01
                   0.5        -1.
     2.2664        10.         5.       0.16
                   0.5        +1.
     2.2679        75.        10.        2.7
                   0.5        -1.
     2.2703         5.         5.       0.18
                   0.5        -1.
     2.2746        45.         5.       1.59
                   0.5        -1.
     2.2799       125.        15.       1.92
                   0.5        +1.
     2.2861        50.         5.       0.76
                   0.5        +1.
     2.2954        70.        10.       1.03
                   0.5        +1.
     2.3010        50.         5.       0.72
                   0.5        +1.
     2.3100        35.         5.       0.49         5.         5.
       1.88        0.5        +1.
     2.3132        45.         5.       0.63         1.         1.
       0.35        0.5        +1.
     2.3231        70.        10.       0.95         5.         5.
       1.41        0.5        +1.
     2.3301        40.         5.       0.53         5.         5.
       1.23        0.5        +1.
     2.3558        10.         5.       0.12         1.         1.
       0.10        0.5        +1.
     2.3637        15.         5.       0.41         5.         5.
       0.04        0.5        -1.
     2.3789        40.        10.       0.47         5.         5.
       0.55        0.5        +1.
     2.3840        45.        10.       0.52        45.        15.
       4.66        0.5        +1.
     2.3938        15.         5.       0.17        10.         5.
       0.91        0.5        +1.
     2.3970        50.         5.       0.56         5.         5.
       0.44        0.5        +1.
     2.4023        60.        10.       0.66        40.        10.
       3.28        0.5        +1.
     2.4045        75.        15.       0.82        50.        15.
       4.00        0.5        +1.
     2.4181        75.        15.       0.79        75.        15.
       5.13        0.5        +1.
     2.4228        20.        10.       0.46       180.        50.
       0.56        1.5        -1.
     2.4325       100.        15.       1.02        30.        10.
       1.76        0.5        +1.
     2.4708        80.        10.       0.74        80.        15.
       3.25        0.5        +1.
     2.4921        50.        15.       0.44       200.        50.
       6.80        0.5        +1.
     2.5309       125.        25.       1.00        40.        15.
       1.01        0.5        +1.
     2.5320        40.        15.       0.69        40.        20.
       0.10        0.5        -1.
     2.5426        40.        10.       0.67        15.         5.
       0.03        0.5        -1.
     2.5443       100.        20.       0.78       100.        20.
       3.49        0.5        +1.
     2.5456        90.        20.       0.70        10.         5.
       0.35        0.5        +1.
     2.5481       120.        25.       0.93        15.         5.
       0.51        0.5        +1.
     2.5563        10.         5.       0.16         2.         2.
       0.00        0.5        -1.
     2.5569        10.         5.       0.16        30.        10.
       0.06        0.5        -1.
     2.5630        50.        25.       0.37       100.        50.
       3.01        0.5        +1.
     2.5646        75.        25.       1.19       200.       100.
       0.42        0.5        -1.
     2.5676        75.        25.       0.55       250.       100.
       7.27        0.5        +1.
     2.5746       340.        50.       2.47        80.        30.
       2.21        0.5        +1.
     2.5831        25.        10.       0.38        70.        35.
       0.14        0.5        -1.
     2.5899        45.        10.       0.32       100.        30.
       1.73        0.5        +1.
     2.5921        30.        10.       0.44        70.        20.
       0.11        1.5        -1.
     2.5970        10.         5.       0.15        80.        25.
       0.13        1.5        -1.
     2.5981        40.        15.       0.58       150.        50.
       0.23        1.5        -1.
     2.5999        30.        10.       0.44         5.         5.
       0.01        1.5        -1.
     2.6028        30.        15.       0.20        10.         5.
       0.16        0.5        +1.
     2.6038        30.        10.       0.43       140.        50.
       0.22        1.5        -1.
     2.6078       175.        30.       1.18        30.        15.
       0.47        0.5        +1.
     2.6081        80.        20.       1.14        80.        25.
       0.12        1.5        -1.
     2.6086       225.        50.       3.20        50.        15.
       0.08        1.5        -1.
     2.6115       125.        30.       1.77       325.       100.
       0.49        1.5        -1.
     2.6184        10.         5.       0.14        20.        10.
       0.03        1.5        -1.
     2.6203        25.        10.       0.16         5.         5.
       0.07        0.5        +1.
     2.6383        20.        10.       0.26        40.        15.
       0.07        0.5        -1.
     2.6422       100.        20.       0.63       200.        50.
       2.59        0.5        +1.
     2.6425       200.        10.       0.26        50.        25.
       0.07        1.5        +1.
     2.6470        10.         5.       0.13        50.        20.
       0.08        0.5        -1.
     2.6496        30.        10.       0.39        50.        25.
       0.08        0.5        -1.
     2.6520        35.        10.       0.21        65.        20.
       0.80        0.5        +1.
     2.6543        30.        10.       0.18        90.        30.
       1.10        0.5        +1.
     2.6622        10.         5.       0.13        75.        25.
       0.10        1.5        -1.
     2.7761        65.        15.       0.39        75.        20.
       0.86        0.5        +1.
     2.6700        50.        20.       0.29       100.        25.
       1.13        0.5        +1.
     2.6813        40.        10.       0.48       120.        30.
       0.17        0.5        -1.
     2.6829       125.        25.       0.72       300.        75.
       3.20        0.5        +1.
     2.6855        40.        10.       0.23       100.        25.
       1.05        0.5        +1.
ENDDATA            180
ENDSUBENT          210
ENDENTRY             7
