ENTRY            C2711   20220305   20220829   20220825       C214
SUBENT        C2711001   20220305   20220829   20220825       C214
BIB                  8         16
TITLE      Production of 6Li, 9Be, and 10B in p+13C reactions at
           low energies
AUTHOR     (D.L.Oberg,D.Bodansky,D.Chamberlin,W.W.Jacobs)
REFERENCE  (J,PR/C,11,410,1975)
           #doi:10.1103/PhysRevC.11.410
INSTITUTE  (1USAWAU)
FACILITY   (VDGT,1USAWAU)
DETECTOR   (SIBAR) Two identical detector systems, separated by
           10 degrees. Each system consisted of a surface barrier
           transmission detector, 200 mu-m thick and 300 mm2 in
           area, followed by a lithium drifted silicon veto
           detector, 2 mm thick and 400 mm2 in area.
SAMPLE     Self-supporting carbon foils made by evaporation of
           enriched (90% to 95% 13C) amorphous carbon. Foil
           thicknesses were between 10 and 20 mu-g/cm2.
HISTORY    (20220302C) OG
ENDBIB              16
NOCOMMON             0          0
ENDSUBENT           19
SUBENT        C2711002   20220305   20220829   20220825       C214
BIB                  3          7
REACTION   (6-C-13(P,A)5-B-10,PAR,DA)
ERR-ANALYS (DATA-ERR) Standard deviations. Given in the graph when
           the uncertainties exceed 10%.
STATUS     (CURVE) Fig.4 (p.414) in Phys.Rev.C,11,410,1975 was
           digitized by GSYS2.4.7.
           (COREL,C2711003) Angular distributions at several
                            energies
ENDBIB               7
COMMON               1          3
ANG
ADEG
40.
ENDCOMMON            3
DATA                 4        474
E-LVL      EN         DATA       DATA-ERR
MEV        MEV        MB/SR      MB/SR
         0.      5.500  3.057E-02  9.577E-03
         0.      5.614  6.113E-02  1.146E-02
         0.      5.720  6.181E-02  1.060E-02
         0.      5.801  2.888E-01
         0.      5.910  1.015E-01
         0.      6.005  1.893E-01
         0.      6.088  1.488E+00
         0.      6.151  2.430E+00
         0.      6.209  1.141E+00
         0.      6.308  4.290E-01
         0.      6.413  4.423E-01
         0.      6.507  8.252E-01
         0.      6.602  1.840E+00
         0.      6.658  1.760E+00
         0.      6.707  1.611E+00
         0.      6.812  9.315E-01
         0.      6.917  7.688E-01
         0.      7.013  1.183E+00
         0.      7.101  1.373E+00
         0.      7.157  1.570E+00
         0.      7.197  1.742E+00
         0.      7.316  2.564E+00
         0.      7.403  4.377E+00
         0.      7.493  2.606E+00
         0.      7.501  2.606E+00
         0.      7.606  1.911E+00
         0.      7.718  2.319E+00
         0.      7.806  2.856E+00
         0.      7.907  1.086E+01
         0.      7.970  1.909E+01
         0.      8.020  9.098E+00
         0.      8.119  3.472E+00
         0.      8.225  1.810E+00
         0.      8.306  1.428E+00
         0.      8.419  1.289E+00
         0.      8.515  1.611E+00
         0.      8.626  2.710E+00
         0.      8.713  3.929E+00
         0.      8.801  4.427E+00
         0.      8.914  4.702E+00
         0.      9.010  4.434E+00
         0.      9.123  4.572E+00
         0.      9.219  5.307E+00
         0.      9.322  9.195E+00
         0.      9.418  1.184E+01
         0.      9.515  8.179E+00
         0.      9.628  7.163E+00
         0.      9.708  6.755E+00
         0.      9.829  6.278E+00
         0.      9.910  5.417E+00
         0.     10.030  6.105E+00
         0.     10.110  8.218E+00
         0.     10.214  7.985E+00
         0.     10.318  8.232E+00
         0.     10.415  6.794E+00
         0.     10.512  6.313E+00
         0.     10.624  6.806E+00
         0.     10.713  6.324E+00
         0.     10.809  5.538E+00
         0.     10.921  6.924E+00
         0.     11.018  6.154E+00
         0.     11.123  6.251E+00
         0.     11.211  5.394E+00
         0.     11.333  4.013E+00
         0.     11.429  4.137E+00
         0.     11.518  3.517E+00
         0.     11.614  3.572E+00
         0.     11.719  2.619E+00
         0.     11.808  2.036E+00
         0.     11.913  1.515E+00
         0.     12.018  1.562E+00
         0.     12.106  1.540E+00
         0.     12.218  1.710E+00
         0.     12.323  1.543E+00
         0.     12.419  2.108E+00
         0.     12.508  1.689E+00
         0.     12.611  2.208E+00
         0.     12.708  2.563E+00
         0.     12.804  2.346E+00
         0.     12.909  2.117E+00
         0.     13.029  2.531E+00
         0.     13.117  3.212E+00
         0.     13.157  2.939E+00
         0.     13.213  3.214E+00
         0.     13.286  2.537E+00
         0.     13.415  2.465E+00
         0.     13.527  2.504E+00
         0.     13.600  2.036E+00
         0.     13.729  1.810E+00
         0.     13.825  2.010E+00
         0.     13.921  2.072E+00
         0.     14.034  2.267E+00
         0.     14.098  1.984E+00
         0.     14.226  2.171E+00
         0.     14.323  1.819E+00
         0.     14.420  1.690E+00
         0.     14.525  1.525E+00
         0.     14.605  1.335E+00
         0.     14.726  1.397E+00
         0.     14.830  1.338E+00
         0.     14.943  1.225E+00
         0.     15.039  1.244E+00
         0.     15.128  1.245E+00
         0.     15.248  1.322E+00
         0.     15.321  1.229E+00
         0.     15.417  1.211E+00
         0.     15.521  1.406E+00
         0.     15.610  1.307E+00
         0.     15.738  1.347E+00
         0.     15.843  1.252E+00
         0.     15.914  1.762E+00
         0.     16.028  1.254E+00
         0.     16.124  1.372E+00
         0.     16.220  1.219E+00
         0.     16.325  1.133E+00
         0.     16.430  1.117E+00
         0.     16.526  9.642E-01
         0.     16.631  1.055E+00
         0.     16.727  1.224E+00
         0.     16.831  1.105E+00
         0.     16.928  1.139E+00
         0.     17.032  1.246E+00
         0.     17.112  1.284E+00
         0.     17.217  1.211E+00
         0.     17.321  1.249E+00
         0.     17.426  1.268E+00
         0.     17.514  1.269E+00
         0.     17.602  1.179E+00
         0.     17.715  1.181E+00
         0.     17.811  1.235E+00
         0.     17.908  1.066E+00
         0.     18.012  1.083E+00
       0.72      6.100  1.975E-02  6.153E-03
       0.72      6.161  1.955E-02  5.078E-03
       0.72      6.222  2.031E-02  6.275E-03
       0.72      6.316  4.044E-02  1.019E-02
       0.72      6.413  5.944E-02  1.017E-02
       0.72      6.516  1.412E-01  1.446E-02
       0.72      6.619  3.666E-01
       0.72      6.674  5.908E-01
       0.72      6.714  5.485E-01
       0.72      6.827  5.826E-01
       0.72      6.930  8.981E-01
       0.72      7.026  1.344E+00
       0.72      7.113  2.832E+00
       0.72      7.193  3.338E+00
       0.72      7.209  3.008E+00
       0.72      7.322  2.555E+00
       0.72      7.402  2.235E+00
       0.72      7.523  1.496E+00
       0.72      7.612  1.348E+00
       0.72      7.732  1.543E+00
       0.72      7.828  2.111E+00
       0.72      7.924  2.680E+00
       0.72      7.980  2.924E+00
       0.72      8.036  3.285E+00
       0.72      8.101  2.806E+00
       0.72      8.213  2.383E+00
       0.72      8.318  1.571E+00
       0.72      8.423  1.375E+00
       0.72      8.527  1.504E+00
       0.72      8.615  2.152E+00
       0.72      8.737  2.585E+00
       0.72      8.807  2.286E+00
       0.72      8.920  2.188E+00
       0.72      9.025  1.601E+00
       0.72      9.121  1.752E+00
       0.72      9.233  2.326E+00
       0.72      9.320  4.977E+00
       0.72      9.432  6.810E+00
       0.72      9.513  5.530E+00
       0.72      9.593  4.767E+00
       0.72      9.737  5.140E+00
       0.72      9.858  5.459E+00
       0.72      9.922  5.380E+00
       0.72     10.010  5.303E+00
       0.72     10.131  5.151E+00
       0.72     10.219  4.574E+00
       0.72     10.339  5.639E+00
       0.72     10.428  5.476E+00
       0.72     10.532  4.651E+00
       0.72     10.629  3.892E+00
       0.72     10.709  4.519E+00
       0.72     10.814  4.522E+00
       0.72     10.918  4.524E+00
       0.72     11.031  3.900E+00
       0.72     11.143  3.362E+00
       0.72     11.224  2.460E+00
       0.72     11.344  2.319E+00
       0.72     11.433  2.463E+00
       0.72     11.529  2.616E+00
       0.72     11.617  2.696E+00
       0.72     11.706  2.738E+00
       0.72     11.818  2.191E+00
       0.72     11.899  1.779E+00
       0.72     12.012  1.138E+00
       0.72     12.133  9.110E-01
       0.72     12.245  7.853E-01
       0.72     12.317  1.043E+00
       0.72     12.430  1.158E+00
       0.72     12.534  1.249E+00
       0.72     12.622  1.428E+00
       0.72     12.718  1.472E+00
       0.72     12.815  1.347E+00
       0.72     12.919  1.636E+00
       0.72     13.023  1.589E+00
       0.72     13.120  1.566E+00
       0.72     13.192  1.714E+00
       0.72     13.224  1.433E+00
       0.72     13.320  1.413E+00
       0.72     13.416  1.768E+00
       0.72     13.512  2.084E+00
       0.72     13.625  2.054E+00
       0.72     13.713  1.965E+00
       0.72     13.801  2.118E+00
       0.72     13.898  1.670E+00
       0.72     14.019  1.483E+00
       0.72     14.115  1.575E+00
       0.72     14.228  1.260E+00
       0.72     14.340  1.206E+00
       0.72     14.421  1.171E+00
       0.72     14.525  1.137E+00
       0.72     14.637  1.121E+00
       0.72     14.734  1.139E+00
       0.72     14.822  1.090E+00
       0.72     14.924  8.578E-01  1.148E-01
       0.72     15.023  7.742E-01  1.178E-01
       0.72     15.136  7.633E-01  8.569E-02
       0.72     15.227  6.240E-01  7.871E-02
       0.72     15.333  5.628E-01  8.798E-02
       0.72     15.445  5.237E-01  7.082E-02
       0.72     15.513  3.152E-01  7.944E-02
       0.72     15.613  3.462E-01  5.293E-02
       0.72     15.725  4.219E-01  8.255E-02
       0.72     15.825  4.310E-01  7.340E-02
       0.72     15.920  3.807E-01  6.154E-02
       0.72     16.032  3.543E-01  5.418E-02
       0.72     16.127  3.508E-01  4.104E-02
       0.72     16.234  3.659E-01  3.943E-02
       0.72     16.329  2.738E-01  5.361E-02
       0.72     16.429  3.779E-01  4.420E-02
       0.72     16.535  3.982E-01  7.794E-02
       0.72     16.619  3.306E-01  3.869E-02
       0.72     16.731  3.377E-01  4.566E-02
       0.72     16.820  3.787E-01  5.789E-02
       0.72     16.921  3.909E-01  6.318E-02
       0.72     17.033  3.418E-01  4.925E-02
       0.72     17.133  3.640E-01  5.886E-02
       0.72     17.228  4.211E-01  4.928E-02
       0.72     17.307  3.388E-01  6.060E-02
       0.72     17.429  4.486E-01  6.464E-02
       0.72     17.530  3.188E-01  8.280E-02
       0.72     17.609  2.336E-01  4.958E-02
       0.72     17.715  3.061E-01  6.246E-02
       0.72     17.800  1.768E-01  5.380E-02
       0.72     17.922  2.543E-01  4.978E-02
       0.72     18.017  1.984E-01  6.038E-02
       1.74      7.213  2.821E-02  8.791E-03
       1.74      7.313  3.932E-02  1.021E-02
       1.74      7.442  5.653E-02  9.627E-03
       1.74      7.515  1.408E-01
       1.74      7.621  2.851E-02  8.883E-03
       1.74      7.738  8.648E-02  8.521E-03
       1.74      7.828  2.110E-01
       1.74      7.912  3.162E-01
       1.74      7.973  4.098E-01
       1.74      8.057  4.141E-01
       1.74      8.129  2.707E-01
       1.74      8.230  6.142E-01
       1.74      8.347  7.716E-01
       1.74      8.459  9.015E-01
       1.74      8.543  1.075E+00
       1.74      8.638  1.231E+00
       1.74      8.744  1.365E+00
       1.74      8.823  1.243E+00
       1.74      8.929  1.109E+00
       1.74      9.052  1.133E+00
       1.74      9.147  1.144E+00
       1.74      9.247  1.032E+00
       1.74      9.359  1.032E+00
       1.74      9.426  8.830E-01
       1.74      9.549  7.176E-01
       1.74      9.644  6.078E-01
       1.74      9.722  4.642E-01
       1.74      9.834  4.838E-01
       1.74      9.929  3.544E-01
       1.74     10.024  3.097E-01
       1.74     10.130  4.184E-01
       1.74     10.231  4.690E-01
       1.74     10.320  3.656E-01
       1.74     10.438  3.656E-01
       1.74     10.538  2.415E-01  6.086E-02
       1.74     10.639  2.046E-01  3.307E-02
       1.74     10.728  5.831E-01
       1.74     10.840  1.133E+00
       1.74     10.930  1.530E+00
       1.74     11.047  1.662E+00
       1.74     11.136  1.942E+00
       1.74     11.231  2.851E+00
       1.74     11.343  3.772E+00
       1.74     11.427  4.228E+00
       1.74     11.544  3.811E+00
       1.74     11.634  3.262E+00
       1.74     11.746  2.651E+00
       1.74     11.852  3.097E+00
       1.74     11.930  2.154E+00
       1.74     12.036  1.983E+00
       1.74     12.126  2.024E+00
       1.74     12.232  1.697E+00
       1.74     12.338  2.132E+00
       1.74     12.433  1.942E+00
       1.74     12.539  1.883E+00
       1.74     12.618  1.530E+00
       1.74     12.729  1.578E+00
       1.74     12.841  1.296E+00
       1.74     12.942  9.694E-01
       1.74     13.048  8.211E-01
       1.74     13.137  1.098E+00
       1.74     13.171  8.297E-01
       1.74     13.244  1.000E-00
       1.74     13.327  1.021E+00
       1.74     13.428  8.559E-01
       1.74     13.529  7.636E-01
       1.74     13.618  5.712E-01
       1.74     13.747  5.479E-01
       1.74     13.836  3.973E-01  6.075E-02
       1.74     13.942  2.491E-01  2.686E-02
       1.74     14.032  5.479E-02  1.295E-02
       1.74     14.121  3.544E-02  1.155E-02
       1.74     14.233  3.544E-02  1.053E-02
       1.74     14.333  1.144E-01  2.933E-02
       1.74     14.417  3.034E-01  5.938E-02
       1.74     14.540  4.014E-01  6.273E-02
       1.74     14.630  4.940E-01
       1.74     14.730  6.604E-01
       1.74     14.842  7.402E-01
       1.74     14.948  6.956E-01
       1.74     15.032  9.397E-01
       1.74     15.133  8.830E-01
       1.74     15.233  6.206E-01
       1.74     15.323  4.098E-01
       1.74     15.457  4.056E-01
       1.74     15.546  4.991E-01
       1.74     15.641  5.043E-01
       1.74     15.759  5.203E-01
       1.74     15.843  5.653E-01
       1.74     15.954  5.954E-01
       1.74     16.061  6.402E-01
       1.74     16.150  7.028E-01
       1.74     16.245  7.402E-01
       1.74     16.334  6.142E-01
       1.74     16.457  7.102E-01
       1.74     16.547  6.743E-01
       1.74     16.619  5.771E-01
       1.74     16.742  4.788E-01
       1.74     16.826  5.771E-01
       1.74     16.916  5.771E-01
       1.74     17.039  5.257E-01
       1.74     17.139  6.078E-01
       1.74     17.240  5.712E-01
       1.74     17.352  6.673E-01
       1.74     17.407  7.960E-01
       1.74     17.536  7.176E-01
       1.74     17.609  9.015E-01
       1.74     17.732  1.021E+00
       1.74     17.816  8.043E-01
       1.74     17.905  6.536E-01
       1.74     18.050  7.176E-01
       2.15      7.710  2.043E-02  6.317E-03
       2.15      7.809  4.947E-02  1.275E-02
       2.15      7.910  4.849E-02  8.602E-03
       2.15      7.932  7.701E-02  1.192E-02
       2.15      8.016  5.003E-02  1.213E-02
       2.15      8.110  8.721E-02  8.513E-03
       2.15      8.210  1.372E-01
       2.15      8.310  2.225E-01
       2.15      8.421  2.762E-01
       2.15      8.521  3.610E-01
       2.15      8.610  4.867E-01
       2.15      8.710  6.105E-01
       2.15      8.816  6.172E-01
       2.15      8.916  1.022E+00
       2.15      9.033  1.145E+00
       2.15      9.134  1.283E+00
       2.15      9.228  1.497E+00
       2.15      9.317  1.802E+00
       2.15      9.406  2.284E+00
       2.15      9.523  2.667E+00
       2.15      9.618  2.897E+00
       2.15      9.730  3.179E+00
       2.15      9.836  2.871E+00
       2.15      9.915  2.362E+00
       2.15     10.043  2.200E+00
       2.15     10.139  1.926E+00
       2.15     10.217  1.553E+00
       2.15     10.351  1.305E+00
       2.15     10.441  1.041E+00
       2.15     10.547  1.241E+00
       2.15     10.636  1.433E+00
       2.15     10.725  1.606E+00
       2.15     10.815  1.526E+00
       2.15     10.904  1.511E+00
       2.15     11.027  1.379E+00
       2.15     11.105  1.513E+00
       2.15     11.211  1.594E+00
       2.15     11.312  1.767E+00
       2.15     11.407  1.454E+00
       2.15     11.536  1.517E+00
       2.15     11.608  1.261E+00
       2.15     11.715  1.038E+00
       2.15     11.810  8.114E-01
       2.15     11.916  8.905E-01
       2.15     12.017  9.284E-01
       2.15     12.112  9.679E-01
       2.15     12.234  1.084E+00
       2.15     12.318  1.190E+00
       2.15     12.396  1.085E+00
       2.15     12.497  1.143E+00
       2.15     12.603  9.219E-01
       2.15     12.698  1.033E+00
       2.15     12.788  8.327E-01
       2.15     12.911  8.772E-01
       2.15     13.011  8.868E-01
       2.15     13.117  9.246E-01
       2.15     13.157  8.344E-01
       2.15     13.229  1.015E+00
       2.15     13.324  1.069E+00
       2.15     13.419  1.080E+00
       2.15     13.508  1.103E+00
       2.15     13.609  8.989E-01
       2.15     13.710  7.630E-01
       2.15     13.810  1.008E+00
       2.15     13.894  8.730E-01
       2.15     14.011  1.073E+00
       2.15     14.106  8.388E-01
       2.15     14.212  9.019E-01
       2.15     14.318  9.798E-01
       2.15     14.425  8.666E-01
       2.15     14.519  1.022E+00
       2.15     14.626  8.856E-01
       2.15     14.721  9.620E-01
       2.15     14.832  1.013E+00
       2.15     14.938  1.101E+00
       2.15     15.006  8.174E-01
       2.15     15.129  9.066E-01
       2.15     15.196  8.439E-01
       2.15     15.324  7.940E-01
       2.15     15.403  7.168E-01
       2.15     15.520  6.955E-01
       2.15     15.615  6.958E-01
       2.15     15.721  7.716E-01
       2.15     15.811  6.685E-01
       2.15     15.922  7.188E-01
       2.15     15.995  6.357E-01
       2.15     16.107  6.427E-01
       2.15     16.224  5.345E-01
       2.15     16.336  6.636E-01
       2.15     16.409  6.052E-01
       2.15     16.532  4.881E-01
       2.15     16.621  4.985E-01
       2.15     16.727  5.819E-01
       2.15     16.800  4.410E-01
       2.15     16.912  4.694E-01
       2.15     17.001  4.554E-01
       2.15     17.119  4.240E-01
       2.15     17.208  3.868E-01
       2.15     17.309  4.074E-01
       2.15     17.432  4.077E-01
       2.15     17.510  2.676E-01  4.972E-02
       2.15     17.622  2.596E-01  5.599E-02
       2.15     17.723  2.652E-01  4.927E-02
       2.15     17.823  2.793E-01  6.549E-02
       2.15     17.896  2.298E-01  4.389E-02
       2.15     18.019  2.656E-01  5.155E-02
ENDDATA            476
ENDSUBENT          492
SUBENT        C2711003   20220305   20220829   20220825       C214
BIB                  4          9
REACTION   (6-C-13(P,A)5-B-10,PAR,DA)
LEVEL-PROP (5-B-10,E-LVL=0.,SPIN=3.,PARITY=+1.)
           (5-B-10,E-LVL=1.74,SPIN=0.,PARITY=+1.)
ERR-ANALYS (DATA-ERR) Standard deviations. Given in the graph when
           the uncertainties exceed 10%.
STATUS     (CURVE) Fig.5 (p.415) in Phys.Rev.C,11,410,1975 was
           digitized by GSYS2.4.7.
           (COREL,C2711002) Differential cross section at 40
                            degrees
ENDBIB               9
NOCOMMON             0          0
DATA                 5        506
E-LVL      EN         ANG        DATA       DATA-ERR
MEV        MEV        ADEG       MB/SR      MB/SR
         0.       5.80     11.068  2.803E-01  4.492E-02
         0.       5.80     21.433  3.001E-01  3.973E-02
         0.       5.80     31.545  3.506E-01  4.969E-02
         0.       5.80     40.500  2.825E-01  3.201E-02
         0.       5.80     52.118  2.110E-01  2.592E-02
         0.       5.80     61.515  2.309E-01  3.235E-02
         0.       5.80     71.390  2.611E-01  3.944E-02
         0.       5.80     81.274  2.765E-01  3.395E-02
         0.       5.80     91.682  2.133E-01  3.224E-02
         0.       5.80    101.076  2.385E-01  3.605E-02
         0.       5.80    110.962  2.499E-01  3.772E-02
         0.       6.15     11.017  2.545E+00
         0.       6.15     20.677  2.363E+00
         0.       6.15     30.568  2.370E+00
         0.       6.15     41.177  2.483E+00
         0.       6.15     50.573  2.746E+00
         0.       6.15     60.935  3.005E+00
         0.       6.15     70.121  2.614E+00
         0.       6.15     80.991  2.351E+00
         0.       6.15     90.411  2.159E+00
         0.       6.15    100.806  1.838E+00
         0.       6.15    110.719  1.565E+00
         0.       6.15    120.632  1.332E+00
         0.       6.15    130.062  1.134E+00
         0.       6.65     10.732  1.363E+00  2.449E-01
         0.       6.65     21.106  1.268E+00
         0.       6.65     30.997  1.480E+00
         0.       6.65     40.888  1.765E+00
         0.       6.65     50.780  1.897E+00
         0.       6.65     61.153  2.018E+00
         0.       6.65     70.562  1.765E+00
         0.       6.65     80.453  1.858E+00
         0.       6.65     90.827  1.435E+00
         0.       6.65    101.442  1.086E+00
         0.       6.65    111.333  8.654E-01
         0.       6.65    120.259  7.646E-01
         0.       6.65    131.115  6.616E-01
         0.       6.65    141.006  5.059E-01
         0.       6.65    151.380  4.658E-01
         0.       6.65    160.306  4.469E-01
         0.       6.65    170.680  3.789E-01
         0.       7.15     10.754  1.045E+00
         0.       7.15     20.618  1.235E+00
         0.       7.15     30.239  1.474E+00
         0.       7.15     40.127  1.462E+00
         0.       7.15     50.733  1.497E+00
         0.       7.15     60.626  1.425E+00
         0.       7.15     70.030  1.429E+00
         0.       7.15     80.168  1.319E+00
         0.       7.15     90.557  1.133E+00
         0.       7.15    100.705  9.740E-01
         0.       7.15    110.130  8.367E-01
         0.       7.15    119.328  6.486E-01
         0.       7.15    130.167  7.061E-01
         0.       7.15    139.571  7.077E-01
         0.       7.15    150.409  7.784E-01
         0.       7.15    160.306  7.187E-01
         0.       7.15    170.406  8.759E-01
         0.       7.40     19.584  2.715E+00
         0.       7.40     29.896  3.872E+00
         0.       7.40     39.767  4.490E+00
         0.       7.40     48.951  4.278E+00
         0.       7.40     60.101  3.458E+00
         0.       7.40     69.553  2.882E+00
         0.       7.40     88.707  1.940E+00
         0.       7.40    109.208  2.167E+00
         0.       7.40    128.472  2.825E+00
         0.       7.40    148.986  2.966E+00
         0.       7.40    168.769  3.211E+00
         0.       7.95     19.601  9.345E+00
         0.       7.95     30.662  1.467E+01
         0.       7.95     40.302  1.849E+01
         0.       7.95     49.971  1.873E+01
         0.       7.95     59.184  1.556E+01
         0.       7.95     69.133  1.190E+01
         0.       7.95     79.093  8.371E+00
         0.       7.95     89.256  7.884E+00
         0.       7.95     99.655  7.741E+00
         0.       7.95    109.770  1.039E+01
         0.       7.95    129.595  1.044E+01
         0.       7.95    149.224  7.440E+00
         0.       7.95    169.356  4.630E+00
         0.       8.40      9.232  2.997E+00  5.044E-01
         0.       8.40     20.206  1.877E+00
         0.       8.40     30.440  1.288E+00
         0.       8.40     39.657  1.252E+00
         0.       8.40     49.358  1.217E+00
         0.       8.40     59.548  1.148E+00
         0.       8.40     69.948  1.369E+00
         0.       8.40     79.177  1.214E+00
         0.       8.40     90.073  1.334E+00
         0.       8.40     99.516  1.452E+00
         0.       8.40    109.464  1.368E+00
         0.       8.40    130.072  1.348E+00
         0.       8.40    149.248  1.138E+00
         0.       8.40    169.147  9.806E-01
         0.       8.70     19.341  2.681E+00
         0.       8.70     29.232  3.479E+00
         0.       8.70     39.632  3.749E+00
         0.       8.70     49.334  3.286E+00
         0.       8.70     59.523  2.822E+00
         0.       8.70     69.718  2.325E+00
         0.       8.70     79.408  2.213E+00
         0.       8.70     90.075  2.002E+00
         0.       8.70     99.523  1.905E+00
         0.       8.70    109.463  1.723E+00
         0.       8.70    120.379  1.480E+00
         0.       8.70    129.863  1.088E+00
         0.       8.70    139.299  1.136E+00
         0.       8.70    150.473  8.624E-01
         0.       8.70    169.882  6.423E-01
         0.       9.40     10.407  3.736E+00
         0.       9.40     20.014  7.764E+00
         0.       9.40     29.680  9.264E+00
         0.       9.40     40.070  1.117E+01
         0.       9.40     50.250  9.994E+00
         0.       9.40     60.466  6.370E+00
         0.       9.40     70.208  3.663E+00
         0.       9.40     79.675  2.897E+00
         0.       9.40     89.348  3.217E+00
         0.       9.40    100.472  3.609E+00
         0.       9.40    109.690  3.036E+00
         0.       9.40    119.854  3.170E+00
         0.       9.40    129.544  2.986E+00
         0.       9.40    140.430  3.248E+00
         0.       9.40    149.860  3.643E+00
         0.       9.40    160.026  3.726E+00
         0.       9.40    169.690  4.492E+00
         0.      10.20     30.129  1.175E+01
         0.      10.20     40.799  9.977E+00
         0.      10.20     50.283  6.682E+00
         0.      10.20     60.725  4.963E+00
         0.      10.20     69.493  2.997E+00
         0.      10.20     79.665  2.911E+00
         0.      10.20     89.838  2.770E+00
         0.      10.20     99.271  3.014E+00
         0.      10.20    109.446  2.839E+00
         0.      10.20    120.086  3.187E+00
         0.      10.20    130.009  3.293E+00
         0.      10.20    139.945  2.976E+00
         0.      10.20    149.648  2.501E+00
         0.      10.20    160.062  2.405E+00
         0.      10.20    169.291  1.823E+00
         0.      10.90     27.200  5.719E+00  7.704E-01
         0.      10.90     37.831  6.494E+00  6.976E-01
         0.      10.90     48.011  6.060E+00
         0.      10.90     58.226  4.600E+00
         0.      10.90     68.177  3.952E+00
         0.      10.90     77.873  3.687E+00
         0.      10.90     88.302  3.302E+00
         0.      10.90     98.006  2.926E+00
         0.      10.90    108.423  2.816E+00
         0.      10.90    117.678  2.030E+00
         0.      10.90    128.316  2.212E+00
         0.      10.90    137.552  1.786E+00
         0.      10.90    148.922  1.887E+00
         0.      10.90    158.145  1.637E+00
         0.      10.90    167.820  1.729E+00
         0.      11.40      7.962  1.831E+00  5.523E-01
         0.      11.40     18.071  2.340E+00  4.054E-01
         0.      11.40     28.438  2.635E+00
         0.      11.40     38.518  4.161E+00
         0.      11.40     58.075  4.182E+00
         0.      11.40     68.706  3.977E+00
         0.      11.40     78.133  3.664E+00
         0.      11.40     87.309  3.634E+00
         0.      11.40     98.160  4.050E+00
         0.      11.40    108.335  3.151E+00
         0.      11.40    118.005  2.872E+00
         0.      11.40    128.897  2.357E+00
         0.      11.40    138.323  2.194E+00
         0.      11.40    147.491  2.318E+00
         0.      11.40    158.596  2.350E+00
         0.      11.40    168.003  2.536E+00
         0.      12.00      8.529  1.148E+00
         0.      12.00     18.697  8.856E-01  1.046E-01
         0.      12.00     28.088  1.129E+00
         0.      12.00     38.912  1.684E+00
         0.      12.00     48.517  2.788E+00
         0.      12.00     58.648  3.069E+00
         0.      12.00     68.795  2.888E+00
         0.      12.00     78.712  2.448E+00
         0.      12.00     88.863  2.232E+00
         0.      12.00     99.071  1.169E+00
         0.      12.00    108.996  9.206E-01  1.255E-01
         0.      12.00    118.633  1.125E+00
         0.      12.00    129.025  1.026E+00
         0.      12.00    138.456  8.973E-01
         0.      12.00    148.809  1.180E+00
         0.      12.00    158.468  1.170E+00  1.382E-01
         0.      12.00    168.358  1.288E+00  1.757E-01
         0.      13.15      9.091  6.078E+00
         0.      13.15     18.773  4.842E+00
         0.      13.15     28.000  2.942E+00
         0.      13.15     38.627  2.857E+00
         0.      13.15     48.770  2.804E+00
         0.      13.15     58.679  2.558E+00
         0.      13.15     68.603  2.017E+00
         0.      13.15     79.243  1.729E+00
         0.      13.15     88.659  1.750E+00
         0.      13.15     98.542  2.050E+00
         0.      13.15    108.424  2.426E+00
         0.      13.15    119.279  2.671E+00
         0.      13.15    128.959  2.172E+00
         0.      13.15    138.895  1.527E+00
         0.      13.15    148.567  1.336E+00
         0.      13.15    159.229  9.299E-01  1.262E-01
         0.      13.15    168.912  7.332E-01  1.563E-01
         0.      14.00      7.977  3.702E+00
         0.      14.00     17.886  3.378E+00
         0.      14.00     28.275  3.148E+00
         0.      14.00     37.737  2.040E+00
         0.      14.00     48.162  1.364E+00
         0.      14.00     57.835  1.182E+00
         0.      14.00     68.176  1.756E+00
         0.      14.00     78.063  1.972E+00
         0.      14.00     88.446  1.976E+00
         0.      14.00     98.595  1.822E+00
         0.      14.00    107.779  1.680E+00
         0.      14.00    118.399  1.737E+00
         0.      14.00    128.090  1.275E+00
         0.      14.00    138.472  1.277E+00
         0.      14.00    148.159  9.671E-01
         0.      14.00    158.063  9.296E-01
         0.      14.00    167.954  1.002E+00
         0.      15.00      7.412  2.269E+00
         0.      15.00     17.793  2.298E+00
         0.      15.00     26.757  1.830E+00
         0.      15.00     36.698  1.340E+00
         0.      15.00     47.132  9.122E-01
         0.      15.00     57.034  8.955E-01
         0.      15.00     67.168  9.461E-01
         0.      15.00     76.565  1.098E+00
         0.      15.00     87.406  1.315E+00
         0.      15.00     97.563  1.163E+00
         0.      15.00    106.742  1.130E+00
         0.      15.00    117.857  1.064E+00
         0.      15.00    126.548  1.077E+00
         0.      15.00    136.766  6.075E-01
         0.      15.00    146.626  8.164E-01
         0.      15.00    156.964  1.132E+00
         0.      15.00    166.841  1.342E+00
         0.      16.00      7.398  1.733E+00
         0.      16.00     17.540  1.457E+00
         0.      16.00     26.960  1.213E+00
         0.      16.00     37.812  1.131E+00
         0.      16.00     47.187  1.365E+00
         0.      16.00     57.043  1.647E+00
         0.      16.00     66.711  1.302E+00
         0.      16.00     77.328  1.153E+00
         0.      16.00     87.209  1.144E+00
         0.      16.00     97.319  1.245E+00
         0.      16.00    107.193  1.300E+00
         0.      16.00    118.059  1.083E+00
         0.      16.00    127.009  8.209E-01
         0.      16.00    137.601  8.938E-01
         0.      16.00    147.226  9.932E-01
         0.      16.00    156.328  1.536E+00
         0.      16.00    166.646  2.187E+00
         0.      17.00      9.289  1.616E+00
         0.      17.00     17.229  1.777E+00
         0.      17.00     26.423  1.318E+00
         0.      17.00     36.793  1.229E+00
         0.      17.00     47.136  1.425E+00
         0.      17.00     56.541  1.341E+00
         0.      17.00     66.428  1.263E+00
         0.      17.00     77.092  7.699E-01
         0.      17.00     87.201  8.472E-01
         0.      17.00     96.095  1.002E+00
         0.      17.00    106.678  1.174E+00
         0.      17.00    116.068  1.252E+00
         0.      17.00    126.225  9.288E-01
         0.      17.00    136.831  9.025E-01
         0.      17.00    146.441  1.136E+00
         0.      17.00    156.507  1.761E+00
         0.      17.00    166.107  2.409E+00
         0.      18.00      6.397  1.148E+00
         0.      18.00     16.743  1.305E+00
         0.      18.00     27.590  1.268E+00
         0.      18.00     37.251  1.053E+00
         0.      18.00     45.917  1.135E+00
         0.      18.00     56.501  1.317E+00
         0.      18.00     66.894  1.017E+00  9.153E-02
         0.      18.00     76.119  5.850E-01  6.901E-02
         0.      18.00     86.306  3.403E-01  5.544E-02
         0.      18.00     97.078  6.066E-01
         0.      18.00    107.388  9.242E-01
         0.      18.00    116.777  9.862E-01
         0.      18.00    126.177  9.679E-01
         0.      18.00    136.069  8.737E-01
         0.      18.00    146.174  9.930E-01
         0.      18.00    156.254  1.377E+00
         0.      18.00    165.876  1.581E+00
       1.74       7.95     20.938  4.255E-01  7.127E-02
       1.74       7.95     30.779  4.216E-01
       1.74       7.95     40.856  4.399E-01
       1.74       7.95     60.293  4.594E-01
       1.74       7.95     70.849  4.894E-01
       1.74       7.95     90.306  3.750E-01
       1.74       7.95    109.530  2.539E-01  4.949E-02
       1.74       8.40     31.482  9.695E-01
       1.74       8.40     41.575  1.075E+00
       1.74       8.40     51.188  1.281E+00
       1.74       8.40     61.282  1.608E+00
       1.74       8.40     71.375  1.591E+00
       1.74       8.40     90.841  9.303E-01
       1.74       8.40    100.694  8.654E-01
       1.74       8.40    111.028  6.415E-01
       1.74       8.40    124.967  3.561E-01
       1.74       8.40    150.441  3.750E-01
       1.74       8.40    170.147  3.245E-01
       1.74       8.70     20.858  2.588E+00
       1.74       8.70     31.210  1.408E+00
       1.74       8.70     41.304  1.424E+00
       1.74       8.70     51.398  1.381E+00
       1.74       8.70     61.242  1.845E+00
       1.74       8.70     71.338  1.700E+00
       1.74       8.70     81.194  1.566E+00
       1.74       8.70     91.534  1.275E+00
       1.74       8.70    100.671  1.081E+00
       1.74       8.70    111.493  8.531E-01
       1.74       8.70    121.354  6.662E-01
       1.74       8.70    140.099  6.739E-01
       1.74       8.70    150.434  6.470E-01
       1.74       8.70    170.136  7.332E-01
       1.74       9.40     13.168  7.125E+00
       1.74       9.40     23.277  4.977E+00
       1.74       9.40     32.643  1.844E+00
       1.74       9.40     42.743  9.672E-01
       1.74       9.40     51.896  8.550E-01
       1.74       9.40     62.510  1.261E+00
       1.74       9.40     72.150  1.286E+00
       1.74       9.40     81.785  1.172E+00
       1.74       9.40     91.895  8.357E-01
       1.74       9.40    101.764  5.959E-01
       1.74       9.40    112.109  3.534E-01
       1.74       9.40    121.503  3.124E-01
       1.74       9.40    131.874  4.332E-01
       1.74       9.40    140.563  6.792E-01
       1.74       9.40    151.641  5.475E-01
       1.74       9.40    161.287  6.995E-01
       1.74       9.40    171.896  8.579E-01
       1.74      10.20     30.930  3.573E+00  4.762E-01
       1.74      10.20     41.219  7.196E-01  1.353E-01
       1.74      10.20     49.937  4.752E-01  8.934E-02
       1.74      10.20     60.724  8.101E-01  8.775E-02
       1.74      10.20     70.622  6.799E-01  9.839E-02
       1.74      10.20     80.545  4.490E-01  7.679E-02
       1.74      10.20     90.898  4.891E-01  7.072E-02
       1.74      10.20    100.217  1.037E+00
       1.74      10.20    110.061  1.451E+00
       1.74      10.20    120.410  1.647E+00
       1.74      10.20    130.046  1.685E+00
       1.74      10.20    140.198  1.248E+00
       1.74      10.20    150.108  9.341E-01
       1.74      10.20    160.251  7.521E-01
       1.74      10.20    170.134  7.303E-01
       1.74      10.90     33.012  2.004E+00  4.415E-01
       1.74      10.90     43.132  1.578E+00  3.438E-01
       1.74      10.90     62.651  2.004E+00
       1.74      10.90     72.530  1.310E+00
       1.74      10.90     82.410  9.109E-01
       1.74      10.90     92.289  1.438E+00
       1.74      10.90    101.687  2.597E+00
       1.74      10.90    112.289  3.891E+00
       1.74      10.90    121.928  4.407E+00
       1.74      10.90    132.048  4.940E+00
       1.74      10.90    142.169  4.642E+00
       1.74      10.90    152.530  5.312E+00
       1.74      10.90    161.687  4.991E+00
       1.74      10.90    171.807  5.257E+00
       1.74      11.40     13.253  2.475E+01
       1.74      11.40     23.133  1.876E+01
       1.74      11.40     32.289  7.419E+00
       1.74      11.40     42.410  4.401E+00
       1.74      11.40     53.253  2.475E+00
       1.74      11.40     62.410  2.109E+00
       1.74      11.40     72.771  2.321E+00
       1.74      11.40     82.651  2.695E+00
       1.74      11.40     93.012  2.904E+00
       1.74      11.40    102.651  3.030E+00
       1.74      11.40    112.289  2.935E+00
       1.74      11.40    122.650  3.300E+00
       1.74      11.40    132.289  3.556E+00
       1.74      11.40    142.650  4.544E+00
       1.74      11.40    152.048  6.669E+00
       1.74      11.40    161.928  7.743E+00
       1.74      11.40    171.807  8.343E+00
       1.74      12.00     14.112  1.838E+00
       1.74      12.00     22.780  2.212E+00
       1.74      12.00     33.610  2.280E+00
       1.74      12.00     43.235  2.209E+00
       1.74      12.00     53.575  1.759E+00
       1.74      12.00     62.956  1.506E+00
       1.74      12.00     73.538  1.263E+00
       1.74      12.00     83.650  1.443E+00
       1.74      12.00     92.799  1.684E+00
       1.74      12.00    102.891  1.047E+00
       1.74      12.00    112.746  7.215E-01  1.224E-01
       1.74      12.00    122.619  9.143E-01
       1.74      12.00    132.240  7.908E-01  6.271E-02
       1.74      12.00    142.845  1.338E+00
       1.74      12.00    152.728  2.288E+00
       1.74      12.00    162.363  3.085E+00
       1.74      12.00    172.720  4.203E+00
       1.74      13.15     12.995  1.112E+00  1.440E-01
       1.74      13.15     22.620  8.432E-01  1.472E-01
       1.74      13.15     32.246  1.022E+00
       1.74      13.15     42.594  9.789E-01
       1.74      13.15     52.460  1.011E+00
       1.74      13.15     63.048  4.262E-01  6.298E-02
       1.74      13.15     72.433  4.354E-01  9.210E-02
       1.74      13.15     82.781  6.886E-01
       1.74      13.15     92.166  9.380E-01
       1.74      13.15    101.791  1.264E+00
       1.74      13.15    112.139  7.499E-01
       1.74      13.15    122.246  2.087E-01  3.643E-02
       1.74      13.15    131.631  1.032E-01  2.184E-02
       1.74      13.15    141.497  4.642E-01  7.278E-02
       1.74      13.15    151.845  1.225E+00
       1.74      13.15    161.711  2.582E+00
       1.74      13.15    171.818  2.812E+00
       1.74      14.00      9.534  1.267E-01  3.862E-02
       1.74      14.00     20.144  8.956E-02  2.972E-02
       1.74      14.00     29.636  1.623E-02  3.283E-03
       1.74      14.00     39.893  6.879E-02  2.006E-02
       1.74      14.00     49.911  2.827E-01  5.232E-02
       1.74      14.00     59.308  2.330E-01  4.116E-02
       1.74      14.00     69.907  1.960E-01  3.697E-02
       1.74      14.00     79.815  1.009E-01  2.035E-02
       1.74      14.00     89.202  9.897E-02  3.189E-02
       1.74      14.00     99.062  1.086E-01  3.034E-02
       1.74      14.00    108.924  1.168E-01  2.729E-02
       1.74      14.00    119.835  3.157E-02  1.303E-02
       1.74      14.00    128.698  6.021E-02  1.856E-02
       1.74      14.00    138.741  1.677E-01  3.243E-02
       1.74      14.00    149.301  2.608E-01  5.043E-02
       1.74      14.00    159.147  3.585E-01  5.102E-02
       1.74      14.00    169.240  4.495E-01  6.793E-02
       1.74      15.00     10.579  1.341E+00
       1.74      15.00     20.235  6.677E-01
       1.74      15.00     31.308  4.891E-01  8.360E-02
       1.74      15.00     40.161  9.244E-01
       1.74      15.00     49.756  1.239E+00
       1.74      15.00     59.871  8.704E-01
       1.74      15.00     70.240  4.913E-01  8.914E-02
       1.74      15.00     80.819  4.573E-01  7.025E-02
       1.74      15.00     89.923  7.241E-01
       1.74      15.00     99.769  8.129E-01
       1.74      15.00    109.879  6.207E-01
       1.74      15.00    120.271  2.408E-01  4.732E-02
       1.74      15.00    129.872  2.908E-01  5.274E-02
       1.74      15.00    139.917  6.360E-01
       1.74      15.00    149.477  1.512E+00
       1.74      15.00    160.028  2.180E+00
       1.74      15.00    169.624  2.861E+00
       1.74      16.00     13.400  6.088E-01  1.033E-01
       1.74      16.00     23.517  8.380E-01
       1.74      16.00     43.245  7.096E-01
       1.74      16.00     52.852  3.978E-01  6.402E-02
       1.74      16.00     62.699  2.118E-01  3.224E-02
       1.74      16.00     73.498  8.185E-02  2.301E-02
       1.74      16.00     82.893  1.115E-01  2.080E-02
       1.74      16.00     93.991  2.765E-01  4.211E-02
       1.74      16.00    103.147  4.091E-01  5.869E-02
       1.74      16.00    113.256  4.395E-01  6.692E-02
       1.74      16.00    123.587  2.541E-01  4.954E-02
       1.74      16.00    133.190  1.246E-01  2.238E-02
       1.74      16.00    143.315  2.197E-01  3.681E-02
       1.74      16.00    150.802  5.227E-01
       1.74      16.00    162.854  9.908E-01
       1.74      16.00    173.215  1.512E+00
       1.74      17.00      8.495  2.886E-01  4.973E-02
       1.74      17.00     18.290  5.727E-01  9.381E-02
       1.74      17.00     27.417  6.718E-01
       1.74      17.00     38.719  7.324E-01
       1.74      17.00     48.161  4.247E-01  8.307E-02
       1.74      17.00     58.529  3.485E-01  6.012E-02
       1.74      17.00     68.012  1.370E-01  2.599E-02
       1.74      17.00     77.968  5.796E-02  1.386E-02
       1.74      17.00     87.804  7.795E-02  2.049E-02
       1.74      17.00     98.055  1.950E-01  3.698E-02
       1.74      17.00    108.163  1.933E-01  3.830E-02
       1.74      17.00    118.279  1.781E-01  2.915E-02
       1.74      17.00    127.763  6.926E-02  1.488E-02
       1.74      17.00    137.811  1.212E-02  2.297E-03
       1.74      17.00    148.170  1.093E-01  2.165E-02
       1.74      17.00    157.453  2.911E-01  4.509E-02
       1.74      17.00    166.996  6.418E-01
       1.74      18.00      8.698  5.779E-01  9.675E-02
       1.74      18.00     19.039  5.390E-01  8.577E-02
       1.74      18.00     28.389  6.824E-01
       1.74      18.00     38.475  7.341E-01
       1.74      18.00     48.591  5.818E-01
       1.74      18.00     58.730  3.574E-01  5.684E-02
       1.74      18.00     68.137  2.481E-01  4.158E-02
       1.74      18.00     78.270  1.637E-01  3.018E-02
       1.74      18.00     88.411  9.952E-02  1.999E-02
       1.74      18.00     98.567  5.089E-02  1.611E-02
       1.74      18.00    108.175  5.364E-02  1.626E-02
       1.74      18.00    118.216  9.409E-02  1.965E-02
       1.74      18.00    128.069  9.330E-02  1.873E-02
       1.74      18.00    138.197  6.476E-02  1.705E-02
       1.74      18.00    147.758  1.124E-01  2.073E-02
       1.74      18.00    157.610  1.138E-01  2.285E-02
       1.74      18.00    167.447  1.355E-01  3.047E-02
ENDDATA            508
ENDSUBENT          522
SUBENT        C2711004   20220305   20220829   20220825       C214
BIB                  4         15
REACTION   (6-C-13(P,A)5-B-10,,SIG)
ANALYSIS   The total cross sections extracted from the angular
           distributions and summed over the six contributing
           states.
ERR-ANALYS (ERR-T) The uncertainties include:
           (ERR-1)  the estimated absolute uncertainty in the
           determination of the target thickness and integrated
           beam current (taken together),
           the usually negligible statistical error,
           and an extrapolation uncertainty estimated to be 1/2 of
           the unobserved part of the cross section for each case.
STATUS     (CURVE) Fig.6 (p.415) in Phys.Rev.C,11,410,1975 was
           digitized by GSYS2.4.7.
           (DEP,C2711002)
           (DEP,C2711003)
ENDBIB              15
COMMON               1          3
ERR-1
PER-CENT
5.
ENDCOMMON            3
DATA                 3         19
EN         DATA       ERR-T
MEV        MB         MB
      5.772      4.146
      6.127     27.570
      6.630     21.324
      7.118     34.621
      7.367     53.213      3.619
      7.947    189.331     11.824
      8.382     57.129      2.655
      8.678     83.686      4.342
      9.374    150.802      7.478
     10.188    143.125     18.338
     10.867    159.569     18.338
     11.379    176.246     10.617
     11.984    118.128      9.412
     13.084    113.121     11.582
     13.974     74.804      4.102
     14.967     64.241      3.861
     15.984     56.334      3.860
     17.002     43.118
     17.984     31.107
ENDDATA             21
ENDSUBENT           45
SUBENT        C2711005   20220305   20220829   20220825       C214
BIB                  4         20
REACTION   (6-C-13(P,X)3-LI-6,,SIG)
ANALYSIS   For the continuum data, 6Li and 9Be laboratory energy
           spectra were extracted from the two-dimensional
           mass-energy arrays. The angular distributions were
           found to be fairly flat, and roughly symmetric about 90
           degrees.
           Total cross sections were found by assuming symmetry
           about 90 degrees, making extrapolations for the
           relatively small solid angle missed after exploiting
           this symmetry, and summing contributions over all
           outgoing particle energies.
ERR-ANALYS (DATA-ERR) The uncertainties include:
           The estimated absolute uncertainty in the
           determination of the target thickness and integrated
           beam current (taken together),
           the usually negligible statistical error,
           and an extrapolation uncertainty estimated to be 1/2 of
           the unobserved part of the cross section for each case.
STATUS     (CURVE) Fig.9 (p.417) in Phys.Rev.C,11,410,1975 was
           digitized by GSYS2.4.7.
ENDBIB              20
NOCOMMON             0          0
DATA                 3          9
EN         DATA       DATA-ERR
MEV        MB         MB
     10.912      5.419      1.373
     11.408     10.188      1.590
     12.011     22.688      3.035
     13.153     34.754      4.046
     14.022     41.113      3.974
     14.998     49.133      3.685
     15.989     51.373      3.829
     16.987     49.494      3.179
     17.993     45.448      2.529
ENDDATA             11
ENDSUBENT           36
SUBENT        C2711006   20220305   20220829   20220825       C214
BIB                  4         20
REACTION   (6-C-13(P,X)4-BE-9,,SIG)
ANALYSIS   For the continuum data, 6Li and 9Be laboratory energy
           spectra were extracted from the two-dimensional
           mass-energy arrays. The angular distributions were
           found to be fairly flat, and roughly symmetric about 90
           degrees.
           Total cross sections were found by assuming symmetry
           about 90 degrees, making extrapolations for the
           relatively small solid angle missed after exploiting
           this symmetry, and summing contributions over all
           outgoing particle energies.
ERR-ANALYS (ERR-T) The uncertainties include:
           The estimated absolute uncertainty in the
           determination of the target thickness and integrated
           beam current (taken together),
           the usually negligible statistical error,
           and an extrapolation uncertainty estimated to be 1/2 of
           the unobserved part of the cross section for each case.
STATUS     (CURVE) Fig.9 (p.417) in Phys.Rev.C,11,410,1975 was
           digitized by GSYS2.4.7.
ENDBIB              20
NOCOMMON             0          0
DATA                 3          5
EN         DATA       DATA-ERR
MEV        MB         MB
     14.008      3.804      0.799
     15.007     17.088      2.543
     15.999     23.689      3.051
     16.997     32.324      4.068
     17.989     37.400      3.995
ENDDATA              7
ENDSUBENT           32
SUBENT        C2711007   20220531   20220829   20220825       C214
BIB                  4          6
REACTION   (6-C-13(P,A)5-B-10,PAR,DA,RSD)
PART-DET   (5-B-10)
ERR-ANALYS (DATA-ERR) Standard deviations. Given in the graph when
           the uncertainties exceed 10%.
STATUS     (CURVE) Fig.4 (p.414) in Phys.Rev.C,11,410,1975 was
           digitized by GSYS2.4.7.
ENDBIB               6
COMMON               1          3
ANG
ADEG
40.
ENDCOMMON            3
DATA                 4        154
E-LVL      EN         DATA       DATA-ERR
MEV        MEV        MB/SR      MB/SR
       3.59     10.020  1.237E+00
       3.59     10.120  1.447E+00
       3.59     10.220  1.782E+00
       3.59     10.331  2.335E+00
       3.59     10.420  2.619E+00
       3.59     10.516  2.363E+00
       3.59     10.622  2.222E+00
       3.59     10.734  2.089E+00
       3.59     10.817  2.573E+00
       3.59     10.912  3.168E+00
       3.59     11.029  3.171E+00
       3.59     11.108  2.981E+00
       3.59     11.242  3.276E+00
       3.59     11.308  3.910E+00
       3.59     11.409  4.431E+00
       3.59     11.520  4.528E+00
       3.59     11.609  5.348E+00
       3.59     11.710  4.350E+00
       3.59     11.806  4.090E+00
       3.59     11.896  2.731E+00
       3.59     12.008  2.364E+00
       3.59     12.092  2.132E+00
       3.59     12.220  2.392E+00
       3.59     12.327  2.297E+00
       3.59     12.422  2.371E+00
       3.59     12.539  2.500E+00
       3.59     12.617  2.350E+00
       3.59     12.712  2.187E+00
       3.59     12.830  2.166E+00
       3.59     12.914  1.954E+00
       3.59     13.020  2.125E+00
       3.59     13.115  2.171E+00
       3.59     13.187  2.311E+00
       3.59     13.210  1.765E+00
       3.59     13.311  1.695E+00
       3.59     13.411  1.805E+00
       3.59     13.512  1.612E+00
       3.59     13.602  1.194E+00
       3.59     13.720  1.258E+00
       3.59     13.820  1.368E+00
       3.59     13.904  1.369E+00
       3.59     14.010  1.414E+00
       3.59     14.105  1.262E+00
       3.59     14.234  1.290E+00
       3.59     14.312  1.116E+00
       3.59     14.413  1.226E+00
       3.59     14.513  1.266E+00
       3.59     14.603  1.084E+00
       3.59     14.704  8.199E-01
       3.59     14.826  1.180E+00
       3.59     14.883  7.715E-01
       3.59     15.006  6.961E-01
       3.59     15.107  8.396E-01
       3.59     15.208  7.117E-01
       3.59     15.297  5.495E-01
       3.59     15.392  6.100E-01
       3.59     15.521  5.336E-01
       3.59     15.605  6.110E-01
       3.59     15.695  4.165E-01
       3.59     15.806  4.921E-01
       3.59     15.896  4.259E-01
       3.59     16.003  3.289E-01  4.360E-02
       3.59     16.104  2.876E-01  4.648E-02
       3.59     16.210  3.160E-01  4.271E-02
       3.59     16.316  3.296E-01
       3.59     16.422  3.935E-01
       3.59     16.510  5.156E-01
       3.59     16.611  4.326E-01
       3.59     16.729  4.111E-01
       3.59     16.807  5.061E-01
       3.59     16.874  4.471E-01
       3.59     17.014  5.122E-01
       3.59     17.131  5.288E-01
       3.59     17.220  6.312E-01
       3.59     17.326  5.296E-01
       3.59     17.444  5.192E-01
       3.59     17.495  4.049E-01
       3.59     17.612  4.268E-01
       3.59     17.730  3.891E-01  6.625E-02
       3.59     17.830  5.047E-01
       3.59     17.903  3.512E-01  5.062E-02
       3.59     18.003  3.780E-01  5.447E-02
       5.17     11.001  2.963E-01  7.983E-02
       5.17     11.108  2.190E-01  4.685E-02
       5.17     11.202  3.403E-01  5.544E-02
       5.17     11.297  3.478E-01  4.421E-02
       5.17     11.402  4.118E-01  7.068E-02
       5.17     11.508  5.412E-01
       5.17     11.614  5.592E-01
       5.17     11.692  5.539E-01
       5.17     11.803  8.169E-01
       5.17     11.885  1.192E+00
       5.17     12.003  1.206E+00
       5.17     12.115  1.183E+00
       5.17     12.198  1.301E+00
       5.17     12.293  1.431E+00
       5.17     12.394  1.277E+00
       5.17     12.505  1.560E+00
       5.17     12.633  1.827E+00
       5.17     12.723  1.700E+00
       5.17     12.800  2.404E+00
       5.17     12.895  2.308E+00
       5.17     13.013  2.239E+00
       5.17     13.108  2.489E+00
       5.17     13.164  2.315E+00
       5.17     13.203  2.198E+00
       5.17     13.315  2.155E+00
       5.17     13.421  2.113E+00
       5.17     13.521  2.450E+00
       5.17     13.572  2.139E+00
       5.17     13.729  2.282E+00
       5.17     13.791  1.795E+00
       5.17     13.903  1.489E+00
       5.17     14.015  1.555E+00
       5.17     14.104  1.675E+00
       5.17     14.205  1.418E+00
       5.17     14.301  1.252E+00
       5.17     14.397  1.038E+00
       5.17     14.509  8.979E-01
       5.17     14.603  1.132E+00
       5.17     14.681  1.396E+00
       5.17     14.808  1.955E+00
       5.17     14.897  2.150E+00
       5.17     14.992  2.175E+00
       5.17     15.098  2.319E+00
       5.17     15.211  2.136E+00
       5.17     15.295  1.987E+00  1.014E-01
       5.17     15.412  2.118E+00
       5.17     15.497  1.632E+00
       5.17     15.614  1.584E+00
       5.17     15.698  1.384E+00
       5.17     15.805  1.445E+00
       5.17     15.900  1.303E+00
       5.17     16.001  1.346E+00
       5.17     16.102  1.176E+00
       5.17     16.230  1.216E+00
       5.17     16.303  1.255E+00
       5.17     16.403  1.470E+00
       5.17     16.493  1.326E+00
       5.17     16.621  1.247E+00
       5.17     16.711  1.343E+00
       5.17     16.801  1.211E+00
       5.17     16.924  1.213E+00
       5.17     16.997  1.005E+00
       5.17     17.114  9.554E-01
       5.17     17.210  8.796E-01
       5.17     17.321  9.678E-01
       5.17     17.383  8.632E-01
       5.17     17.501  8.735E-01
       5.17     17.607  7.633E-01
       5.17     17.696  8.574E-01
       5.17     17.786  8.493E-01
       5.17     17.875  8.592E-01
       5.17     18.009  8.696E-01
ENDDATA            156
ENDSUBENT          171
ENDENTRY             7
