ENTRY            C2752   20220525   20230429   20230425       C221
SUBENT        C2752001   20220525   20230429   20230425       C221
BIB                 10         17
TITLE      Determination of Y40 and Y60 components in the shapes
           of rare earth nuclei
AUTHOR     (D.L.Hendrie,N.K.Glendenning,B.G.Harvey,O.N.Jarvis,
           H.H.Duhm, J.Saudinos,J.Mahoney)
REFERENCE  (J,PL/B,26,127,1968)
           #doi:10.1016/0370-2693(68)90502-9
INSTITUTE  (1USABRK)
FACILITY   (CYCLO,1USABRK)
DETECTOR   (GELI) A cooled lithium drifted multiple counter array.
SAMPLE     Several metallic foils of isotopically pure elements
           in the rare earth region.
ADD-RES    (COMP) The data were analyzed under the assumption of
           a perfect rotor description for the nucleus and a
           deformed optical interaction between alpha and
           nucleus by solving the resulting coupled equations.
ERR-ANALYS No information on uncertainties.
HISTORY    (20220525C) OG
ENDBIB              17
COMMON               1          3
EN
MEV
50.
ENDCOMMON            3
ENDSUBENT           24
SUBENT        C2752002   20220525   20230429   20230425       C221
BIB                  3          6
REACTION   (62-SM-154(A,INL)62-SM-154,PAR,DA)
LEVEL-PROP (62-SM-154,LVL-NUMB=1.,SPIN=2.0,PARITY=+1.)
           (62-SM-154,LVL-NUMB=2.,SPIN=4.0,PARITY=+1.)
           (62-SM-154,LVL-NUMB=3.,SPIN=6.0,PARITY=+1.)
STATUS     (CURVE) Fig.1 (p.128) from J,PL/B,26,127,1968 was
           digitized by GSYS-2.4.9.
ENDBIB               6
NOCOMMON             0          0
DATA                 3        112
LVL-NUMB   ANG        DATA
NO-DIM     ADEG       MB/SR
         1.     23.413    118.642
         1.     25.394     86.837
         1.     26.703     43.026
         1.     27.493     34.187
         1.     28.490     37.530
         1.     29.557     46.509
         1.     30.551     44.620
         1.     31.607     37.407
         1.     32.724     24.603
         1.     33.509     16.629
         1.     34.628     11.389
         1.     35.758     12.670
         1.     36.689     14.484
         1.     37.686     15.900
         1.     38.812     14.258
         1.     39.864     10.168
         1.     40.714      6.425
         1.     41.762      3.897
         1.     42.886      3.448
         1.     43.690      4.572
         1.     44.820      5.226
         1.     46.145      4.945
         1.     46.937      4.260
         1.     47.858      3.080
         1.     48.969      1.677
         1.     50.021      1.133
         1.     51.144      0.937
         1.     52.213      1.276
         1.     52.945      1.440
         1.     54.140      1.498
         1.     55.127      1.142
         1.     56.313      0.826
         1.     57.024      0.409
         1.     58.075      0.273
         1.     60.272      0.371
         1.     61.138      0.442
         1.     62.265      0.436
         1.     63.253      0.332
         2.     25.411      2.398
         2.     26.743      3.002
         2.     27.542      3.380
         2.     28.531      2.840
         2.     29.511      1.757
         2.     30.328      0.390
         2.     31.590      0.422
         2.     32.685      1.341
         2.     33.628      2.221
         2.     34.024      2.133
         2.     34.624      2.371
         2.     35.611      1.864
         2.     36.654      1.050
         2.     37.552      0.387
         2.     38.861      0.218
         2.     39.678      0.452
         2.     40.830      1.045
         2.     41.896      1.274
         2.     42.689      1.175
         2.     43.803      0.767
         2.     44.640      0.340
         2.     46.068      0.120
         2.     47.006      0.172
         2.     47.823      0.353
         2.     49.032      0.592
         2.     49.960      0.607
         2.     51.080      0.477
         2.     51.991      0.272
         2.     52.954      0.096
         2.     54.189      0.042
         2.     55.138      0.086
         2.     56.087      0.175
         2.     57.091      0.243
         2.     58.221      0.267
         2.     60.251      0.117
         2.     61.278      0.038
         2.     62.242      0.014
         2.     63.190      0.027
         3.     26.490      0.147
         3.     27.360      0.247
         3.     30.283      0.394
         3.     31.269      0.267
         3.     32.250      0.133
         3.     33.221      0.040
         3.     33.329      0.010
         3.     33.796      0.012
         3.     34.416      0.046
         3.     35.556      0.100
         3.     36.435      0.270
         3.     37.364      0.308
         3.     38.554      0.262
         3.     39.669      0.152
         3.     40.509      0.047
         3.     41.325      0.004
         3.     42.818      0.030
         3.     43.701      0.099
         3.     44.706      0.180
         3.     45.766      0.184
         3.     46.823      0.166
         3.     47.741      0.097
         3.     48.779      0.029
         3.     49.658      0.002
         3.     50.762      0.025
         3.     51.706      0.061
         3.     52.773      0.094
         3.     54.033      0.105
         3.     55.023      0.084
         3.     55.806      0.044
         3.     56.782      0.017
         3.     57.936      0.002
         3.     59.967      0.024
         3.     60.968      0.037
         3.     61.969      0.057
         3.     62.958      0.045
ENDDATA            114
ENDSUBENT          125
SUBENT        C2752003   20220525   20230429   20230425       C221
BIB                  3          6
REACTION   (68-ER-166(A,INL)68-ER-166,PAR,DA)
LEVEL-PROP (68-ER-166,LVL-NUMB=1.,SPIN=2.0,PARITY=+1.)
           (68-ER-166,LVL-NUMB=2.,SPIN=4.0,PARITY=+1.)
           (68-ER-166,LVL-NUMB=3.,SPIN=6.0,PARITY=+1.)
STATUS     (CURVE) Fig.2 (p.129) from J,PL/B,26,127,1968 was
           digitized by GSYS-2.4.9.
ENDBIB               6
NOCOMMON             0          0
DATA                 3        138
LVL-NUMB   ANG        DATA
NO-DIM     ADEG       MB/SR
         1.     25.155     66.782
         1.     26.210     56.069
         1.     27.067     44.021
         1.     28.122     36.960
         1.     29.311     36.946
         1.     30.304     53.073
         1.     31.293     45.162
         1.     32.216     37.413
         1.     33.202     19.115
         1.     34.257     15.209
         1.     35.182     17.863
         1.     35.711     18.846
         1.     36.305     19.097
         1.     37.230     21.544
         1.     38.287     21.250
         1.     39.407     14.586
         1.     40.593     10.148
         1.     41.449      7.351
         1.     42.503      5.618
         1.     43.430      7.346
         1.     44.618      7.344
         1.     45.741      7.746
         1.     46.730      6.164
         1.     47.586      4.648
         1.     48.706      2.983
         1.     49.628      2.311
         1.     50.816      1.993
         1.     51.873      2.279
         1.     52.798      2.404
         1.     53.854      2.403
         1.     54.910      1.991
         1.     55.766      1.461
         1.     56.885      0.877
         1.     57.939      0.635
         1.     58.334      0.571
         1.     58.994      0.570
         1.     59.986      0.707
         1.     60.845      0.776
         1.     61.835      0.726
         1.     63.024      0.688
         1.     63.945      0.459
         1.     65.063      0.254
         1.     66.052      0.202
         1.     67.041      0.159
         1.     67.901      0.187
         1.     68.892      0.211
         1.     70.213      0.231
         1.     71.203      0.213
         1.     72.126      0.163
         1.     73.047      0.103
         2.     25.271      2.672
         2.     26.393      2.399
         2.     27.251      1.274
         2.     28.240      0.576
         2.     31.276      1.345
         2.     32.397      1.833
         2.     33.321      2.069
         2.     34.311      1.737
         2.     35.301      0.960
         2.     36.554      0.350
         2.     37.412      0.213
         2.     38.534      0.677
         2.     38.600      0.935
         2.     40.447      1.363
         2.     41.503      1.257
         2.     42.625      0.910
         2.     43.416      0.584
         2.     44.604      0.178
         2.     45.924      0.174
         2.     46.716      0.359
         2.     47.705      0.641
         2.     48.761      0.705
         2.     49.751      0.641
         2.     50.674      0.428
         2.     51.796      0.234
         2.     52.654      0.085
         2.     53.842      0.087
         2.     54.831      0.191
         2.     55.821      0.298
         2.     56.679      0.355
         2.     57.801      0.314
         2.     58.790      0.213
         2.     59.780      0.154
         2.     60.836      0.031
         2.     61.957      0.078
         2.     62.947      0.072
         2.     64.003      0.158
         2.     64.927      0.142
         2.     65.916      0.131
         2.     66.972      0.110
         2.     67.962      0.065
         2.     69.018      0.035
         2.     70.073      0.016
         2.     71.063      0.018
         2.     72.053      0.032
         2.     73.108      0.050
         3.     30.512      0.260
         3.     31.565      0.131
         3.     32.490      0.144
         3.     33.612      0.164
         3.     34.471      0.230
         3.     35.526      0.218
         3.     36.582      0.196
         3.     37.504      0.126
         3.     38.555      0.038
         3.     39.811      0.066
         3.     40.668      0.050
         3.     41.725      0.083
         3.     42.650      0.113
         3.     43.773      0.147
         3.     44.827      0.116
         3.     45.684      0.079
         3.     46.671      0.039
         3.     47.791      0.022
         3.     48.979      0.027
         3.     49.839      0.052
         3.     50.896      0.068
         3.     51.820      0.083
         3.     53.008      0.072
         3.     53.930      0.048
         3.     54.917      0.026
         3.     55.903      0.009
         3.     57.157      0.009
         3.     58.016      0.014
         3.     59.075      0.031
         3.     60.000      0.050
         3.     60.857      0.038
         3.     61.913      0.036
         3.     63.164      0.017
         3.     64.087      0.014
         3.     65.930      0.005
         3.     67.054      0.009
         3.     68.113      0.019
         3.     69.235      0.024
         3.     70.290      0.020
         3.     71.410      0.012
         3.     72.332      0.006
         3.     73.118      0.002
ENDDATA            140
ENDSUBENT          151
SUBENT        C2752004   20220525   20230429   20230425       C221
BIB                  3          7
REACTION   (70-YB-176(A,INL)70-YB-176,PAR,DA)
LEVEL-PROP (70-YB-176,LVL-NUMB=1.,SPIN=2.0,PARITY=+1.)
           (70-YB-176,LVL-NUMB=2.,SPIN=4.0,PARITY=+1.)
           (70-YB-176,LVL-NUMB=3.,SPIN=6.0,PARITY=+1.)
           (70-YB-176,LVL-NUMB=4.,SPIN=8.0,PARITY=+1.)
STATUS     (CURVE) Fig.2 (p.129) from J,PL/B,26,127,1968 was
           digitized by GSYS-2.4.9.
ENDBIB               7
NOCOMMON             0          0
DATA                 3        178
LVL-NUMB   ANG        DATA
NO-DIM     ADEG       MB/SR
         1.     22.000    117.547
         1.     24.290     91.165
         1.     26.174     52.331
         1.     28.169     69.859
         1.     30.319     57.359
         1.     31.926     34.355
         1.     32.276     29.792
         1.     34.152     22.441
         1.     34.634     23.778
         1.     35.463     24.149
         1.     37.398     24.565
         1.     38.094     21.313
         1.     39.631     12.948
         1.     40.053     10.454
         1.     40.540      9.465
         1.     41.513      8.215
         1.     42.685      8.966
         1.     43.583      9.238
         1.     44.481      9.383
         1.     45.664      7.266
         1.     46.706      6.217
         1.     47.554      3.667
         1.     48.805      2.922
         1.     49.570      2.572
         1.     50.669      3.193
         1.     51.842      3.338
         1.     52.743      3.157
         1.     53.788      2.479
         1.     55.115      1.664
         1.     55.958      1.085
         1.     56.935      0.828
         1.     57.971      0.841
         1.     58.934      0.972
         1.     59.899      1.075
         1.     60.869      1.003
         1.     62.333      0.683
         1.     63.176      0.458
         1.     64.158      0.303
         1.     65.138      0.209
         1.     66.308      0.238
         1.     67.132      0.283
         1.     68.233      0.332
         1.     69.204      0.301
         1.     70.111      0.236
         1.     71.304      0.135
         1.     72.366      0.065
         2.     22.328      3.908
         2.     24.544      3.496
         2.     26.586      1.117
         2.     28.645      1.770
         2.     30.636      2.649
         2.     32.022      2.368
         2.     32.589      1.543
         2.     34.281      0.585
         2.     34.839      0.493
         2.     35.673      0.434
         2.     36.214      0.630
         2.     37.779      1.309
         2.     38.325      1.601
         2.     39.848      1.515
         2.     40.821      1.278
         2.     41.886      0.550
         2.     43.011      0.311
         2.     44.125      0.248
         2.     44.866      0.446
         2.     45.887      0.706
         2.     47.054      0.902
         2.     48.030      0.708
         2.     49.076      0.540
         2.     50.272      0.289
         2.     50.991      0.128
         2.     51.890      0.126
         2.     53.182      0.237
         2.     54.138      0.335
         2.     55.307      0.398
         2.     56.279      0.356
         2.     57.403      0.207
         2.     58.316      0.135
         2.     59.310      0.061
         2.     60.356      0.046
         2.     61.305      0.081
         2.     62.395      0.132
         2.     63.286      0.164
         2.     64.320      0.178
         2.     65.299      0.129
         2.     66.491      0.077
         2.     67.346      0.036
         2.     68.475      0.018
         2.     69.508      0.020
         2.     70.383      0.041
         2.     71.410      0.056
         2.     72.452      0.048
         3.     26.895      0.098
         3.     28.910      0.065
         3.     30.960      0.136
         3.     32.474      0.162
         3.     33.099      0.149
         3.     34.562      0.097
         3.     35.190      0.078
         3.     36.270      0.018
         3.     36.687      0.017
         3.     38.314      0.047
         3.     38.643      0.080
         3.     40.215      0.138
         3.     40.707      0.104
         3.     41.318      0.148
         3.     42.233      0.083
         3.     44.146      0.017
         3.     45.334      0.010
         3.     46.479      0.028
         3.     47.428      0.051
         3.     48.247      0.072
         3.     49.273      0.101
         3.     50.455      0.078
         3.     51.436      0.049
         3.     52.423      0.025
         3.     53.414      0.011
         3.     54.307      0.013
         3.     55.323      0.026
         3.     56.271      0.048
         3.     57.788      0.053
         3.     58.687      0.051
         3.     59.525      0.038
         3.     60.511      0.020
         3.     61.581      0.006
         3.     62.772      0.004
         3.     63.500      0.011
         3.     64.382      0.018
         3.     65.620      0.022
         3.     66.784      0.030
         3.     67.618      0.026
         3.     68.667      0.016
         3.     69.592      0.007
         3.     70.869      0.002
         3.     71.971      0.002
         3.     72.926      0.004
         4.     28.733      0.017
         4.     30.740      0.015
         4.     32.456      0.021
         4.     32.997      0.029
         4.     34.465      0.019
         4.     35.145      0.025
         4.     36.018      0.008
         4.     36.643      0.007
         4.     37.909      0.004
         4.     38.365      0.009
         4.     39.883      0.009
         4.     40.909      0.013
         4.     42.012      0.013
         4.     43.045      0.015
         4.     44.084      0.014
         4.     44.951      0.005
         4.     46.286      0.003
         4.     47.962      0.012
         4.     49.071      0.011
         4.     49.976      0.009
         4.     51.007      0.011
         4.     52.212      0.005
         4.     53.394      0.004
         4.     54.469      0.001
         4.     55.344      0.003
         4.     56.168      0.003
         4.     57.264      0.004
         4.     58.216      0.006
         4.     59.313      0.008
         4.     60.209      0.009
         4.     61.266      0.005
         4.     62.486      0.002
         4.     63.415      0.001
         4.     64.494      0.001
         4.     65.369      0.003
         4.     66.536      0.003
         4.     67.553      0.006
         4.     68.385      0.005
         4.     69.577      0.003
         4.     70.493      0.002
         4.     71.560      0.001
         4.     72.534      0.001
ENDDATA            180
ENDSUBENT          192
ENDENTRY             4
