ENTRY            C2751   20220520   20230429   20230425       C221
SUBENT        C2751001   20220520   20230429   20230425       C221
BIB                 10         16
TITLE      Excitation of collective levels in Cu63 by 50 MeV
           alpha-scattering
AUTHOR     (B.G.Harvey,J.R.Meriwether,A.Bussiere,D.J.Horen)
REFERENCE  (J,NP,70,305,1965)
           #doi:10.1016/0029-5582(65)90526-2
INSTITUTE  (1USABRK,1USANRD)
FACILITY   (CYCLO,1USABRK) The 220 cm cyclotron
INC-SOURCE An energy-analysed beam of helium ions.
DETECTOR   (SIBAR) The scattered alpha-particles were detected
           in a 0.18 cm thick lithium drifted silicon surface
           barrier counter.
REL-REF    (I,,B.G.Harvey+,J,NP,52,465,1964) The beam-optical
           system, the counters and the scattering chamber have
           been described.
ERR-ANALYS No information on uncertainties.
HISTORY    (20220520C) OG
ENDBIB              16
COMMON               1          3
EN
MEV
50.
ENDCOMMON            3
ENDSUBENT           23
SUBENT        C2751002   20220520   20230429   20230425       C221
BIB                  3          6
REACTION   (29-CU-63(A,INL)29-CU-63,PAR,DA)
SAMPLE     The targets were prepared from separated isotopes by
           rolling or by vacuum evaporation. Their thicknesses
           were 1.5 and 0.109 mg/cm2.
STATUS     (CURVE) Figs.3-4 from J,NP,70,305,1965 were
           digitized by GSYS-2.4.9.
ENDBIB               6
NOCOMMON             0          0
DATA                 3        180
E-LVL      ANG-CM     DATA-CM
MEV        ADEG       MB/SR
      0.668     18.800      4.435
      0.668     20.658      3.376
      0.668     21.786      2.115
      0.668     26.827      1.549
      0.668     27.847      1.253
      0.668     27.889      1.108
      0.668     28.950      0.762
      0.668     29.221      1.044
      0.668     29.813      0.474
      0.668     30.675      0.091
      0.668     30.874      0.158
      0.668     31.878      0.085
      0.668     34.258      0.405
      0.668     36.380      0.545
      0.668     37.442      0.541
      0.668     37.575      0.342
      0.668     39.298      0.201
      0.668     43.744      0.169
      0.668     45.802      0.275
      0.668     47.857      0.193
      0.668     50.931      0.087
      0.668     52.966      0.064
      0.961     18.924     11.068
      0.961     20.780      9.922
      0.961     21.773      5.440
      0.961     23.626      0.918
      0.961     26.809      3.682
      0.961     28.930      3.625
      0.961     32.042      0.536
      0.961     32.307      0.588
      0.961     33.168      0.310
      0.961     34.494      0.616
      0.961     36.550      1.585
      0.961     37.478      1.838
      0.961     39.001      1.244
      0.961     41.651      0.368
      0.961     43.970      0.265
      0.961     46.025      0.720
      0.961     47.947      0.791
      0.961     50.862      0.357
      0.961     52.186      0.131
      1.327     18.930     13.786
      1.327     20.852      9.768
      1.327     21.779      4.463
      1.327     22.771      0.797
      1.327     26.881      4.031
      1.327     28.074      4.225
      1.327     29.068      3.728
      1.327     29.134      2.970
      1.327     29.995      1.977
      1.327     31.319      0.615
      1.327     31.385      0.514
      1.327     32.113      0.207
      1.327     32.114      0.353
      1.327     33.239      0.198
      1.327     34.500      0.551
      1.327     36.556      2.008
      1.327     37.616      1.445
      1.327     37.749      2.056
      1.327     39.669      0.882
      1.327     41.723      0.361
      1.327     43.777      0.316
      1.327     45.700      0.809
      1.327     47.224      0.992
      1.327     47.953      0.903
      1.327     51.000      0.364
      1.327     53.120      0.170
       2.51     20.240      4.208
       2.51     22.079      4.373
       2.51     23.290      3.738
       2.51     23.549      3.146
       2.51     26.836      0.638
       2.51     28.848      1.154
       2.51     32.077      1.437
       2.51     33.159      1.304
       2.51     34.318      0.772
       2.51     36.323      0.233
       2.51     37.392      0.321
       2.51     41.619      0.666
       2.51     43.925      0.345
       2.51     46.034      0.214
       2.51     48.022      0.112
       2.51     50.777      0.351
       2.51     53.329      0.226
       3.32     20.311      2.505
       3.32     21.637      2.868
       3.32     22.211      2.396
       3.32     23.226      2.158
       3.32     23.540      2.415
       3.32     26.602      0.756
       3.32     28.690      0.809
       3.32     32.042      0.879
       3.32     32.993      0.816
       3.32     34.013      0.570
       3.32     36.051      0.325
       3.32     37.314      0.369
       3.32     41.364      0.386
       3.32     43.525      0.243
       3.32     45.367      0.184
       3.32     47.646      0.177
       3.32     50.238      0.206
       3.32     52.778      0.139
       3.51     20.057      2.115
       3.51     21.385      2.399
       3.51     22.465      2.133
       3.51     23.292      1.924
       3.51     23.485      1.722
       3.51     26.815      0.488
       3.51     28.956      0.807
       3.51     31.932      0.870
       3.51     33.076      0.768
       3.51     34.293      0.482
       3.51     36.470      0.218
       3.51     37.347      0.315
       3.51     40.574      0.373
       3.51     43.630      0.223
       3.51     45.791      0.178
       3.51     47.753      0.196
       3.51     50.606      0.186
       3.51     53.151      0.127
       3.74     20.111      1.584
       3.74     21.012      1.240
       3.74     21.883      1.840
       3.74     22.904      1.671
       3.74     23.426      1.242
       3.74     25.375      0.514
       3.74     26.649      0.481
       3.74     28.615      0.523
       3.74     31.838      0.743
       3.74     32.970      0.936
       3.74     33.955      0.491
       3.74     36.082      0.261
       3.74     37.111      0.202
       3.74     41.341      0.348
       3.74     43.399      0.209
       3.74     45.490      0.234
       3.74     47.951      0.089
       3.74     50.390      0.202
       3.74     52.954      0.127
       3.84     15.597   2320.388
       3.84     17.976    416.483
       3.84     19.716    258.454
       3.84     20.213      1.809
       3.84     20.726    282.931
       3.84     21.737    302.857
       3.84     22.050      1.824
       3.84     23.002      1.785
       3.84     23.323    307.792
       3.84     26.514     69.697
       3.84     26.657      0.476
       3.84     27.497     12.496
       3.84     28.361     19.292
       3.84     28.617      0.547
       3.84     28.691     15.305
       3.84     29.347     32.827
       3.84     30.477     41.425
       3.84     30.661     46.002
       3.84     31.418     49.601
       3.84     31.964      0.775
       3.84     32.621     52.707
       3.84     33.161      0.967
       3.84     33.975     35.501
       3.84     34.063      0.617
       3.84     35.844      6.662
       3.84     36.065      0.196
       3.84     36.672      1.971
       3.84     36.999      1.660
       3.84     39.103      4.394
       3.84     41.143     11.718
       3.84     41.691      0.306
       3.84     43.443      8.770
       3.84     43.661      0.258
       3.84     45.350      2.597
       3.84     45.572      0.188
       3.84     47.508      0.816
       3.84     47.732      0.162
       3.84     50.350      0.087
       3.84     50.354      3.073
       3.84     52.641      2.899
       3.84     53.001      0.120
ENDDATA            182
ENDSUBENT          193
SUBENT        C2751003   20220520   20230429   20230425       C221
BIB                  4          8
REACTION   (28-NI-62(A,INL)28-NI-62,PAR,DA)
SAMPLE     The targets were prepared from separated isotopes by
           rolling or by vacuum evaporation. Their thicknesses
           were 2.4 and 0.10 mg/cm2.
REL-REF    (A,F0968003,J.R.Meriwether+,J,PL,11,299,1964) Separate
           experiment at several alpha-particle energies.
STATUS     (CURVE) Figs.3-4 from J,NP,70,305,1965 were
           digitized by GSYS-2.4.9.
ENDBIB               8
NOCOMMON             0          0 3
DATA                 3         77
E-LVL      ANG-CM     DATA-CM
MEV        ADEG       MB/SR
      1.172      8.177     38.587
      1.172      9.039     35.412
      1.172     10.033     53.140
      1.172     11.226     66.639
      1.172     11.955     57.904
      1.172     13.346     30.294
      1.172     15.003     10.000
      1.172     15.135      1.867
      1.172     16.726      8.488
      1.172     17.190     26.119
      1.172     18.118     24.730
      1.172     18.316     34.593
      1.172     19.112     32.499
      1.172     19.774     40.754
      1.172     20.106     29.363
      1.172     20.901     21.826
      1.172     22.094     15.482
      1.172     22.558      8.895
      1.172     23.883      2.252
      1.172     24.148      1.073
      1.172     24.546      1.466
      1.172     25.606      4.511
      1.172     26.070      7.318
      1.172     28.058     13.664
      1.172     28.257     12.060
      1.172     29.582     11.873
      1.172     30.311      7.376
      1.172     30.576      5.191
      1.172     32.233      0.911
      1.172     33.293      0.612
      1.172     34.552      2.435
      1.172     34.685      1.081
      1.172     35.679      2.252
      1.172     36.342      4.511
      1.172     37.137      5.928
      1.172     37.667      4.764
      1.172     38.794      3.769
      1.172     39.788      2.200
      1.172     40.981      0.869
      1.172     42.107      0.531
      1.172     43.035      0.626
      1.172     44.162      1.056
      1.172     44.957      1.512
      1.172     47.011      1.610
      1.172     49.198      0.855
      1.172     51.385      0.291
      1.172     53.572      0.383
       3.77     17.448      2.557
       3.77     18.624      2.716
       3.77     19.482      4.967
       3.77     20.493      7.998
       3.77     22.032      9.488
       3.77     23.436      8.575
       3.77     24.113      6.159
       3.77     25.237      3.895
       3.77     26.083      1.666
       3.77     27.872      1.019
       3.77     28.747      1.239
       3.77     28.962      1.445
       3.77     29.735      3.438
       3.77     32.768      2.515
       3.77     34.255      1.807
       3.77     35.160      1.095
       3.77     35.993      0.636
       3.77     36.596      0.465
       3.77     37.391      0.664
       3.77     38.474      1.107
       3.77     39.420      1.453
       3.77     40.676      1.313
       3.77     41.716      1.072
       3.77     42.683      0.845
       3.77     43.805      0.577
       3.77     44.831      0.639
       3.77     46.856      0.276
       3.77     48.900      0.415
       3.77     51.177      0.489
       3.77     53.184      0.312
ENDDATA             79
ENDSUBENT           92
ENDENTRY             3
