ENTRY            C2783   20220727   20231218   20231218       C227
SUBENT        C2783001   20220727   20231218   20231218       C227
BIB                  7         10
TITLE      Inelastic scattering studies on 50Cr
AUTHOR     (R.J.Peterson,E.W.Stoub)
INSTITUTE  (1USACLU)
REFERENCE  (J,NP/A,218,109,1974)
           #doi:10.1016/0375-9474(74)90024-4
FACILITY   (CYCLO,1USACLU) The University of Colorado 1.3-m AVF
           cyclotron
ERR-ANALYS (ERR-1) The uncertainty in the absolute cross-section
           scale is estimated to be +/- 5% for each projectile.
HISTORY    (20220726C) OG
ENDBIB              10
COMMON               1          3
ERR-1
PER-CENT
5.
ENDCOMMON            3
ENDSUBENT           17
SUBENT        C2783002   20220727   20231218   20231218       C227
BIB                  4          9
REACTION   (24-CR-50(P,EL)24-CR-50,,DA,,RTH)
DETECTOR   (SI,TELES) The proton data was obtained with a single
           silicon detector, while a deltaAE-E telescope was
           used to provide particle identification.
ERR-ANALYS No information on uncertainties.
STATUS     (CURVE) Fig.2 (p.111) in J,NP/A,218,109,1974 was
           digitized by GSYS-2.4.9.
           (COREL,C2782002) Data for the angle range
                            9.367-139.500 degrees
ENDBIB               9
COMMON               2          3
EN         EN-RSL-HW
MEV        KEV
22.86      40.
ENDCOMMON            3
DATA                 2         40
ANG-CM     DATA
ADEG       NO-DIM
      9.526  7.608E-01
     11.562  7.069E-01
     13.372  6.746E-01
     15.068  6.481E-01
     16.423  6.748E-01
     18.229  7.121E-01
     20.716  7.075E-01
     23.772  5.945E-01
     26.489  4.962E-01
     30.582  2.119E-01
     33.415  1.599E-01
     36.008  1.969E-01
     38.926  4.036E-01
     41.286  6.498E-01
     45.106  1.434E+00
     51.313  1.927E+00
     55.384  1.779E+00
     60.256  1.128E+00
     64.337  7.299E-01
     68.538  3.661E-01
     71.361  3.838E-01
     76.766  7.659E-01
     81.157  1.410E+00
     84.993  1.714E+00
     90.980  1.896E+00
     95.282  1.451E+00
    100.607  9.078E-01
    105.140  5.757E-01
    110.228  5.209E-01
    114.856  6.330E-01
    120.387  8.062E-01
    130.666  9.353E-01
    136.208  8.239E-01
    141.182  7.606E-01
    144.687  7.259E-01
    150.332  8.705E-01
    154.400  8.945E-01
    160.162  9.507E-01
    165.473  9.576E-01
    171.348  9.975E-01
ENDDATA             42
ENDSUBENT           60
SUBENT        C2783003   20220727   20231218   20231218       C227
BIB                  4          7
REACTION   (24-CR-50(D,EL)24-CR-50,,DA,,RTH)
DETECTOR   (TELES) A deltaE-E telescope was used to provide
           particle identification, as well as an energy signal
           for the deuteron spectra.
ERR-ANALYS No information on uncertainties.
STATUS     (CURVE) Fig.2 (p.111) in J,NP/A,218,109,1974 was
           digitized by GSYS-2.4.9.
ENDBIB               7
COMMON               1          3
EN
MEV
16.38
ENDCOMMON            3
DATA                 2         34
ANG-CM     DATA
ADEG       NO-DIM
     10.021  7.144E-01
     11.557  7.002E-01
     13.945  6.933E-01
     16.843  7.369E-01
     19.063  6.867E-01
     21.457  5.611E-01
     27.103  2.998E-01
     32.056  2.475E-01
     34.780  2.941E-01
     37.335  3.355E-01
     42.622  3.495E-01
     47.575  2.828E-01
     52.525  2.506E-01
     57.810  2.774E-01
     62.759  2.612E-01
     67.722  1.483E-01
     72.349  6.948E-02
     74.907  6.950E-02
     77.456  9.905E-02
     83.069  1.782E-01
     87.327  2.182E-01
     93.133  1.784E-01
     97.923  1.109E-01
    102.725  4.466E-02
    106.994  3.800E-02
    112.269  5.874E-02
    116.862  9.358E-02
    122.487  1.090E-01
    127.106  6.777E-02
    132.401  5.213E-02
    137.018  3.587E-02
    141.282  3.552E-02
    147.594  3.519E-02
    151.856  3.856E-02
ENDDATA             36
ENDSUBENT           52
SUBENT        C2783004   20220727   20231218   20231218       C227
BIB                  4          9
REACTION   (24-CR-50(HE3,EL)24-CR-50,,DA,,RTH)
DETECTOR   (SI,TELES) The 3He data was obtained with a single
           silicon detector, while a deltaAE-E telescope was
           used to provide particle identification.
ERR-ANALYS No information on uncertainties.
STATUS     (CURVE) Fig.2 (p.111) in J,NP/A,218,109,1974 was
           digitized by GSYS-2.4.9.
           (COREL,C2782004) Data for the angle range
                            11.122-70.686 degrees
ENDBIB               9
COMMON               1          3
EN
MEV
41.35
ENDCOMMON            3
DATA                 2         27
ANG-CM     DATA
ADEG       NO-DIM
     11.491  8.078E-01
     14.047  5.127E-01
     15.477  3.416E-01
     16.279  3.192E-01
     17.890  3.070E-01
     21.114  2.981E-01
     23.207  2.758E-01
     24.795  1.751E-01
     26.676  6.347E-02
     29.749  7.403E-02
     32.515  1.165E-01
     33.796  9.789E-02
     38.109  4.429E-02
     40.174  2.456E-02
     42.933  3.376E-02
     46.001  3.610E-02
     47.744  2.021E-02
     50.569  4.743E-03
     52.348  5.222E-03
     55.307  1.453E-02
     58.383  1.796E-02
     61.264  1.197E-02
     63.123  2.919E-03
     68.564  1.308E-03
     71.036  3.502E-03
     73.791  4.456E-03
     76.834  2.997E-03
ENDDATA             29
ENDSUBENT           47
SUBENT        C2783005   20220727   20231218   20231218       C227
BIB                  4          7
REACTION   (24-CR-50(A,EL)24-CR-50,,DA,,RTH)
DETECTOR   (TELES) A deltaE-E telescope was used to provide
           particle identification, as well as an energy signal
           for 4He spectra.
ERR-ANALYS No information on uncertainties.
STATUS     (CURVE) Fig.2 (p.111) in J,NP/A,218,109,1974 was
           digitized by GSYS-2.4.9.
ENDBIB               7
COMMON               1          3
EN
MEV
35.66
ENDCOMMON            3
DATA                 2         42
ANG-CM     DATA
ADEG       NO-DIM
      8.555  8.874E-01
     11.292  8.131E-01
     12.896  6.831E-01
     14.652  4.869E-01
     16.251  3.787E-01
     17.547  4.170E-01
     19.486  4.460E-01
     21.413  3.820E-01
     22.208  3.058E-01
     23.631  1.814E-01
     24.251  1.141E-01
     27.500  1.761E-01
     30.103  2.641E-01
     32.664  1.829E-01
     34.993  3.403E-02
     38.565  5.356E-02
     41.043  1.580E-01
     43.302  1.594E-01
     46.623  4.716E-02
     51.152  5.999E-02
     54.890  1.010E-01
     56.325  7.485E-02
     59.138  1.393E-02
     64.209  5.227E-02
     66.810  7.615E-02
     70.181  5.641E-02
     71.918  2.813E-02
     74.315  1.856E-02
     77.418  3.827E-02
     80.340  5.416E-02
     84.516  3.897E-02
     87.220  1.943E-02
     91.748  2.400E-02
     95.471  3.084E-02
     97.395  2.492E-02
     99.641  1.976E-02
    100.716  7.302E-03
    103.759  4.911E-03
    110.263  1.289E-02
    113.803  1.114E-02
    119.573  5.660E-03
    124.915  8.006E-03
ENDDATA             44
ENDSUBENT           60
SUBENT        C2783006   20220727   20231218   20231218       C227
BIB                  5         21
REACTION   (24-CR-50(A,INL)24-CR-50,PAR,DA)
DETECTOR   (TELES) A deltaE-E telescope was used to provide
           particle identification, as well as an energy signal
           for 4He spectra.
LEVEL-PROP (24-CR-50,E-LVL=0.783,SPIN=2.,PARITY=+1.)
           (24-CR-50,E-LVL=1.888,SPIN=4.,PARITY=+1.)
           (24-CR-50,E-LVL=2.924,SPIN=2.,PARITY=+1.)
           (24-CR-50,E-LVL=3.161,SPIN=2.,PARITY=+1.)
           (24-CR-50,E-LVL=3.325,SPIN=4.,PARITY=+1.)
           (24-CR-50,E-LVL=3.611,SPIN=4.,PARITY=+1.)
           (24-CR-50,E-LVL=3.698,SPIN=4.,PARITY=+1.)
           (24-CR-50,E-LVL=3.898,SPIN=4.,PARITY=+1.)
           (24-CR-50,E-LVL=4.193,SPIN=2.,PARITY=+1.)
           (24-CR-50,E-LVL=4.37,SPIN=5.,PARITY=-1.)
           (24-CR-50,E-LVL=4.68,SPIN=2.,PARITY=+1.)
           (24-CR-50,E-LVL=4.77,SPIN=2.,PARITY=+1.)
           (24-CR-50,E-LVL=4.94,SPIN=4.,PARITY=+1.)
           (24-CR-50,E-LVL=5.23,SPIN=4.,PARITY=+1.)
ERR-ANALYS (DATA-ERR) No information on source of uncertainties.
STATUS     (CURVE) Figs.3,7,11,14 in J,NP/A,218,109,1974 were
           digitized by GSYS-2.4.9.
ENDBIB              21
COMMON               1          3
EN
MEV
35.66
ENDCOMMON            3
DATA                 4        330
E-LVL      ANG-CM     DATA-CM    DATA-ERR
MEV        ADEG       MU-B/SR    MU-B/SR
      0.783      7.918  2.193E+01  1.359E+01
      0.783     10.777  4.805E+01  4.154E+00
      0.783     13.561  5.647E+01  4.881E+00
      0.783     16.024  1.710E+01
      0.783     16.905  1.015E+01
      0.783     20.124  1.241E+01
      0.783     21.246  2.157E+01  1.262E+00
      0.783     24.119  2.270E+01
      0.783     27.101  8.491E+00
      0.783     32.423  5.576E+00
      0.783     35.025  9.598E+00
      0.783     37.561  5.813E+00
      0.783     40.302  7.572E-01
      0.783     43.170  1.035E+00
      0.783     45.500  3.221E+00
      0.783     48.113  3.127E+00
      0.783     50.920  1.193E+00
      0.783     55.984  6.672E-01
      0.783     58.845  1.296E+00
      0.783     61.373  1.185E+00
      0.783     64.092  4.752E-01
      0.783     66.547  2.045E-01
      0.783     68.967  5.422E-01
      1.888     14.421  4.417E+00  7.042E-01
      1.888     18.601  1.394E-01  2.996E-02
      1.888     21.151  1.631E-01  2.308E-02
      1.888     22.327  7.093E-02  1.260E-02
      1.888     24.208  7.793E-02  1.457E-02
      1.888     37.429  9.590E-02
      1.888     40.475  1.656E-01
      1.888     43.197  1.397E-01
      1.888     45.168  7.044E-02
      1.888     48.192  4.490E-02
      1.888     50.803  1.002E-01
      1.888     53.208  1.277E-01
      1.888     55.805  9.885E-02
      1.888     59.001  4.615E-02
      1.888     61.225  2.678E-02
      1.888     64.403  4.770E-02
      1.888     66.543  5.800E-02
      1.888     68.864  4.705E-02
      1.888     74.488  2.285E-02
      1.888     79.130  4.949E-02
      1.888     83.637  3.256E-02
      1.888     88.790  2.813E-02
      1.888     92.148  3.370E-02
      1.888     94.144  4.429E-02
      1.888     97.132  3.884E-02
      1.888     98.786  2.936E-02
      1.888    101.793  2.170E-02
      1.888    104.210  2.499E-02
      1.888    107.039  2.704E-02  2.645E-03
      1.888    109.078  2.445E-02  2.698E-03
      1.888    114.207  2.587E-02  2.530E-03
      1.888    119.130  1.563E-02  1.801E-03
      2.924     13.447  2.747E+00  6.793E-01
      2.924     15.995  9.105E-01  1.915E-01
      2.924     16.874  5.973E-01  1.042E-01
      2.924     18.808  2.545E-01  5.976E-02
      2.924     20.026  2.704E-01  4.714E-02
      2.924     21.408  4.843E-01
      2.924     22.707  7.096E-01  8.282E-02
      2.924     24.098  8.170E-01  9.544E-02
      2.924     26.894  5.416E-01
      2.924     29.360  1.397E-01
      2.924     29.764  6.761E-01  9.428E-02
      2.924     32.069  8.895E-02
      2.924     37.366  2.092E-01
      2.924     40.003  6.147E-02
      2.924     42.629  3.234E-02
      2.924     45.219  1.038E-01
      2.924     47.914  1.376E-01
      2.924     50.619  1.115E-01
      2.924     53.075  4.563E-02
      2.924     55.787  2.525E-02
      2.924     58.829  3.555E-02
      2.924     61.002  4.619E-02
      2.924     63.878  4.309E-02
      2.924     66.153  2.557E-02
      2.924     68.427  1.645E-02
      3.161     13.621  3.443E+00
      3.161     16.253  1.354E+00
      3.161     17.135  7.795E-01
      3.161     18.983  2.973E-01  6.603E-02
      3.161     20.362  6.255E-01
      3.161     21.397  1.076E+00
      3.161     22.436  1.455E+00
      3.161     24.089  1.642E+00
      3.161     26.362  1.067E+00
      3.161     29.432  3.609E-01
      3.161     32.136  2.984E-01
      3.161     34.911  5.853E-01
      3.161     37.353  4.839E-01
      3.161     40.071  2.041E-01
      3.161     42.439  9.146E-02
      3.161     44.774  2.149E-01
      3.161     47.908  2.354E-01
      3.161     50.699  1.908E-01
      3.161     53.592  7.503E-02
      3.161     55.869  4.151E-02
      3.161     58.817  8.061E-02
      3.161     60.904  1.006E-01
      3.161     63.953  9.672E-02
      3.161     66.054  5.856E-02
      3.161     68.238  4.207E-02
      3.325     14.368  5.924E-01  1.991E-01
      3.325     16.691  5.625E-01  1.013E-01
      3.325     17.852  4.866E-01  7.586E-02
      3.325     19.728  4.865E-01  9.962E-02
      3.325     21.156  4.252E-01
      3.325     22.229  4.524E-01
      3.325     23.299  3.317E-01
      3.325     25.085  2.508E-01
      3.325     27.404  1.190E-01
      3.325     30.172  8.199E-02
      3.325     32.943  1.130E-01
      3.325     35.354  9.573E-02
      3.325     37.847  1.614E-02  2.516E-03
      3.325     40.707  2.201E-02  2.149E-03
      3.325     43.478  3.065E-02
      3.325     45.892  4.180E-02
      3.325     51.069  1.664E-02
      3.325     54.011  4.609E-03  5.558E-04
      3.325     56.423  4.754E-03  7.412E-04
      3.325     59.106  7.651E-03  1.012E-03
      3.325     61.607  7.810E-03  1.125E-03
      3.325     64.106  4.703E-03  7.897E-04
      3.325     66.516  3.273E-03  5.497E-04
      3.325     80.631  2.714E-03
      3.325     82.402  1.168E-04
      3.325     92.248  5.426E-03
      3.611     14.171  1.248E+00  2.121E-01
      3.611     16.673  1.384E+00
      3.611     17.834  1.427E+00
      3.611     19.353  1.248E+00
      3.611     20.783  1.457E+00
      3.611     21.943   1.26E+00
      3.611     22.836  9.934E-01
      3.611     24.531  6.566E-01
      3.611     27.384  2.125E-01
      3.611     29.974  1.745E-01
      3.611     32.568  3.491E-01
      3.611     35.159  3.675E-01
      3.611     37.926   2.08E-01
      3.611     43.191  6.259E-02  6.111E-03
      3.611     45.606  1.072E-01
      3.611     48.286  1.039E-01
      3.611     53.372  2.791E-02   1.68E-03
      3.611     56.229  2.132E-02  2.096E-03
      3.611     59.001  3.431E-02
      3.611     61.505  5.136E-02
      3.611     63.917  5.082E-02
      3.611     66.684   3.29E-02  2.926E-03
      3.611     68.826  2.044E-02  2.573E-03
      3.898     10.923  1.978E+00  1.446E+00
      3.898     14.050  1.958E+00  4.752E-01
      3.898     16.374  2.383E+00
      3.898     17.625  2.509E+00
      3.898     19.143  2.216E+00
      3.898     20.661  1.746E+00
      3.898     21.822  1.558E+00
      3.898     22.892  1.191E+00
      3.898     24.408  5.769E-01
      3.898     27.352  2.443E-01
      3.898     29.947  5.827E-01
      3.898     32.717  7.469E-01
      3.898     35.127  5.039E-01
      3.898     37.801  1.340E-01
      3.898     40.303  1.411E-01
      3.898     43.076  2.851E-01
      3.898     45.488  3.065E-01
      3.898     48.345  1.826E-01
      3.898     51.111  9.712E-02
      3.898     53.434  1.111E-01
      3.898     56.116  1.409E-01
      3.898     59.152  1.134E-01
      3.898     61.473  7.264E-02
      3.898     63.971  3.520E-02
      3.898     66.293  3.076E-02
      3.898     69.064  4.701E-02
      4.193     10.398  4.270E-01  1.164E-01
      4.193     13.530  5.069E-01
      4.193     16.249  2.034E-01
      4.193     17.219  1.113E-01
      4.193     19.041  1.583E-01
      4.193     20.608  1.699E-01
      4.193     21.475  2.120E-01
      4.193     22.691  2.465E-01
      4.193     24.436  2.186E-01
      4.193     27.325  1.030E-01
      4.193     30.043  4.303E-02
      4.193     32.470  7.709E-02
      4.193     35.080  9.337E-02
      4.193     37.790  5.655E-02
      4.193     42.943  2.918E-02
      4.193     45.285  4.776E-02
      4.193     48.249  4.237E-02
      4.193     51.051  1.996E-02
      4.193     53.588  1.138E-02
      4.193     55.855  1.062E-02
      4.193     58.720  1.670E-02
      4.193     61.512  1.340E-02
      4.193     63.962  7.638E-03
      4.193     66.500  4.142E-03
       4.37     14.024  6.881E-01  1.640E-01
       4.37     16.099  5.632E-01  5.161E-02
       4.37     18.599  6.400E-01
       4.37     20.402  6.348E-01
       4.37     22.344  6.397E-01
       4.37     24.282  5.764E-01
       4.37     27.184  4.051E-01  4.088E-02
       4.37     29.120  3.342E-01  2.498E-02
       4.37     32.289  1.638E-01  1.381E-02
       4.37     34.644  1.487E-01  9.227E-03
       4.37     37.556  1.440E-01
       4.37     40.325  1.246E-01
       4.37     43.364  8.349E-02
       4.37     45.854  6.564E-02
       4.37     48.333  3.657E-02
       4.37     50.561  4.917E-02
       4.37     53.613  5.035E-02
       4.37     58.727  2.850E-02
       4.37     61.475  1.200E-02
       4.37     63.964  9.209E-03  1.042E-03
       4.37     67.021  1.116E-02  1.224E-03
       4.37     69.251  1.587E-02  1.909E-03
       4.68     16.030  2.346E-01  7.933E-02
       4.68     17.285  4.088E-02  1.438E-02
       4.68     20.575  1.117E-01  2.214E-02
       4.68     21.700  1.588E-01  3.338E-02
       4.68     22.750  1.248E-01  2.176E-02
       4.68     24.051  1.722E-01  2.402E-02
       4.68     27.020  1.177E-01  1.777E-02
       4.68     29.639  8.800E-02  1.228E-02
       4.68     32.537  2.639E-02  4.290E-03
       4.68     35.317  3.907E-02  6.351E-03
       4.68     37.840  4.545E-02  6.339E-03
       4.68     40.122  1.879E-02  4.647E-03
       4.68     43.092  1.271E-02  2.983E-03
       4.68     48.223  1.883E-02  3.958E-03
       4.68     61.385  1.239E-02  2.605E-03
       4.68     63.998  1.240E-02  2.912E-03
       4.68     66.534  7.586E-03  1.781E-03
       4.68     68.892  5.504E-03  1.430E-03
       4.77     16.401  9.647E-02  3.791E-02
       4.77     20.416  6.398E-02  2.250E-02
       4.77     21.625  1.101E-01  2.181E-02
       4.77     22.586  9.376E-02  1.745E-02
       4.77     24.233  1.374E-01  1.760E-02
       4.77     27.202  9.675E-02  1.687E-02
       4.77     29.476  6.223E-02  1.085E-02
       4.77     32.619  4.382E-02  7.126E-03
       4.77     35.055  5.098E-02  8.289E-03
       4.77     37.663  6.492E-02  7.584E-03
       4.77     40.544  4.664E-02  6.505E-03
       4.77     43.251  3.384E-02  3.953E-03
       4.77     48.654  3.035E-02  4.232E-03
       4.77     51.346  4.493E-02  5.246E-03
       4.77     54.138  3.678E-02  5.550E-03
       4.77     56.316  3.643E-02  5.503E-03
       4.77     61.814  2.121E-02  3.202E-03
       4.77     66.862  2.597E-02  3.631E-03
       4.77     69.476  2.496E-02  4.129E-03
       4.94     16.176  4.388E-01  1.179E-01
       4.94     17.069  3.796E-01  1.829E-01
       4.94     18.945  4.123E-01
       4.94     21.358  4.572E-01  7.677E-02
       4.94     22.696  3.249E-01  5.850E-02
       4.94     23.946   2.81E-01
       4.94     27.069  1.178E-01
       4.94     29.569  8.458E-02
       4.94     32.162   1.39E-01
       4.94     34.932  1.727E-01
       4.94     37.343  1.227E-01
       4.94     40.466  6.196E-02
       4.94     43.053  2.624E-02
       4.94     45.467   4.18E-02
       4.94     48.239  7.012E-02
       4.94     51.185  4.355E-02
       4.94     53.771  1.596E-02  3.268E-03
       4.94     56.270   9.51E-03  1.713E-03
       4.94     59.223  2.622E-02  5.697E-03
       4.94     61.365  1.612E-02  3.706E-03
       4.94     64.137  2.621E-02  5.694E-03
       4.94     66.458  1.961E-02  5.270E-03
       4.94     69.132  5.664E-03  1.982E-03
       5.23     16.336  9.634E-01  1.502E-01
       5.23     20.442  4.967E-01  1.017E-01
       5.23     21.783  5.800E-01
       5.23     23.121  3.914E-01
       5.23     24.281  2.781E-01
       5.23     26.957  1.073E-01  1.802E-02
       5.23     29.907  1.574E-01
       5.23     32.678  2.237E-01
       5.23     35.000  1.975E-01
       5.23     37.768  1.375E-01
       5.23     40.357  1.083E-01
       5.23     43.305  1.029E-01
       5.23     45.629  1.141E-01
       5.23     48.577  1.239E-01
       5.23     51.164  5.880E-02
       5.23     53.932  3.846E-02
       5.23     56.166  4.221E-02
       5.23     59.292  3.503E-02
       5.23     61.791  2.541E-02
       5.23     64.115  2.847E-02  3.063E-03
       5.23     66.793  1.805E-02  2.108E-03
       5.23     69.204  1.594E-02  1.715E-03
      6.698     13.977  5.370E-01  1.373E-01
      6.698     16.655  3.233E-01  6.220E-02
      6.698     17.815  2.885E-01  3.479E-02
      6.698     19.424  3.440E-01  4.549E-02
      6.698     20.675  3.300E-01  3.222E-02
      6.698     21.837  3.622E-01
      6.698     22.819  3.133E-01
      6.698     24.604  2.321E-01
      6.698     27.278  6.106E-02  1.174E-02
      6.698     29.691  8.073E-02  8.802E-03
      6.698     32.552  1.273E-01  1.099E-02
      6.698     35.143  1.246E-01
      6.698     37.820  6.628E-02  7.227E-03
      6.698     43.268  4.661E-02  7.265E-03
      6.698     45.860  6.162E-02  8.148E-03
      6.698     48.538  3.827E-02
      6.698     53.542  4.562E-02
      6.698     56.044  5.165E-02
      6.698     58.992  4.803E-02
      6.698     61.401  2.833E-02  4.757E-03
      6.698     66.133  1.653E-02  3.180E-03
      6.698     68.725  1.891E-02  3.638E-03
ENDDATA            332
ENDSUBENT          362
SUBENT        C2783007   20220727   20231218   20231218       C227
BIB                  5         22
REACTION   (24-CR-50(HE3,INL)24-CR-50,PAR,DA)
DETECTOR   (SI,TELES) The 3He data was obtained with a single
           silicon detector, while a deltaAE-E telescope was
           used to provide particle identification.
LEVEL-PROP (24-CR-50,E-LVL=0.783,SPIN=2.,PARITY=+1.)
           (24-CR-50,E-LVL=1.888,SPIN=4.,PARITY=+1.)
           (24-CR-50,E-LVL=2.924,SPIN=2.,PARITY=+1.)
           (24-CR-50,E-LVL=3.161,SPIN=2.,PARITY=+1.)
           (24-CR-50,E-LVL=3.325,SPIN=4.,PARITY=+1.)
           (24-CR-50,E-LVL=3.611,SPIN=4.,PARITY=+1.)
           (24-CR-50,E-LVL=3.698,SPIN=4.,PARITY=+1.)
           (24-CR-50,E-LVL=3.79,SPIN=5.,PARITY=+1.)
           (24-CR-50,E-LVL=3.898,SPIN=4.,PARITY=+1.)
           (24-CR-50,E-LVL=4.193,SPIN=2.,PARITY=+1.)
           (24-CR-50,E-LVL=4.37,SPIN=5.,PARITY=-1.)
           (24-CR-50,E-LVL=4.68,SPIN=2.,PARITY=+1.)
           (24-CR-50,E-LVL=4.77,SPIN=2.,PARITY=+1.)
           (24-CR-50,E-LVL=4.94,SPIN=4.,PARITY=+1.)
           (24-CR-50,E-LVL=5.23,SPIN=4.,PARITY=+1.)
ERR-ANALYS (DATA-ERR) No information on source of uncertainties.
STATUS     (CURVE) Figs.4,8,11,14 in J,NP/A,218,109,1974 were
           digitized by GSYS-2.4.9.
ENDBIB              22
COMMON               1          3
EN
MEV
41.35
ENDCOMMON            3
DATA                 4        209
E-LVL      ANG-CM     DATA-CM    DATA-ERR
MEV        ADEG       MU-B/SR    MU-B/SR
      0.783     12.395  3.019E+01  5.885E+00
      0.783     14.977  2.168E+01
      0.783     15.867  1.613E+01  1.553E+00
      0.783     18.553  4.214E+00
      0.783     20.795  5.968E+00
      0.783     22.221  8.571E+00
      0.783     23.905  1.028E+01
      0.783     26.550  7.489E+00
      0.783     28.840  3.220E+00
      0.783     31.464  8.289E-01
      0.783     34.128  1.735E+00
      0.783     37.053  2.860E+00
      0.783     39.393  1.654E+00
      0.783     42.008  5.443E-01
      0.783     44.675  2.257E-01
      0.783     47.136  6.928E-01
      0.783     49.753  9.743E-01
      0.783     52.276  6.557E-01
      0.783     54.945  2.623E-01
      0.783     57.371  8.758E-02
      0.783     59.792  1.497E-01
      0.783     62.845  2.280E-01
      0.783     65.414  2.316E-01
      0.783     67.935  1.604E-01
      1.888     14.421  4.417E-01  7.042E-02
      1.888     15.579  2.262E-01  2.605E-02
      1.888     18.318  1.645E-01  1.753E-02
      1.888     20.958  8.767E-02  9.343E-03
      1.888     23.603  1.456E-01  2.002E-02
      1.888     33.890  1.270E-01  1.464E-02
      1.888     36.571  1.533E-01  1.898E-02
      1.888     39.660  5.577E-02
      1.888     41.542  6.080E-02
      1.888     44.505  6.683E-02
      1.888     47.923  4.714E-02
      1.888     50.219  4.792E-02
      1.888     53.179  5.392E-02
      1.888     55.317  6.659E-02
      1.888     57.497  5.703E-02
      1.888     60.510  4.022E-02
      1.888     62.426  3.262E-02
      1.888     65.536  3.215E-02
      1.888     67.432  3.095E-02
      1.888     70.659  3.592E-02
      1.888     75.550  2.872E-02
      2.924     14.848  1.105E+00  1.444E-01
      2.924     14.857  1.908E+00  2.494E-01
      2.924     14.889  1.877E+00  1.807E-01
      2.924     16.043  9.991E-01  1.144E-01
      2.924     16.109  9.250E-01
      2.924     16.223  5.565E-02  1.758E-02
      2.924     16.253  1.238E+00  1.418E-01
      2.924     17.925  4.378E-01  3.926E-02
      2.924     18.122  1.639E-02  7.474E-03
      2.924     18.406  3.368E-01
      2.924     18.477  2.744E-01  2.486E-02
      2.924     18.795  5.222E-02  9.881E-03
      2.924     21.054  2.207E-02  8.925E-03
      2.924     21.206  1.155E-01  1.322E-02
      2.924     21.207  2.443E-01  2.795E-02
      2.924     21.398  4.876E-01
      2.924     21.617  4.865E-02  7.976E-03
      2.924     23.630  1.886E-02  1.066E-02
      2.924     23.892  6.662E-01  6.559E-02
      2.924     23.945  3.856E-01  3.797E-02
      2.924     24.008  1.771E-01  2.170E-02
      2.924     24.080  3.024E-02  6.783E-03
      2.924     26.436  2.614E-02  4.506E-03
      2.924     26.440  2.351E-01  2.502E-02
      2.924     26.467  5.732E-01  5.190E-02
      2.924     26.508  4.538E-02  8.589E-03
      2.924     26.511  4.181E-01  3.786E-02
      2.924     28.949  2.196E-01
      2.924     29.012  2.217E-02  6.583E-03
      2.924     29.095  2.876E-01  3.689E-02
      2.924     29.099  2.586E-02  5.348E-03
      2.924     29.146  1.789E-01  2.295E-02
      2.924     31.238  9.810E-03  4.166E-03
      2.924     31.434   1.74E-02  5.336E-03
      2.924     31.497  7.937E-02
      2.924     31.594  7.510E-02  8.597E-03
      2.924     31.714  3.901E-02  4.465E-03
      2.924     33.995  9.896E-03  4.409E-03
      2.924     34.236  2.651E-02   8.63E-03
      2.924     34.239  1.149E-01
      2.924     34.439  8.587E-02  8.818E-03
      2.924     34.458  1.152E-01  1.411E-02
      2.924     36.881  1.927E-01  2.591E-02
      2.924     36.893  6.726E-02  8.200E-03
      2.924     36.919  1.628E-01
      2.924     36.964  1.156E-02  3.653E-03
      2.924     37.093  4.918E-03  2.089E-03
      2.924     39.058  1.334E-02  4.216E-03
      2.924     39.211  6.686E-02  8.740E-03
      2.924     39.524  1.438E-02  4.681E-03
      2.924     39.559  1.332E-01  1.792E-02
      2.924     42.094  6.648E-02  6.390E-03
      2.924     42.104  1.100E-01  1.437E-02
      2.924     42.179  3.766E-02  5.855E-03
      2.924     44.518  2.268E-02  2.780E-03
      2.924     44.771  2.162E-02  2.908E-03
      2.924     44.824  5.832E-02  5.605E-03
      2.924     47.238  2.618E-02  1.999E-03
      2.924     47.279  2.068E-02  2.037E-03
      2.924     49.842  2.393E-02  2.768E-03
      2.924     50.082  6.613E-02  6.512E-03
      2.924     50.188  5.013E-02  6.750E-03
      2.924     52.269  3.600E-02  4.164E-03
      2.924     52.289  4.748E-02  5.493E-03
      2.924     52.414  2.245E-02  2.309E-03
      2.924     54.788  2.661E-02  3.749E-03
      2.924     54.857  4.859E-02  4.997E-03
      2.924     54.916  2.452E-02  3.604E-03
      2.924     57.533  3.507E-02  5.154E-03
      2.924     57.628  1.615E-02  1.659E-03
      2.924     57.689  3.541E-02  5.205E-03
      2.924     60.082  2.694E-02  2.768E-03
      2.924     60.157  9.137E-03  1.497E-03
      2.924     62.600  1.992E-02  2.123E-03
      2.924     62.722  9.979E-03  1.552E-03
      2.924     65.241  1.583E-02  1.941E-03
      2.924     65.492  7.272E-03  1.378E-03
      2.924     67.694  1.267E-02  1.865E-03
      2.924     67.932  8.057E-03  1.185E-03
      3.325     16.082  3.257E-02  1.006E-02
      3.325     18.468  6.071E-02  1.743E-02
      3.325     21.003  6.662E-02  1.287E-02
      3.325     23.613  5.446E-02  1.107E-02
      3.325     29.141  6.274E-03  1.869E-03
      3.325     31.821  6.491E-03  1.655E-03
      3.325     36.955  2.199E-02  7.036E-03
      3.325     47.764   5.59E-03  1.193E-03
      3.325     50.164  2.332E-03  6.441E-04
      3.325     52.776  1.532E-03  6.125E-04
      3.325     55.377  3.464E-03  1.070E-03
      3.325     57.914  3.159E-03  9.758E-04
      3.611     14.802  2.525E-01  4.127E-02
      3.611     16.176  3.565E-01  2.876E-02
      3.611     18.637  4.475E-01  4.339E-02
      3.611     21.318  4.669E-01  4.127E-02
      3.611     23.930  3.253E-01  2.855E-02
      3.611     26.404  1.099E-01
      3.611     29.023  3.533E-02  4.964E-03
      3.611     31.769  7.599E-02  1.013E-02
      3.611     34.374  1.138E-01
      3.611     37.055  1.139E-01
      3.611     39.744  4.953E-02
      3.611     49.964  3.758E-02   3.32E-03
      3.611     54.894  2.754E-02  3.468E-03
      3.698     15.189  1.957E-01  4.178E-02
      3.698     24.182  8.102E-02  1.729E-02
      3.698     26.652  4.205E-02  9.842E-03
      3.698     29.412  2.058E-02  5.247E-03
      3.698     31.882  1.059E-02  3.155E-03
      3.698     37.100  9.909E-03  2.527E-03
      3.698     39.706  1.297E-02  3.724E-03
      3.698     50.352  2.302E-02  6.360E-03
      3.698     55.213  1.289E-02  4.559E-03
      3.898     15.291  8.075E-01
      3.898     16.880  1.455E+00
      3.898     19.126  1.456E+00
      3.898     21.884  9.169E-01
      3.898     24.139  3.792E-01
      3.898     26.684  1.418E-01
      3.898     29.440  1.130E-01
      3.898     31.970  2.197E-01
      3.898     34.723  2.179E-01
      3.898     37.410  1.220E-01
      3.898     40.096  6.661E-02
      3.898     42.562  5.400E-02
      3.898     45.090  1.329E-01  2.972E-02
      3.898     50.246  4.061E-02  1.577E-02
      3.898     52.570  2.331E-02  6.692E-03
      3.898     55.752  4.346E-02  1.201E-02
      3.898     59.093  1.972E-02  6.974E-03
       4.37     16.239  5.909E-02  1.605E-02
       4.37     18.728  4.608E-02  1.394E-02
       4.37     21.110  1.043E-01  2.312E-02
       4.37     24.151  7.329E-02  1.205E-02
       4.37     26.793  9.096E-02  9.176E-03
       4.37     29.271  5.028E-02  6.874E-03
       4.37     31.748  2.606E-02  3.802E-03
       4.37     35.067  1.876E-02  2.737E-03
       4.37     37.007  1.802E-02  2.464E-03
       4.37     39.521  3.156E-02  4.604E-03
       4.37     42.288  2.501E-02  2.523E-03
       4.37     46.009  1.159E-02  1.169E-03
       4.37     46.695  9.042E-03  9.121E-04
       4.37     50.299  8.210E-03  9.738E-04
       4.37     53.076  9.182E-03  8.455E-04
       4.37     56.126  8.819E-03  9.679E-04
       4.94     21.474  7.108E-02  1.373E-02
       4.94     24.011  6.009E-02  1.041E-02
       4.94     26.479  3.753E-02  5.769E-03
       4.94     29.172  1.118E-02  2.501E-03
       4.94     31.707  1.237E-02  4.805E-03
       4.94     34.382  2.268E-02  6.510E-03
       4.94     37.357  1.515E-02  4.186E-03
       4.94     39.828  6.759E-03  2.390E-03
       5.23     14.966  1.671E-01  3.229E-02
       5.23     16.199  1.449E-01  2.511E-02
       5.23     21.486   1.93E-01  2.967E-02
       5.23     24.103  7.849E-02  1.438E-02
       5.23     26.571   4.78E-02  7.349E-03
       5.23     29.035  4.741E-02  8.217E-03
       5.23     31.429  3.654E-02  6.695E-03
       5.23     34.180  4.511E-02  8.264E-03
       5.23     37.446  2.656E-02  8.499E-03
       5.23     39.474  2.771E-02  5.633E-03
ENDDATA            211
ENDSUBENT          242
SUBENT        C2783008   20220727   20231218   20231218       C227
BIB                  5         22
REACTION   (24-CR-50(D,INL)24-CR-50,PAR,DA)
DETECTOR   (TELES) A deltaE-E telescope was used to provide
           particle identification, as well as an energy signal
           for the deuteron spectra.
LEVEL-PROP (24-CR-50,E-LVL=0.783,SPIN=2.,PARITY=+1.)
           (24-CR-50,E-LVL=1.888,SPIN=4.,PARITY=+1.)
           (24-CR-50,E-LVL=2.924,SPIN=2.,PARITY=+1.)
           (24-CR-50,E-LVL=3.161,SPIN=2.,PARITY=+1.)
           (24-CR-50,E-LVL=3.325,SPIN=4.,PARITY=+1.)
           (24-CR-50,E-LVL=3.611,SPIN=4.,PARITY=+1.)
           (24-CR-50,E-LVL=3.698,SPIN=4.,PARITY=+1.)
           (24-CR-50,E-LVL=3.79,SPIN=5.,PARITY=+1.)
           (24-CR-50,E-LVL=3.898,SPIN=4.,PARITY=+1.)
           (24-CR-50,E-LVL=4.193,SPIN=2.,PARITY=+1.)
           (24-CR-50,E-LVL=4.37,SPIN=5.,PARITY=-1.)
           (24-CR-50,E-LVL=4.68,SPIN=2.,PARITY=+1.)
           (24-CR-50,E-LVL=4.77,SPIN=2.,PARITY=+1.)
           (24-CR-50,E-LVL=4.94,SPIN=4.,PARITY=+1.)
           (24-CR-50,E-LVL=5.23,SPIN=4.,PARITY=+1.)
ERR-ANALYS (DATA-ERR) No information on source of uncertainties.
STATUS     (CURVE) Fig.5,9,11,13,14 in J,NP/A,218,109,1974 were
           digitized by GSYS-2.4.9.
ENDBIB              22
COMMON               1          3
EN
MEV
16.38
ENDCOMMON            3
DATA                 4        172
E-LVL      ANG-CM     DATA-CM    DATA-ERR
MEV        ADEG       MU-B/SR    MU-B/SR
      0.783     15.812  3.635E+00  5.425E-01
      0.783     17.735  5.591E+00
      0.783     20.457  5.961E+00
      0.783     26.037  5.164E+00
      0.783     28.235  4.440E+00
      0.783     30.680  2.836E+00
      0.783     33.546  2.123E+00
      0.783     35.939  2.292E+00
      0.783     41.038  3.149E+00
      0.783     46.368  3.766E+00
      0.783     51.537  2.533E+00
      0.783     56.182  1.356E+00
      0.783     61.351  9.065E-01
      0.783     66.141  1.030E+00
      0.783     71.141  1.272E+00
      0.783     73.982  1.225E+00
      0.783     76.164  1.234E+00
      0.783     81.435  8.898E-01
      0.783     86.484  6.621E-01
      0.783     91.425  4.896E-01
      0.783     96.126  4.517E-01
      0.783    102.021  4.468E-01
      0.783    106.386  4.475E-01
      0.783    110.865  4.287E-01
      0.783    115.783  4.006E-01
      0.783    121.498  2.695E-01
      0.783    125.572  1.858E-01
      0.783    131.155  1.569E-01
      0.783    135.408  1.632E-01
      1.888     18.200  4.905E-01  9.164E-02
      1.888     20.385  4.040E-01  4.653E-02
      1.888     25.685  3.131E-01
      1.888     31.098  2.925E-01
      1.888     35.967  2.841E-01
      1.888     41.383  2.593E-01
      1.888     46.800  2.348E-01
      1.888     51.402  2.210E-01
      1.888     56.402  2.214E-01
      1.888     71.727  1.396E-01
      1.888     82.134  1.380E-01
      1.888     91.474  1.213E-01
      1.888    101.636  9.716E-02
      1.888    111.776  9.308E-02
      1.888    121.804  7.398E-02
      1.888    132.097  6.065E-02
      1.888    136.839  5.491E-02
      2.924     20.786  2.089E-01  2.224E-02
      2.924     26.063  1.414E-01  1.017E-02
      2.924     28.172  9.869E-02  5.768E-03
      2.924     31.262  6.933E-02
      2.924     36.141  3.171E-02  2.869E-03
      2.924     41.450  4.730E-02  4.060E-03
      2.924     46.434  6.881E-02
      2.924     61.556  3.698E-02  2.913E-03
      2.924     65.991  1.824E-02  1.314E-03
      2.924     71.497  1.109E-02  7.987E-04
      2.924     89.427  2.443E-02  1.429E-03
      2.924    111.181  5.639E-03  4.445E-04
      2.924    121.322  6.221E-03  7.499E-04
      3.161     20.717  4.916E-01  5.233E-02
      3.161     26.220  3.085E-01  2.218E-02
      3.161     28.635  2.669E-01  1.560E-02
      3.161     31.174  1.985E-01
      3.161     36.343  1.335E-01
      3.161     41.657  1.881E-01
      3.161     46.207  2.651E-01
      3.161     51.989  2.741E-01
      3.161     56.592  2.243E-01
      3.161     62.097  1.372E-01
      3.161     66.165  1.014E-01
      3.161     71.411  9.417E-02
      3.161     76.318  9.922E-02
      3.161     91.736  7.362E-02  4.305E-03
      3.161    101.485  5.086E-02  4.009E-03
      3.161    121.537  2.279E-02  2.747E-03
      3.325     28.237  3.915E-01
      3.325     30.660  4.399E-01
      3.325     35.804  4.260E-01
      3.325     40.802  4.481E-01
      3.325     46.531  3.328E-01
      3.325     51.696  2.200E-01
      3.325     56.557  2.044E-01
      3.325     61.704  1.867E-01
      3.325     66.140  1.623E-01
      3.325     72.153  1.277E-01
      3.325     76.018  1.092E-01
      3.325     81.873  1.130E-01
      3.325     92.033  8.123E-02
      3.325    101.608  7.678E-02
      3.325    122.208  4.348E-02
      3.611     26.290  8.995E-02
      3.611     28.555  1.329E-01
      3.611     31.124  1.409E-01
      3.611     36.407  1.482E-01
      3.611     41.839  1.377E-01
      3.611     46.991  1.158E-01
      3.611     52.150  8.385E-02
      3.611     56.876  6.765E-02
      3.611     66.593  6.341E-02
      3.611     76.452  6.145E-02
      3.698     28.699  8.191E-02
      3.698     31.551  9.053E-02
      3.698     36.837  9.061E-02
      3.698     41.848   7.25E-02
      3.698     46.992  7.137E-02
      3.698     51.854  6.466E-02
      3.698     56.862  5.528E-02
      3.698     66.303  4.427E-02
      3.698     76.736  4.048E-02
       3.79     26.501  3.648E-02  9.215E-03
       3.79     52.237   2.52E-02  3.359E-03
       3.79     56.774  1.956E-02  2.055E-03
       3.79     67.132  1.038E-02   2.46E-03
      3.898     26.723  3.280E-01
      3.898     28.860  3.654E-01
      3.898     31.427  4.005E-01
      3.898     36.290  3.540E-01
      3.898     41.587  2.832E-01
      3.898     46.741  2.285E-01
      3.898     51.892  1.954E-01
      3.898     56.897  1.770E-01
      3.898     66.481  1.394E-01
      4.193     26.207  3.804E-01
      4.193     27.973  3.109E-01
      4.193     30.069  2.478E-01
      4.193     35.672  1.699E-01
      4.193     41.229  1.871E-01
      4.193     46.572  1.959E-01
      4.193     51.609  1.655E-01
      4.193     56.084  1.657E-01  9.154E-03
      4.193     66.333  6.007E-02  4.393E-03
      4.193     76.142  6.970E-02  5.505E-03
       4.37     29.204  5.339E-02  5.663E-03
       4.37     31.566  6.165E-02  9.546E-03
       4.37     36.556  5.597E-02  7.145E-03
       4.37     41.962  5.041E-02  4.983E-03
       4.37     46.816  4.919E-02  3.421E-03
       4.37     51.396  5.456E-02  7.461E-03
       4.37     56.250  5.324E-02  7.767E-03
       4.37     66.629  2.525E-02  3.684E-03
       4.37     76.743  1.718E-02  2.984E-03
       4.68     26.167  6.158E-02  7.862E-03
       4.68     28.970  2.886E-02  3.889E-03
       4.68     46.911  1.877E-02  2.131E-03
       4.68     52.133  2.230E-02  2.529E-03
       4.68     56.738  1.801E-02  2.043E-03
       4.68     66.841  9.542E-03  1.285E-03
       4.68     76.899  8.021E-03  1.433E-03
       4.77     28.797  5.977E-02  7.632E-03
       4.77     31.188  6.619E-02  8.919E-03
       4.77     37.206  5.662E-02  7.635E-03
       4.77     41.811  4.574E-02  5.188E-03
       4.77     46.723  4.552E-02  6.468E-03
       4.77     52.070  4.618E-02   6.22E-03
       4.77     56.996  3.975E-02   4.23E-03
       4.77     66.645  2.513E-02  2.677E-03
       4.77     77.009  2.619E-02  3.716E-03
       4.94     37.102  5.344E-02  8.602E-03
       4.94     41.717  2.315E-02  3.950E-03
       4.94     46.609  1.174E-02  1.890E-03
       4.94     51.752  1.165E-02  1.989E-03
       4.94     56.378  4.101E-03  9.452E-04
       4.94     66.209  6.813E-03  1.431E-03
       4.94     76.485  8.191E-03  1.318E-03
       5.23     26.329  6.582E-02  7.490E-03
       5.23     28.760  6.317E-02  7.776E-03
       5.23     31.473  6.533E-02  6.243E-03
       5.23     46.348  4.624E-02  4.838E-03
       5.23     51.466  7.424E-02  5.753E-03
       5.23     56.606  7.875E-02  6.104E-03
       5.23     66.620   6.05E-02  5.777E-03
       5.23     76.786  3.841E-02  2.636E-03
ENDDATA            174
ENDSUBENT          205
SUBENT        C2783009   20220727   20231218   20231218       C227
BIB                  5         22
REACTION   (24-CR-50(P,INL)24-CR-50,PAR,DA)
DETECTOR   (SI,TELES) The proton data was obtained with a single
           silicon detector, while a deltaAE-E telescope was
           used to provide particle identification.
LEVEL-PROP (24-CR-50,E-LVL=0.783,SPIN=2.,PARITY=+1.)
           (24-CR-50,E-LVL=1.888,SPIN=4.,PARITY=+1.)
           (24-CR-50,E-LVL=2.924,SPIN=2.,PARITY=+1.)
           (24-CR-50,E-LVL=3.161,SPIN=2.,PARITY=+1.)
           (24-CR-50,E-LVL=3.325,SPIN=4.,PARITY=+1.)
           (24-CR-50,E-LVL=3.611,SPIN=4.,PARITY=+1.)
           (24-CR-50,E-LVL=3.698,SPIN=4.,PARITY=+1.)
           (24-CR-50,E-LVL=3.79,SPIN=5.,PARITY=+1.)
           (24-CR-50,E-LVL=3.898,SPIN=4.,PARITY=+1.)
           (24-CR-50,E-LVL=4.193,SPIN=2.,PARITY=+1.)
           (24-CR-50,E-LVL=4.37,SPIN=5.,PARITY=-1.)
           (24-CR-50,E-LVL=4.68,SPIN=2.,PARITY=+1.)
           (24-CR-50,E-LVL=4.77,SPIN=2.,PARITY=+1.)
           (24-CR-50,E-LVL=4.94,SPIN=4.,PARITY=+1.)
           (24-CR-50,E-LVL=5.23,SPIN=4.,PARITY=+1.)
ERR-ANALYS (DATA-ERR) No information on source of uncertainties.
STATUS     (CURVE) Fig.6,10,11,13,14 in J,NP/A,218,109,1974 were
           digitized by GSYS-2.4.9.
ENDBIB              22
COMMON               2          3
EN         EN-RSL-HW
MEV        KEV
22.86      40.
ENDCOMMON            3
DATA                 4        278
E-LVL      ANG-CM     DATA-CM    DATA-ERR
MEV        ADEG       MU-B/SR    MU-B/SR
      0.783      9.861  1.505E+01  1.576E+00
      0.783     12.000  9.736E+00  4.962E-01
      0.783     14.929  7.993E+00
      0.783     20.060  7.863E+00
      0.783     22.573  8.146E+00
      0.783     24.984  8.688E+00
      0.783     29.809  9.271E+00
      0.783     32.427  9.010E+00  3.087E-01
      0.783     35.750  8.408E+00  3.822E-01
      0.783     40.688  7.362E+00
      0.783     50.682  4.099E+00
      0.783     56.023  3.487E+00
      0.783     67.794  3.474E+00
      0.783     70.613  3.357E+00
      0.783     75.654  2.790E+00
      0.783     80.397  2.149E+00
      0.783     85.342  1.656E+00
      0.783     89.676  1.433E+00
      0.783     95.007  1.468E+00  5.861E-02
      0.783    100.034  1.540E+00  7.850E-02
      0.783    105.259  1.731E+00  6.908E-02
      0.783    110.090  1.664E+00  9.402E-02
      0.783    115.127  1.474E+00
      0.783    120.476  1.103E+00
      1.888     23.982  2.076E-01  5.055E-02
      1.888     29.219  2.065E-01  2.359E-02
      1.888     31.806  2.146E-01
      1.888     34.725  2.089E-01  1.156E-02
      1.888     37.094  2.022E-01  1.217E-02
      1.888     39.914  1.979E-01
      1.888     44.807  1.847E-01  1.341E-02
      1.888     49.830  1.447E-01  1.005E-02
      1.888     54.863  1.308E-01  9.298E-03
      1.888     60.054  1.216E-01  1.337E-02
      1.888     64.463  1.096E-01  8.880E-03
      1.888     74.806  1.094E-01  9.582E-03
      1.888     79.841  9.704E-02  7.364E-03
      1.888     84.411  7.145E-02  5.750E-03
      1.888     94.919  8.485E-02  6.407E-03
      1.888     99.894  9.002E-02  7.279E-03
      1.888    104.952  9.264E-02  7.154E-03
      1.888    109.487  9.280E-02  6.373E-03
      1.888    114.502  9.742E-02  7.531E-03
      1.888    119.039  9.578E-02  8.540E-03
      1.888    129.360  8.687E-02  7.029E-03
      1.888    133.301  7.217E-02  6.462E-03
      1.888    140.586  8.071E-02  7.217E-03
      1.888    145.060  7.138E-02  6.990E-03
      1.888    150.216  5.933E-02  5.813E-03
      1.888    153.875  5.453E-02  3.061E-03
      1.888    158.368  4.064E-02  3.627E-03
      1.888    162.153  4.038E-02  3.269E-03
      2.924     14.879  5.901E-01  1.810E-01
      2.924     19.749  2.905E-01  3.584E-02
      2.924     21.769  2.572E-01  4.548E-02
      2.924     24.687  2.529E-01  2.467E-02
      2.924     30.424  2.417E-01
      2.924     32.540  2.281E-01
      2.924     37.674  2.179E-01
      2.924     41.302  1.953E-01
      2.924     45.639  1.594E-01
      2.924     50.780  1.340E-01
      2.924     55.742  7.676E-02
      2.924     67.838  5.180E-02
      2.924     70.451  5.430E-02
      2.924     75.378  5.596E-02
      2.924     80.510  5.536E-02  4.695E-03
      2.924     85.642  5.414E-02  4.938E-03
      2.924     90.559  6.721E-02  4.438E-03
      2.924    100.219  6.503E-02  5.103E-03
      3.161     15.166  1.355E+00  1.849E-01
      3.161     20.122  8.663E-01  9.005E-02
      3.161     22.338  8.225E-01  1.511E-01
      3.161     24.655  7.855E-01  7.663E-02
      3.161     30.192  7.248E-01
      3.161     32.605  7.509E-01
      3.161     37.737  7.344E-01
      3.161     40.963  6.579E-01
      3.161     45.896  6.142E-01
      3.161     50.333  5.133E-01
      3.161     55.580  3.932E-01
      3.161     67.175  2.518E-01
      3.161     70.299  2.336E-01
      3.161     75.539  1.998E-01
      3.161     80.170  1.898E-01
      3.161     85.402  1.856E-01
      3.161     90.530  1.958E-01
      3.325     15.073  2.018E-01  4.060E-02
      3.325     20.210  1.603E-01  2.035E-02
      3.325     24.794  1.194E-01  1.516E-02
      3.325     30.067  1.086E-01  1.089E-02
      3.325     32.148  1.060E-01  9.665E-03
      3.325     37.562  8.621E-02  5.323E-03
      3.325     40.335  8.973E-02  8.219E-03
      3.325     45.745  8.765E-02  8.625E-03
      3.325     50.465  7.359E-02  6.710E-03
      3.325     55.736  7.131E-02  4.403E-03
      3.325     67.672  5.108E-02  3.912E-03
      3.325     69.891  5.028E-02  4.170E-03
      3.325     75.305  4.221E-02  3.867E-03
      3.325     80.296  4.610E-02  4.623E-03
      3.325     85.149  4.799E-02  4.394E-03
      3.325     90.417  5.410E-02  5.429E-03
      3.325    100.125  5.414E-02  4.959E-03
      3.611     14.686  6.158E-01  9.497E-02
      3.611     19.681  5.554E-01  7.051E-02
      3.611     21.902  5.089E-01  6.462E-02
      3.611     24.820  4.138E-01  5.253E-02
      3.611     29.816  3.732E-01  5.075E-02
      3.611     32.451  3.674E-01  4.664E-02
      3.611     37.722  3.560E-01  3.261E-02
      3.611     40.497  3.477E-01  4.726E-02
      3.611     45.488  3.707E-01  4.046E-02
      3.611     50.204  3.768E-01  3.436E-02
      3.611     55.751  3.770E-01  2.887E-02
      3.611     67.544  3.269E-01   3.28E-02
      3.611     70.180  3.142E-01  2.878E-02
      3.611     75.034  3.219E-01  3.229E-02
      3.611     80.444  3.046E-01  2.789E-02
      3.611     85.022  2.952E-01  2.961E-02
      3.611     90.015  2.953E-01  3.485E-02
      3.611     95.979  2.978E-01  2.727E-02
      3.611    100.143  2.643E-01   2.41E-02
      3.611    106.246  2.521E-01  2.529E-02
      3.611    110.963  2.424E-01  2.644E-02
      3.611    116.240  1.820E-01  1.667E-02
      3.611    120.546  1.411E-01  1.539E-02
      3.611    130.261  1.094E-01  1.389E-02
      3.611    136.506  9.187E-02  1.084E-02
      3.698     15.174  3.006E-01  6.335E-02
      3.698     17.820  1.956E-01  3.017E-02
      3.698     20.318  1.865E-01  2.368E-02
      3.698     22.676  1.865E-01  2.368E-02
      3.698     25.730  1.669E-01  2.269E-02
      3.698     29.889  1.779E-01  2.258E-02
      3.698     32.245  1.927E-01  1.765E-02
      3.698     37.516  1.867E-01  1.710E-02
      3.698     40.847  1.697E-01  1.852E-02
      3.698     46.260  1.436E-01  1.310E-02
      3.698     50.702  1.225E-01  9.384E-03
      3.698     68.187  8.304E-02  8.333E-03
      3.698     69.990  8.574E-02  7.855E-03
      3.698     75.260  8.442E-02  8.467E-03
      3.698     80.257  7.376E-02  6.754E-03
      3.698     85.944  7.148E-02  7.170E-03
      3.698     90.663  6.195E-02  7.311E-03
      3.698     96.075  5.456E-02  4.997E-03
      3.698    100.928  5.817E-02  5.304E-03
      3.698    106.060  5.774E-02  4.422E-03
      3.698    110.496  6.305E-02  6.324E-03
      3.698    120.903  5.089E-02  6.918E-03
      3.698    130.614  4.778E-02  5.213E-03
      3.698    135.050  5.217E-02  6.624E-03
       3.79     20.272  1.062E-01  6.116E-02
       3.79     30.558  1.033E-01  1.700E-02
       3.79     33.062  1.022E-01  1.468E-02
       3.79     38.036  8.665E-02  1.162E-02
       3.79     40.733  1.007E-01  1.653E-02
       3.79     45.211  7.603E-02  1.174E-02
       3.79     50.540  7.709E-02  1.186E-02
       3.79     55.850  7.211E-02  8.881E-03
       3.79     68.443  4.773E-02  6.860E-03
       3.79     70.747  3.912E-02  6.447E-03
       3.79     75.925  4.075E-02  4.227E-03
       3.79     80.910  3.613E-02  4.459E-03
       3.79     86.267  4.154E-02  3.899E-03
       3.79     90.782  3.685E-02  6.063E-03
       3.79     96.061  3.013E-02  5.593E-03
       3.79    100.920  3.057E-02  4.401E-03
       3.79    105.905  2.710E-02  3.626E-03
       3.79    110.263  2.404E-02  3.953E-03
       3.79    120.948  7.113E-03  2.448E-03
       3.79    130.729  1.909E-02  2.364E-03
       3.79    136.384  2.043E-02  3.149E-03
      3.898     15.249  1.377E+00  2.214E-01
      3.898     18.160  1.456E+00  2.246E-01
      3.898     20.661  1.213E+00  1.540E-01
      3.898     22.887  9.177E-01  1.165E-01
      3.898     25.802  8.146E-01  1.108E-01
      3.898     30.797  7.585E-01  9.629E-02
      3.898     33.294  7.407E-01  6.785E-02
      3.898     38.013  6.523E-01  5.973E-02
      3.898     40.788  6.270E-01  6.842E-02
      3.898     46.753  5.885E-01  6.943E-02
      3.898     51.193  5.613E-01  6.124E-02
      3.898     55.911  5.062E-01  5.080E-02
      3.898     67.435  3.043E-01  2.788E-02
      3.898     70.071  2.972E-01  2.980E-02
      3.898     75.621  2.617E-01  2.397E-02
      3.898     80.482  2.013E-01  2.019E-02
      3.898     85.897  1.561E-01  1.842E-02
      3.898     90.060  1.442E-01  1.320E-02
      3.898     95.197  1.182E-01  1.394E-02
      3.898    100.611  9.383E-02  9.410E-03
      3.898    105.468  8.668E-02  7.186E-03
      3.898    110.047  7.818E-02  9.225E-03
      3.898    115.595  7.884E-02  8.601E-03
      3.898    130.292  9.330E-02  1.185E-02
      3.898    135.700  1.003E-01  9.185E-03
      4.193     14.973  3.698E-01  5.543E-02
      4.193     17.565  5.592E-01  7.635E-02
      4.193     19.992  4.485E-01  5.828E-02
      4.193     22.488  6.252E-01  6.098E-02
      4.193     24.503   5.97E-01  5.301E-02
      4.193     30.019   8.04E-01  5.850E-02
      4.193     31.729   8.09E-01  9.294E-02
      4.193     37.767  7.776E-01  7.092E-02
      4.193     39.587   6.61E-01  5.608E-02
      4.193     44.934  5.182E-01  4.330E-02
      4.193     50.083  3.789E-01  4.180E-02
      4.193     55.031  2.754E-01  1.650E-02
      4.193     67.630  1.827E-01
      4.193     69.844  1.817E-01
      4.193     74.776  1.746E-01
      4.193     79.613  1.511E-01
      4.193     84.958  1.213E-01
      4.193     89.486  1.186E-01
      4.193     95.134  9.354E-02
      4.193     99.772  7.863E-02
      4.193    105.608  7.646E-02
      4.193    110.449  6.244E-02
      4.193    115.890  5.373E-02
      4.193    120.729   4.57E-02
      4.193    135.825  4.152E-02
       4.37     14.697  3.483E-01  7.382E-02
       4.37     17.751  3.773E-01  8.733E-02
       4.37     19.818  2.448E-01  6.152E-02
       4.37     22.322  3.136E-01  4.862E-02
       4.37     25.366  2.446E-01  3.794E-02
       4.37     30.221  2.484E-01  3.397E-02
       4.37     32.580  2.606E-01  3.802E-02
       4.37     37.571  2.424E-01  3.536E-02
       4.37     40.621  2.291E-01  3.980E-02
       4.37     45.474  2.218E-01  3.030E-02
       4.37     50.327  2.129E-01  2.337E-02
       4.37     55.179  1.933E-01  2.821E-02
       4.37     67.654  1.519E-01  1.939E-02
       4.37     70.152  1.593E-01  1.608E-02
       4.37     75.696  1.401E-01  1.788E-02
       4.37     80.404  1.083E-01  1.780E-02
       4.37     85.945  8.515E-02  1.165E-02
       4.37     90.518  7.487E-02  7.554E-03
       4.37     95.648  7.076E-02  7.766E-03
       4.37    100.637  6.272E-02  6.326E-03
       4.37    105.910  6.737E-02  5.620E-03
       4.37    110.624  6.366E-02  6.424E-03
       4.37    115.754  6.016E-02  7.683E-03
       4.37    120.330  5.871E-02  8.028E-03
       4.37    130.451  5.201E-02  6.170E-03
       4.68     30.281  5.015E-02  1.132E-02
       4.68     32.794  5.195E-02  9.189E-03
       4.68     37.441  3.732E-02  8.162E-03
       4.68     40.171  2.959E-02  6.053E-03
       4.68     45.678  4.609E-02  8.787E-03
       4.68     50.123  3.350E-02  7.087E-03
       4.68     56.087  2.070E-02  3.802E-03
       4.68     67.391  1.113E-02  2.593E-03
       4.77     37.374  3.707E-02  9.442E-03
       4.77     40.497  3.439E-02  8.507E-03
       4.77     45.838  2.960E-02  7.753E-03
       4.77     50.666  2.997E-02  6.130E-03
       4.77     55.913  2.309E-02  4.886E-03
       4.77     67.981  2.468E-02  5.220E-03
       4.94     24.906  3.761E-02  7.924E-03
       4.94     30.733  3.447E-02  1.037E-02
       4.94     40.980   6.79E-02  2.113E-02
       4.94     45.986  3.889E-02  8.950E-03
       4.94     50.280   5.02E-02  1.010E-02
       4.94     55.696   3.83E-02  7.703E-03
       4.94     67.765  3.348E-02  6.098E-03
       5.23     25.240  3.473E-01  3.181E-02
       5.23     30.378  2.735E-01  2.269E-02
       5.23     33.845  2.736E-01  2.495E-02
       5.23     38.002   3.21E-01  3.220E-02
       5.23     40.917  2.918E-01  2.927E-02
       5.23     51.182   2.74E-01  2.509E-02
       5.23     56.039  2.452E-01  2.460E-02
       5.23     67.977  1.622E-01  2.059E-02
ENDDATA            280
ENDSUBENT          311
ENDENTRY             9
