ENTRY            22353   20180316   20190222   20190220       2270
SUBENT        22353001   20180316   20190222   20190220       2270
BIB                 14         46
TITLE       Measurement of double-differential neutron emission
           spectra of 238-U and 232-Th at incident energy 18.0 MeV
AUTHOR     (S.Matsuyama,M.Baba,T.Ito,K.Maeda,N.Ito,H.Nakamura,
           N.Hirakawa)
INSTITUTE  (2JPNTOH)   Dept. of Nuclear Engineering
REFERENCE  ((S,JAERI-M-91-032,219,1990)=
           (S,INDC(JPN)-148/L,219,1990)=
           (S,NEANDC(J)-160/U,219,1990))  main reference,
                                          graphs are given
           (R,JAERI-M-91-059,1991)
           (C,91JUELIC,,349,1991)
           (W,BABA,199706)  data obtained via Internet
REL-REF    (I,22158001,M.Baba+,J,NST,27,(7),601,1990)
                                              - experim. details
FACILITY   (DYNAM,2JPNTOH) 4.5 MV dynamitron facility, Tohoku Univ
METHOD     (TOF)    .Single-TOF method was used
INC-SOURCE (D-T) Pulsed neutron beam less than 1.5 nsec duration
            and 2 MHz repetition rate. Deutrons bombarded
            tritium loaded metallic Ti target. Post-accelerator
            beam chopper was applied in order to improve overall
            energy resolution
DETECTOR   (SCIN)  .Liquid NE213 scin detector 14 cm diameter
             and 10 cm thickness located about 4 m from sample
             detector was coupled to standard time-of-flight
             circuit consisting timing discriminator and a
             time-to-amplitude converter. Detector system
             time-resolution is 2.5 nsec
            Another NE213 scintillation detector, 2 inch in diam.
            and 2 inch long, was used for neutron monitor to
            provide the normalization between sample-in and
            sample-out runs.
MONITOR    (98-CF-252(0,F),PR,DE,N)  For energy region lower than
                4 MeV
           (1-H-1(N,EL)1-H-1,,SIG)   for absolute values of cs
                                     determination
CORRECTION .Corrections were made on detectors efficiency and
            sample-out background, on finite sample size and back
            grounds caused by parasitic and target-scattered,
            neutrons, on samples activity
ERR-ANALYS (DATA-ERR)  Standard deviation
STATUS     (TABLE) .Data are given by the authors via Internet
HISTORY    (19970929C)  + +  Compiled by S.Maev   + +
           (20131208A) SD: Updated to new date formats,lower case.
                Corrections according last EXFOR rules and Dict.
                Ref. on NST,27 moved to REL-REF.
           (20180316U) SD: Comma was added in ref. 91JUELIC.
ENDBIB              46
COMMON               1          3
EN
MEV
   18.0
ENDCOMMON            3
ENDSUBENT           53
SUBENT        22353002   20131208   20140820   20140807       2238
BIB                  3          5
REACTION   (90-TH-232(N,X)0-NN-1,,DA/DE)
SAMPLE     .Metallic cylinder of elemental thorium 2 cm in diam.
            and 5 cm height encapsulated in thin aluminium
            container and placed 12 cm from the neutron source
HISTORY    (20131208A) SD: SF5=PAR deleted from REACTION code.
ENDBIB               5
NOCOMMON             0          0
DATA                 5        431
ANG        E-MIN      E-MAX      DATA       DATA-ERR
ADEG       MEV        MEV        B/SR/MEV   B/SR/MEV
   30.00000     .70000     .90000 1.6818E-01 3.1894E-02
   30.00000     .90000    1.10000 2.6813E-01 2.5637E-02
   30.00000    1.10000    1.30000 2.7390E-01 2.1137E-02
   30.00000    1.30000    1.50000 2.2672E-01 1.6230E-02
   30.00000    1.50000    1.70000 2.2389E-01 1.5291E-02
   30.00000    1.70000    1.90000 1.4907E-01 1.0865E-02
   30.00000    1.90000    2.10000 1.3882E-01 1.0843E-02
   30.00000    2.10000    2.30000 1.1181E-01 9.2193E-03
   30.00000    2.30000    2.50000 8.9439E-02 8.0531E-03
   30.00000    2.50000    2.70000 7.2820E-02 6.9950E-03
   30.00000    2.70000    2.90000 5.9511E-02 6.2558E-03
   30.00000    2.90000    3.10000 5.7640E-02 5.7123E-03
   30.00000    3.10000    3.30000 4.6141E-02 5.2525E-03
   30.00000    3.30000    3.50000 4.1604E-02 5.1143E-03
   30.00000    3.50000    3.70000 3.4879E-02 4.8543E-03
   30.00000    3.70000    3.90000 3.4422E-02 4.4846E-03
   30.00000    3.90000    4.10000 3.0702E-02 3.9571E-03
   30.00000    4.10000    4.30000 2.1858E-02 3.3342E-03
   30.00000    4.30000    4.50000 2.5603E-02 3.5984E-03
   30.00000    4.50000    4.70000 2.2546E-02 3.5310E-03
   30.00000    4.70000    4.90000 1.9490E-02 3.0607E-03
   30.00000    4.90000    5.10000 1.6406E-02 1.8224E-03
   30.00000    5.10000    5.30000 1.3934E-02 1.6310E-03
   30.00000    5.30000    5.50000 8.5497E-03 1.4646E-03
   30.00000    5.50000    5.70000 1.1532E-02 2.5008E-03
   30.00000    5.70000    5.90000 1.3136E-02 2.7376E-03
   30.00000    5.90000    6.10000 1.2866E-02 2.9188E-03
   30.00000    6.10000    6.30000 7.3336E-03 2.5431E-03
   30.00000    6.30000    6.50000 1.0614E-02 2.4734E-03
   30.00000    6.50000    6.70000 5.9178E-03 2.2833E-03
   30.00000    6.70000    6.90000 9.7023E-03 2.5374E-03
   30.00000    6.90000    7.10000 1.5281E-02 2.6227E-03
   30.00000    7.10000    7.30000 1.0564E-02 2.6080E-03
   30.00000    7.30000    7.50000 1.0535E-02 2.4758E-03
   30.00000    7.50000    7.70000 9.0696E-03 2.2744E-03
   30.00000    7.70000    7.90000 7.5951E-03 2.5122E-03
   30.00000    7.90000    8.10000 7.4847E-03 2.6331E-03
   30.00000    8.10000    8.30000 8.0581E-03 2.6386E-03
   30.00000    8.30000    8.50000 7.0125E-03 2.8010E-03
   30.00000    8.50000    8.70000 1.0800E-02 2.5457E-03
   30.00000    8.70000    8.90000 7.7848E-03 2.2931E-03
   30.00000    8.90000    9.10000 4.4183E-03 2.1831E-03
   30.00000    9.10000    9.30000 9.0274E-03 2.2585E-03
   30.00000    9.30000    9.50000 3.6572E-03 1.9924E-03
   30.00000    9.50000    9.70000 8.6566E-03 2.6416E-03
   30.00000    9.70000    9.90000 6.9392E-03 2.6141E-03
   30.00000    9.90000   10.10000 5.2217E-03 2.3770E-03
   30.00000   10.10000   10.50000 5.9596E-03 1.7378E-03
   30.00000   10.50000   10.90000 4.3320E-03 1.7520E-03
   30.00000   10.90000   11.30000 8.9270E-03 1.8813E-03
   30.00000   11.30000   11.70000 1.1525E-02 1.9185E-03
   30.00000   11.70000   12.10000 6.5835E-03 1.8702E-03
   30.00000   12.10000   12.50000 7.9732E-03 1.8428E-03
   30.00000   12.50000   12.90000 5.8771E-03 1.6546E-03
   30.00000   12.90000   13.30000 6.8737E-03 1.6283E-03
   30.00000   13.30000   13.70000 6.3715E-03 1.4690E-03
   30.00000   13.70000   14.10000 5.3954E-03 1.3194E-03
   30.00000   14.10000   14.50000 8.1431E-03 1.5015E-03
   30.00000   14.50000   14.90000 6.0191E-03 1.3152E-03
   30.00000   14.90000   15.30000 6.4843E-03 1.3537E-03
   30.00000   15.30000   15.70000 7.9925E-03 1.5158E-03
   30.00000   15.70000   16.10000 8.6836E-03 1.8981E-03
   30.00000   16.10000   16.50000 1.1881E-02 2.7122E-03
   30.00000   16.50000   16.90000 2.7439E-02 4.2933E-03
   30.00000   16.90000   17.30000 7.6050E-02 7.9733E-03
   30.00000   17.30000   17.70000 2.0030E-01 1.4875E-02
   30.00000   17.70000   18.10000 2.9755E-01 1.9957E-02
   30.00000   18.10000   18.50000 2.5684E-01 1.7220E-02
   30.00000   18.50000   18.90000 1.3609E-01 1.0174E-02
   30.00000   18.90000   19.30000 4.1997E-02 4.2263E-03
   30.00000   19.30000   19.70000 9.8102E-03 1.8369E-03
   30.00000   19.70000   20.10000 3.4133E-03 8.2479E-04
   45.00000     .70000     .90000 2.5241E-01 2.7670E-02
   45.00000     .90000    1.10000 3.0040E-01 2.0383E-02
   45.00000    1.10000    1.30000 2.6961E-01 1.6781E-02
   45.00000    1.30000    1.50000 2.1825E-01 1.3139E-02
   45.00000    1.50000    1.70000 1.9099E-01 1.1412E-02
   45.00000    1.70000    1.90000 1.4939E-01 9.0698E-03
   45.00000    1.90000    2.10000 1.3745E-01 8.6961E-03
   45.00000    2.10000    2.30000 1.1089E-01 7.3164E-03
   45.00000    2.30000    2.50000 9.3061E-02 6.4305E-03
   45.00000    2.50000    2.70000 7.6406E-02 5.5985E-03
   45.00000    2.70000    2.90000 5.9935E-02 4.7940E-03
   45.00000    2.90000    3.10000 5.3366E-02 4.3360E-03
   45.00000    3.10000    3.30000 4.6179E-02 4.0015E-03
   45.00000    3.30000    3.50000 3.8435E-02 3.6534E-03
   45.00000    3.50000    3.70000 3.1423E-02 3.3842E-03
   45.00000    3.70000    3.90000 2.7556E-02 3.2069E-03
   45.00000    3.90000    4.10000 2.8196E-02 3.1154E-03
   45.00000    4.10000    4.30000 2.7225E-02 2.9685E-03
   45.00000    4.30000    4.50000 2.0714E-02 3.0017E-03
   45.00000    4.50000    4.70000 2.0038E-02 2.9445E-03
   45.00000    4.70000    4.90000 1.8094E-02 2.0617E-03
   45.00000    4.90000    5.10000 1.1956E-02 1.4235E-03
   45.00000    5.10000    5.30000 1.2427E-02 1.4568E-03
   45.00000    5.30000    5.50000 1.0864E-02 1.5370E-03
   45.00000    5.50000    5.70000 1.0980E-02 1.7023E-03
   45.00000    5.70000    5.90000 9.7917E-03 1.7215E-03
   45.00000    5.90000    6.10000 9.4386E-03 1.5559E-03
   45.00000    6.10000    6.30000 9.1214E-03 1.6653E-03
   45.00000    6.30000    6.50000 1.1573E-02 1.7221E-03
   45.00000    6.50000    6.70000 1.0592E-02 1.6441E-03
   45.00000    6.70000    6.90000 1.0988E-02 1.6573E-03
   45.00000    6.90000    7.10000 1.0744E-02 1.6366E-03
   45.00000    7.10000    7.30000 7.2943E-03 1.6153E-03
   45.00000    7.30000    7.50000 7.0876E-03 1.5664E-03
   45.00000    7.50000    7.70000 8.7460E-03 1.5966E-03
   45.00000    7.70000    7.90000 5.5899E-03 1.4376E-03
   45.00000    7.90000    8.10000 1.1161E-02 1.6826E-03
   45.00000    8.10000    8.30000 9.0799E-03 1.7359E-03
   45.00000    8.30000    8.50000 1.0677E-02 1.6713E-03
   45.00000    8.50000    8.70000 8.7042E-03 1.7057E-03
   45.00000    8.70000    8.90000 6.9313E-03 1.5994E-03
   45.00000    8.90000    9.10000 4.2989E-03 1.5072E-03
   45.00000    9.10000    9.30000 7.3676E-03 1.5239E-03
   45.00000    9.30000    9.50000 8.2852E-03 1.3992E-03
   45.00000    9.50000    9.70000 6.6751E-03 1.3865E-03
   45.00000    9.70000    9.90000 8.9973E-03 1.5404E-03
   45.00000    9.90000   10.10000 7.2842E-03 1.3203E-03
   45.00000   10.10000   10.50000 6.6967E-03 1.0391E-03
   45.00000   10.50000   10.90000 6.7184E-03 1.0289E-03
   45.00000   10.90000   11.30000 7.0344E-03 1.0240E-03
   45.00000   11.30000   11.70000 4.0512E-03 1.0279E-03
   45.00000   11.70000   12.10000 5.3704E-03 1.0772E-03
   45.00000   12.10000   12.50000 4.0413E-03 1.0818E-03
   45.00000   12.50000   12.90000 6.7268E-03 1.1535E-03
   45.00000   12.90000   13.30000 5.2045E-03 1.1387E-03
   45.00000   13.30000   13.70000 4.8766E-03 1.0691E-03
   45.00000   13.70000   14.10000 4.0864E-03 8.9403E-04
   45.00000   14.10000   14.50000 4.4596E-03 8.4053E-04
   45.00000   14.50000   14.90000 4.8723E-03 9.1087E-04
   45.00000   14.90000   15.30000 4.6990E-03 9.0001E-04
   45.00000   15.30000   15.70000 4.2811E-03 9.0927E-04
   45.00000   15.70000   16.10000 5.8609E-03 1.1335E-03
   45.00000   16.10000   16.50000 6.9426E-03 1.4216E-03
   45.00000   16.50000   16.90000 1.0611E-02 1.9087E-03
   45.00000   16.90000   17.30000 9.9825E-03 2.7452E-03
   45.00000   17.30000   17.70000 2.4314E-02 4.0526E-03
   45.00000   17.70000   18.10000 5.0079E-02 5.1717E-03
   45.00000   18.10000   18.50000 4.7518E-02 4.6247E-03
   45.00000   18.50000   18.90000 3.0311E-02 3.0535E-03
   45.00000   18.90000   19.30000 1.2730E-02 1.7978E-03
   45.00000   19.30000   19.70000 4.3724E-03 1.0345E-03
   45.00000   19.70000   20.10000 1.6025E-03 5.2527E-04
   60.00000     .70000     .90000 2.8194E-01 3.0336E-02
   60.00000     .90000    1.10000 2.8388E-01 1.9004E-02
   60.00000    1.10000    1.30000 2.6574E-01 1.5824E-02
   60.00000    1.30000    1.50000 2.2647E-01 1.3191E-02
   60.00000    1.50000    1.70000 1.7885E-01 1.0608E-02
   60.00000    1.70000    1.90000 1.3423E-01 8.3871E-03
   60.00000    1.90000    2.10000 1.1566E-01 7.2054E-03
   60.00000    2.10000    2.30000 9.5206E-02 6.2290E-03
   60.00000    2.30000    2.50000 7.8265E-02 5.3600E-03
   60.00000    2.50000    2.70000 6.3129E-02 4.6419E-03
   60.00000    2.70000    2.90000 5.3780E-02 4.1912E-03
   60.00000    2.90000    3.10000 4.4736E-02 3.7185E-03
   60.00000    3.10000    3.30000 4.2802E-02 3.7914E-03
   60.00000    3.30000    3.50000 3.2241E-02 3.3440E-03
   60.00000    3.50000    3.70000 2.9288E-02 3.1113E-03
   60.00000    3.70000    3.90000 2.7651E-02 3.0769E-03
   60.00000    3.90000    4.10000 2.5398E-02 3.0422E-03
   60.00000    4.10000    4.30000 1.9475E-02 2.2655E-03
   60.00000    4.30000    4.50000 1.5622E-02 2.1056E-03
   60.00000    4.50000    4.70000 1.9378E-02 2.4082E-03
   60.00000    4.70000    4.90000 1.8973E-02 2.2378E-03
   60.00000    4.90000    5.10000 1.5081E-02 1.5911E-03
   60.00000    5.10000    5.30000 1.2066E-02 1.2630E-03
   60.00000    5.30000    5.50000 1.0774E-02 1.4542E-03
   60.00000    5.50000    5.70000 1.3509E-02 1.9927E-03
   60.00000    5.70000    5.90000 1.2820E-02 1.9015E-03
   60.00000    5.90000    6.10000 1.0985E-02 1.6730E-03
   60.00000    6.10000    6.30000 9.0083E-03 1.5724E-03
   60.00000    6.30000    6.50000 7.3645E-03 1.4266E-03
   60.00000    6.50000    6.70000 8.3272E-03 1.5168E-03
   60.00000    6.70000    6.90000 9.7998E-03 1.5254E-03
   60.00000    6.90000    7.10000 7.4909E-03 1.3430E-03
   60.00000    7.10000    7.30000 7.8311E-03 1.4283E-03
   60.00000    7.30000    7.50000 9.2203E-03 1.5524E-03
   60.00000    7.50000    7.70000 1.0627E-02 1.5234E-03
   60.00000    7.70000    7.90000 8.6148E-03 1.5781E-03
   60.00000    7.90000    8.10000 7.0699E-03 1.4775E-03
   60.00000    8.10000    8.30000 7.2691E-03 1.3544E-03
   60.00000    8.30000    8.50000 7.5098E-03 1.4373E-03
   60.00000    8.50000    8.70000 4.2882E-03 1.3261E-03
   60.00000    8.70000    8.90000 7.0735E-03 1.4005E-03
   60.00000    8.90000    9.10000 6.3399E-03 1.4453E-03
   60.00000    9.10000    9.30000 5.3018E-03 1.3812E-03
   60.00000    9.30000    9.50000 5.9739E-03 1.4816E-03
   60.00000    9.50000    9.70000 8.4351E-03 1.3753E-03
   60.00000    9.70000    9.90000 4.8519E-03 1.3750E-03
   60.00000    9.90000   10.10000 5.4068E-03 1.3943E-03
   60.00000   10.10000   10.50000 5.6476E-03 1.0714E-03
   60.00000   10.50000   10.90000 7.0364E-03 1.0573E-03
   60.00000   10.90000   11.30000 4.1700E-03 1.0586E-03
   60.00000   11.30000   11.70000 5.0298E-03 1.0708E-03
   60.00000   11.70000   12.10000 6.5717E-03 1.0980E-03
   60.00000   12.10000   12.50000 4.9109E-03 1.0245E-03
   60.00000   12.50000   12.90000 5.2200E-03 1.1250E-03
   60.00000   12.90000   13.30000 3.3147E-03 1.1447E-03
   60.00000   13.30000   13.70000 2.7512E-03 9.1699E-04
   60.00000   13.70000   14.10000 2.1194E-03 1.0852E-03
   60.00000   14.10000   14.50000 3.6238E-03 9.9299E-04
   60.00000   14.50000   14.90000 3.6220E-03 9.4316E-04
   60.00000   14.90000   15.30000 4.9591E-03 1.1423E-03
   60.00000   15.30000   15.70000 4.4954E-03 1.1301E-03
   60.00000   15.70000   16.10000 4.3874E-03 1.3918E-03
   60.00000   16.10000   16.50000 4.3378E-03 1.8428E-03
   60.00000   16.50000   16.90000 9.2284E-03 2.5771E-03
   60.00000   16.90000   17.30000 2.2553E-02 3.3412E-03
   60.00000   17.30000   17.70000 2.1405E-02 3.3631E-03
   60.00000   17.70000   18.10000 2.7180E-02 2.9325E-03
   60.00000   18.10000   18.50000 2.1328E-02 2.0473E-03
   60.00000   18.50000   18.90000 7.1388E-03 1.1122E-03
   60.00000   18.90000   19.30000 2.3732E-03 6.3278E-04
   60.00000   19.30000   19.70000 4.7137E-04 4.1449E-04
   60.00000   19.70000   20.10000 4.0282E-04 1.9541E-04
   75.00000     .70000     .90000 1.9508E-01 2.3938E-02
   75.00000     .90000    1.10000 2.7355E-01 1.8267E-02
   75.00000    1.10000    1.30000 2.8630E-01 1.7025E-02
   75.00000    1.30000    1.50000 2.3442E-01 1.3599E-02
   75.00000    1.50000    1.70000 2.1254E-01 1.2040E-02
   75.00000    1.70000    1.90000 1.6163E-01 9.4126E-03
   75.00000    1.90000    2.10000 1.3662E-01 8.4637E-03
   75.00000    2.10000    2.30000 1.1099E-01 7.1014E-03
   75.00000    2.30000    2.50000 9.4367E-02 6.2211E-03
   75.00000    2.50000    2.70000 7.2931E-02 5.1218E-03
   75.00000    2.70000    2.90000 6.2039E-02 4.5539E-03
   75.00000    2.90000    3.10000 5.6795E-02 4.1862E-03
   75.00000    3.10000    3.30000 4.6171E-02 3.7487E-03
   75.00000    3.30000    3.50000 4.0384E-02 3.5888E-03
   75.00000    3.50000    3.70000 3.4011E-02 3.1931E-03
   75.00000    3.70000    3.90000 2.7912E-02 2.8718E-03
   75.00000    3.90000    4.10000 2.4521E-02 2.5496E-03
   75.00000    4.10000    4.30000 2.2364E-02 2.3945E-03
   75.00000    4.30000    4.50000 2.0837E-02 2.6257E-03
   75.00000    4.50000    4.70000 1.9310E-02 2.7777E-03
   75.00000    4.70000    4.90000 1.7784E-02 2.3584E-03
   75.00000    4.90000    5.10000 1.6257E-02 1.8956E-03
   75.00000    5.10000    5.30000 1.4730E-02 1.7809E-03
   75.00000    5.30000    5.50000 1.3215E-02 1.7317E-03
   75.00000    5.50000    5.70000 1.0463E-02 1.6079E-03
   75.00000    5.70000    5.90000 1.0592E-02 1.6147E-03
   75.00000    5.90000    6.10000 9.8524E-03 1.4556E-03
   75.00000    6.10000    6.30000 9.3124E-03 1.4838E-03
   75.00000    6.30000    6.50000 8.4771E-03 1.3946E-03
   75.00000    6.50000    6.70000 8.0495E-03 1.3212E-03
   75.00000    6.70000    6.90000 9.3281E-03 1.3514E-03
   75.00000    6.90000    7.10000 4.7810E-03 1.2515E-03
   75.00000    7.10000    7.30000 5.5250E-03 1.2417E-03
   75.00000    7.30000    7.50000 5.8039E-03 1.2641E-03
   75.00000    7.50000    7.70000 4.2857E-03 1.1454E-03
   75.00000    7.70000    7.90000 4.5104E-03 1.0833E-03
   75.00000    7.90000    8.10000 5.8165E-03 1.1301E-03
   75.00000    8.10000    8.30000 6.0827E-03 1.2088E-03
   75.00000    8.30000    8.50000 3.7153E-03 1.2073E-03
   75.00000    8.50000    8.70000 6.7526E-03 1.3510E-03
   75.00000    8.70000    8.90000 2.7521E-03 1.1154E-03
   75.00000    8.90000    9.10000 5.1725E-03 1.1932E-03
   75.00000    9.10000    9.30000 5.2941E-03 1.2005E-03
   75.00000    9.30000    9.50000 5.0383E-03 1.0928E-03
   75.00000    9.50000    9.70000 4.0192E-03 1.0316E-03
   75.00000    9.70000    9.90000 3.0778E-03 1.0169E-03
   75.00000    9.90000   10.10000 6.1572E-03 1.1090E-03
   75.00000   10.10000   10.50000 3.8261E-03 8.1881E-04
   75.00000   10.50000   10.90000 5.3180E-03 9.3819E-04
   75.00000   10.90000   11.30000 3.2230E-03 8.7206E-04
   75.00000   11.30000   11.70000 3.1483E-03 8.4343E-04
   75.00000   11.70000   12.10000 4.2995E-03 8.2023E-04
   75.00000   12.10000   12.50000 5.5746E-03 8.6484E-04
   75.00000   12.50000   12.90000 4.0365E-03 8.3174E-04
   75.00000   12.90000   13.30000 2.9946E-03 7.4967E-04
   75.00000   13.30000   13.70000 2.9147E-03 7.2917E-04
   75.00000   13.70000   14.10000 2.8933E-03 7.4203E-04
   75.00000   14.10000   14.50000 3.9161E-03 7.5122E-04
   75.00000   14.50000   14.90000 3.4119E-03 8.1599E-04
   75.00000   14.90000   15.30000 2.8510E-03 8.8024E-04
   75.00000   15.30000   15.70000 2.0224E-03 8.7695E-04
   75.00000   15.70000   16.10000 3.6076E-03 1.0643E-03
   75.00000   16.10000   16.50000 6.7020E-03 1.3464E-03
   75.00000   16.50000   16.90000 2.6176E-03 1.7564E-03
   75.00000   16.90000   17.30000 5.3464E-03 2.1392E-03
   75.00000   17.30000   17.70000 5.1912E-03 2.0204E-03
   75.00000   17.70000   18.10000 1.1946E-02 1.6788E-03
   75.00000   18.10000   18.50000 1.1757E-02 1.2966E-03
   75.00000   18.50000   18.90000 6.6897E-03 8.9367E-04
   75.00000   18.90000   19.30000 2.1339E-03 4.5842E-04
   75.00000   19.30000   19.70000 3.8500E-04 2.4370E-04
   75.00000   19.70000   20.10000 2.8376E-04 1.1526E-04
   90.00000     .70000     .90000 2.3641E-01 2.1540E-02
   90.00000     .90000    1.10000 2.8756E-01 1.7198E-02
   90.00000    1.10000    1.30000 2.8394E-01 1.5834E-02
   90.00000    1.30000    1.50000 2.2343E-01 1.2296E-02
   90.00000    1.50000    1.70000 1.9468E-01 1.0610E-02
   90.00000    1.70000    1.90000 1.5570E-01 8.6178E-03
   90.00000    1.90000    2.10000 1.3121E-01 7.5784E-03
   90.00000    2.10000    2.30000 1.0801E-01 6.3837E-03
   90.00000    2.30000    2.50000 8.8304E-02 5.3902E-03
   90.00000    2.50000    2.70000 7.1889E-02 4.5852E-03
   90.00000    2.70000    2.90000 6.3085E-02 4.0671E-03
   90.00000    2.90000    3.10000 5.1214E-02 3.5335E-03
   90.00000    3.10000    3.30000 4.5135E-02 3.2523E-03
   90.00000    3.30000    3.50000 3.8740E-02 2.9245E-03
   90.00000    3.50000    3.70000 3.2482E-02 2.6374E-03
   90.00000    3.70000    3.90000 3.0498E-02 2.4859E-03
   90.00000    3.90000    4.10000 2.4163E-02 2.2208E-03
   90.00000    4.10000    4.30000 2.1016E-02 2.0714E-03
   90.00000    4.30000    4.50000 2.1099E-02 2.0812E-03
   90.00000    4.50000    4.70000 1.7550E-02 1.9601E-03
   90.00000    4.70000    4.90000 1.6070E-02 1.7271E-03
   90.00000    4.90000    5.10000 1.4589E-02 1.5216E-03
   90.00000    5.10000    5.30000 1.3109E-02 1.3279E-03
   90.00000    5.30000    5.50000 1.1629E-02 1.2980E-03
   90.00000    5.50000    5.70000 1.0028E-02 1.2601E-03
   90.00000    5.70000    5.90000 8.9900E-03 1.2027E-03
   90.00000    5.90000    6.10000 9.1438E-03 1.2782E-03
   90.00000    6.10000    6.30000 7.4123E-03 1.0826E-03
   90.00000    6.30000    6.50000 7.4628E-03 1.0844E-03
   90.00000    6.50000    6.70000 7.8127E-03 1.0266E-03
   90.00000    6.70000    6.90000 7.1651E-03 1.0147E-03
   90.00000    6.90000    7.10000 5.7886E-03 8.6947E-04
   90.00000    7.10000    7.30000 4.6976E-03 8.0584E-04
   90.00000    7.30000    7.50000 4.8118E-03 8.2526E-04
   90.00000    7.50000    7.70000 5.4390E-03 9.4443E-04
   90.00000    7.70000    7.90000 5.4620E-03 9.5921E-04
   90.00000    7.90000    8.10000 4.8274E-03 9.0840E-04
   90.00000    8.10000    8.30000 5.9268E-03 8.9728E-04
   90.00000    8.30000    8.50000 4.9271E-03 9.3670E-04
   90.00000    8.50000    8.70000 3.3718E-03 8.2020E-04
   90.00000    8.70000    8.90000 3.5335E-03 8.5041E-04
   90.00000    8.90000    9.10000 4.1910E-03 7.9250E-04
   90.00000    9.10000    9.30000 3.6848E-03 8.4599E-04
   90.00000    9.30000    9.50000 4.4901E-03 8.7511E-04
   90.00000    9.50000    9.70000 3.6229E-03 8.9099E-04
   90.00000    9.70000    9.90000 4.2024E-03 8.5576E-04
   90.00000    9.90000   10.10000 4.8900E-03 8.2513E-04
   90.00000   10.10000   10.50000 4.2220E-03 6.6604E-04
   90.00000   10.50000   10.90000 2.7678E-03 5.7988E-04
   90.00000   10.90000   11.30000 3.6549E-03 6.2946E-04
   90.00000   11.30000   11.70000 2.1746E-03 6.0304E-04
   90.00000   11.70000   12.10000 3.0333E-03 6.4040E-04
   90.00000   12.10000   12.50000 3.6546E-03 6.4011E-04
   90.00000   12.50000   12.90000 3.4235E-03 5.6697E-04
   90.00000   12.90000   13.30000 2.9445E-03 5.6730E-04
   90.00000   13.30000   13.70000 2.4321E-03 5.6285E-04
   90.00000   13.70000   14.10000 2.8162E-03 5.9934E-04
   90.00000   14.10000   14.50000 1.8075E-03 5.5939E-04
   90.00000   14.50000   14.90000 1.5403E-03 5.5884E-04
   90.00000   14.90000   15.30000 2.0847E-03 6.5613E-04
   90.00000   15.30000   15.70000 3.1551E-03 7.8306E-04
   90.00000   15.70000   16.10000 2.4991E-03 9.9653E-04
   90.00000   16.10000   16.50000 4.0368E-03 1.2523E-03
   90.00000   16.50000   16.90000 1.9943E-03 1.3928E-03
   90.00000   16.90000   17.30000 4.0070E-03 1.1414E-03
   90.00000   17.30000   17.70000 7.3400E-03 1.0781E-03
   90.00000   17.70000   18.10000 1.1755E-02 1.1738E-03
   90.00000   18.10000   18.50000 1.3071E-02 1.1855E-03
   90.00000   18.50000   18.90000 5.3283E-03 6.9233E-04
   90.00000   18.90000   19.30000 2.3088E-03 4.5042E-04
   90.00000   19.30000   19.70000 8.8693E-04 2.3446E-04
   90.00000   19.70000   20.10000 4.0805E-04 1.1255E-04
  120.00000     .70000     .90000 1.9335E-01 2.0475E-02
  120.00000     .90000    1.10000 2.3642E-01 1.4629E-02
  120.00000    1.10000    1.30000 2.4301E-01 1.3622E-02
  120.00000    1.30000    1.50000 1.9903E-01 1.1030E-02
  120.00000    1.50000    1.70000 1.6985E-01 9.4219E-03
  120.00000    1.70000    1.90000 1.3057E-01 7.4662E-03
  120.00000    1.90000    2.10000 1.0486E-01 6.0409E-03
  120.00000    2.10000    2.30000 8.4585E-02 4.9852E-03
  120.00000    2.30000    2.50000 6.3446E-02 3.9649E-03
  120.00000    2.50000    2.70000 5.3588E-02 3.4973E-03
  120.00000    2.70000    2.90000 4.8431E-02 3.2615E-03
  120.00000    2.90000    3.10000 3.9317E-02 2.8706E-03
  120.00000    3.10000    3.30000 3.3790E-02 2.7037E-03
  120.00000    3.30000    3.50000 3.0186E-02 2.4762E-03
  120.00000    3.50000    3.70000 2.3905E-02 2.1373E-03
  120.00000    3.70000    3.90000 2.2762E-02 2.0514E-03
  120.00000    3.90000    4.10000 1.9140E-02 1.9479E-03
  120.00000    4.10000    4.30000 1.7255E-02 1.7138E-03
  120.00000    4.30000    4.50000 1.6201E-02 1.6054E-03
  120.00000    4.50000    4.70000 1.3435E-02 1.6116E-03
  120.00000    4.70000    4.90000 1.6304E-02 1.5516E-03
  120.00000    4.90000    5.10000 1.3033E-02 1.2426E-03
  120.00000    5.10000    5.30000 9.7082E-03 9.4670E-04
  120.00000    5.30000    5.50000 1.2864E-02 1.2414E-03
  120.00000    5.50000    5.70000 1.0222E-02 1.3422E-03
  120.00000    5.70000    5.90000 9.6236E-03 1.3184E-03
  120.00000    5.90000    6.10000 6.2324E-03 1.0813E-03
  120.00000    6.10000    6.30000 6.1019E-03 1.0837E-03
  120.00000    6.30000    6.50000 5.9574E-03 1.0217E-03
  120.00000    6.50000    6.70000 6.0536E-03 9.5689E-04
  120.00000    6.70000    6.90000 5.5117E-03 9.0858E-04
  120.00000    6.90000    7.10000 4.4523E-03 8.6898E-04
  120.00000    7.10000    7.30000 3.4092E-03 8.5926E-04
  120.00000    7.30000    7.50000 4.9926E-03 9.5498E-04
  120.00000    7.50000    7.70000 4.7322E-03 9.2332E-04
  120.00000    7.70000    7.90000 3.7755E-03 8.8464E-04
  120.00000    7.90000    8.10000 3.3149E-03 8.8531E-04
  120.00000    8.10000    8.30000 4.3547E-03 8.2386E-04
  120.00000    8.30000    8.50000 3.5799E-03 8.5371E-04
  120.00000    8.50000    8.70000 4.3921E-03 8.8640E-04
  120.00000    8.70000    8.90000 8.5673E-04 8.3293E-04
  120.00000    8.90000    9.10000 3.6019E-03 8.7862E-04
  120.00000    9.10000    9.30000 2.2928E-03 8.4396E-04
  120.00000    9.30000    9.50000 3.6291E-03 8.7744E-04
  120.00000    9.50000    9.70000 3.1475E-03 8.4640E-04
  120.00000    9.70000    9.90000 2.2667E-03 8.3468E-04
  120.00000    9.90000   10.10000 2.5041E-03 8.4604E-04
  120.00000   10.10000   10.50000 2.2632E-03 5.3469E-04
  120.00000   10.50000   10.90000 1.8841E-03 6.4489E-04
  120.00000   10.90000   11.30000 1.2880E-03 6.2190E-04
  120.00000   11.30000   11.70000 2.5285E-03 6.6754E-04
  120.00000   11.70000   12.10000 1.5331E-03 5.7414E-04
  120.00000   12.10000   12.50000 1.6937E-03 5.6609E-04
  120.00000   12.50000   12.90000 1.3850E-03 5.1247E-04
  120.00000   12.90000   13.30000 2.6987E-03 5.8941E-04
  120.00000   13.30000   13.70000 2.9947E-03 7.6728E-04
  120.00000   13.70000   14.10000 2.7214E-03 8.2059E-04
  120.00000   14.10000   14.90000 1.7004E-03 1.0044E-03
  120.00000   14.90000   15.30000 1.6698E-03 1.6156E-03
  120.00000   15.30000   15.70000 4.7474E-03 1.4856E-03
  120.00000   15.70000   16.10000 2.2260E-03 1.2866E-03
  120.00000   16.10000   16.50000 2.4231E-04 1.0547E-03
  120.00000   16.50000   16.90000 2.9454E-04 8.1193E-04
  120.00000   16.90000   17.30000 1.3987E-03 6.4197E-04
  120.00000   17.30000   17.70000 3.0934E-03 6.2215E-04
  120.00000   17.70000   18.10000 5.9692E-03 6.4805E-04
  120.00000   18.10000   18.50000 3.7680E-03 5.0542E-04
  120.00000   18.50000   18.90000 1.0862E-03 3.2360E-04
  120.00000   18.90000   19.30000 3.3562E-04 1.7464E-04
  120.00000   19.30000   19.70000 6.9697E-05 1.1059E-04
  120.00000   19.70000   20.10000 1.9248E-06 5.5504E-05
ENDDATA            433
ENDSUBENT          443
SUBENT        22353003   20131208   20140820   20140807       2238
BIB                  4          6
REACTION   (90-TH-232(N,X)0-NN-1,,DE)
ANALYSIS   (INTAD)
SAMPLE     .Metallic cylinder of elemental thorium 2 cm in diam.
            and 5 cm height encapsulated in thin aluminium
            container and placed 12 cm from the neutron source
STATUS     (DEP,22353002)
ENDBIB               6
NOCOMMON             0          0
DATA                 4         72
E-CM-MIN   E-CM-MAX   DATA-CM    DATA-ERR
MEV        MEV        B/MEV      B/MEV
     .70000     .90000 2.7446E+00 4.3980E-01
     .90000    1.10000 3.1771E+00 5.0315E-01
    1.10000    1.30000 3.0722E+00 4.8588E-01
    1.30000    1.50000 2.6086E+00 4.1281E-01
    1.50000    1.70000 2.1285E+00 3.3854E-01
    1.70000    1.90000 1.6584E+00 2.6395E-01
    1.90000    2.10000 1.3713E+00 2.1885E-01
    2.10000    2.30000 1.1120E+00 1.7752E-01
    2.30000    2.50000 8.7836E-01 1.4152E-01
    2.50000    2.70000 7.1932E-01 1.1564E-01
    2.70000    2.90000 6.1377E-01 9.7973E-02
    2.90000    3.10000 5.2576E-01 8.5622E-02
    3.10000    3.30000 4.6085E-01 7.3281E-02
    3.30000    3.50000 3.8080E-01 6.1705E-02
    3.50000    3.70000 3.2190E-01 5.1463E-02
    3.70000    3.90000 2.9006E-01 4.5998E-02
    3.90000    4.10000 2.7775E-01 4.4300E-02
    4.10000    4.30000 2.3547E-01 4.0381E-02
    4.30000    4.50000 1.9482E-01 3.1965E-02
    4.50000    4.70000 2.0374E-01 3.2367E-02
    4.70000    4.90000 2.0730E-01 3.3670E-02
    4.90000    5.10000 1.6286E-01 2.8778E-02
    5.10000    5.30000 1.3364E-01 2.2114E-02
    5.30000    5.50000 1.5016E-01 2.4129E-02
    5.50000    5.70000 1.4554E-01 2.4980E-02
    5.70000    5.90000 1.3343E-01 2.4326E-02
    5.90000    6.10000 1.0314E-01 1.7030E-02
    6.10000    6.30000 9.7855E-02 1.6313E-02
    6.30000    6.50000 9.3478E-02 1.8665E-02
    6.50000    6.70000 9.7750E-02 1.7874E-02
    6.70000    6.90000 9.6919E-02 1.5558E-02
    6.90000    7.10000 7.5251E-02 1.3104E-02
    7.10000    7.30000 7.0728E-02 1.3914E-02
    7.30000    7.50000 8.5114E-02 1.7114E-02
    7.50000    7.70000 8.4681E-02 2.1508E-02
    7.70000    7.90000 7.1329E-02 1.5148E-02
    7.90000    8.10000 7.5050E-02 1.5071E-02
    8.10000    8.30000 7.4182E-02 1.4501E-02
    8.30000    8.50000 6.9899E-02 1.5263E-02
    8.50000    8.70000 6.9603E-02 1.4707E-02
    8.70000    8.90000 4.9256E-02 1.3002E-02
    8.90000    9.10000 5.3685E-02 9.2747E-03
    9.10000    9.30000 5.9092E-02 1.1151E-02
    9.30000    9.50000 6.5332E-02 1.1846E-02
    9.50000    9.70000 6.8769E-02 1.3405E-02
    9.70000    9.90000 5.1445E-02 1.4432E-02
    9.90000   10.10000 5.2389E-02 1.0252E-02
   10.10000   10.50000 4.9967E-02 1.0940E-02
   10.50000   10.90000 6.0100E-02 9.5275E-03
   10.90000   11.30000 3.1783E-02 5.2675E-03
   11.30000   11.70000 4.3806E-02 1.5257E-02
   11.70000   12.10000 4.6955E-02 1.0499E-02
   12.10000   12.50000 3.8983E-02 1.0739E-02
   12.50000   12.90000 4.0569E-02 7.3033E-03
   12.90000   13.30000 3.7904E-02 6.2715E-03
   13.30000   13.70000 4.0283E-02 7.7657E-03
   13.70000   14.10000 3.4835E-02 6.8831E-03
   14.10000   14.50000 3.8102E-02 1.1846E-02
   14.50000   14.90000 2.9079E-02 5.5770E-03
   14.90000   15.30000 3.5282E-02 9.1157E-03
   15.30000   15.70000 5.5767E-02 1.4753E-02
   15.70000   16.10000 9.1593E-02 1.4517E-02
   16.10000   16.50000 1.5629E-01 2.4762E-02
   16.50000   16.90000 3.2492E-01 6.3503E-02
   16.90000   17.30000 8.0703E-01 1.4737E-01
   17.30000   17.70000 9.6962E-01 1.7238E-01
   17.70000   18.10000 1.0642E+00 1.8267E-01
   18.10000   18.50000 8.1571E-01 1.3918E-01
   18.50000   18.90000 5.6599E-01 9.1130E-02
   18.90000   19.30000 1.5428E-01 2.4421E-02
   19.30000   19.70000 2.0679E-02 4.2461E-03
   19.70000   20.10000 5.6981E-03 1.3519E-03
ENDDATA             74
ENDSUBENT           85
SUBENT        22353004   20131208   20140820   20140807       2238
BIB                  3          5
REACTION   (92-U-238(N,X)0-NN-1,,DA/DE)
SAMPLE     .Metallic cylinder of elemental uranium 2 cm in diam.
            and 5 cm height encapsulated in thin aluminium
            container and placed 12 cm from the neutron source
HISTORY    (20131208A) SD: SF5=PAR deleted from REACTION code.
ENDBIB               5
NOCOMMON             0          0
DATA                 5        428
ANG        E-MIN      E-MAX      DATA       DATA-ERR
ADEG       MEV        MEV        B/SR/MEV   B/SR/MEV
   30.00000     .70000     .90000 4.4689E-01 4.5137E-02
   30.00000     .90000    1.10000 3.2679E-01 2.3292E-02
   30.00000    1.10000    1.30000 2.9734E-01 1.9215E-02
   30.00000    1.30000    1.50000 2.6375E-01 1.6581E-02
   30.00000    1.50000    1.70000 2.3575E-01 1.4719E-02
   30.00000    1.70000    1.90000 2.1326E-01 1.3273E-02
   30.00000    1.90000    2.10000 1.7580E-01 1.1771E-02
   30.00000    2.10000    2.30000 1.6120E-01 1.0685E-02
   30.00000    2.30000    2.50000 1.3305E-01 9.3238E-03
   30.00000    2.50000    2.70000 1.3279E-01 9.2162E-03
   30.00000    2.70000    2.90000 1.1578E-01 8.2605E-03
   30.00000    2.90000    3.10000 1.0683E-01 7.7311E-03
   30.00000    3.10000    3.30000 9.7447E-02 7.1953E-03
   30.00000    3.30000    3.50000 7.9505E-02 6.3781E-03
   30.00000    3.50000    3.70000 7.4450E-02 5.9250E-03
   30.00000    3.70000    3.90000 6.3128E-02 5.3640E-03
   30.00000    3.90000    4.10000 5.4594E-02 4.7681E-03
   30.00000    4.10000    4.30000 4.6906E-02 4.5179E-03
   30.00000    4.30000    4.50000 4.0137E-02 4.1266E-03
   30.00000    4.50000    4.70000 4.3802E-02 3.9730E-03
   30.00000    4.70000    4.90000 3.6364E-02 3.5266E-03
   30.00000    4.90000    5.10000 3.1900E-02 2.7220E-03
   30.00000    5.10000    5.30000 2.7436E-02 2.6694E-03
   30.00000    5.30000    5.50000 2.4128E-02 2.5055E-03
   30.00000    5.50000    5.70000 2.3012E-02 2.7601E-03
   30.00000    5.70000    5.90000 1.8891E-02 2.3367E-03
   30.00000    5.90000    6.10000 2.0526E-02 2.8268E-03
   30.00000    6.10000    6.30000 1.7465E-02 2.4591E-03
   30.00000    6.30000    6.50000 1.6270E-02 2.7029E-03
   30.00000    6.50000    6.70000 1.7452E-02 2.8436E-03
   30.00000    6.70000    6.90000 1.2948E-02 2.6501E-03
   30.00000    6.90000    7.10000 1.5673E-02 2.4314E-03
   30.00000    7.10000    7.30000 1.7302E-02 2.6167E-03
   30.00000    7.30000    7.50000 1.4347E-02 2.5533E-03
   30.00000    7.50000    7.70000 1.2119E-02 2.4449E-03
   30.00000    7.70000    7.90000 1.2704E-02 2.5032E-03
   30.00000    7.90000    8.10000 1.2448E-02 2.5407E-03
   30.00000    8.10000    8.30000 1.1280E-02 2.2885E-03
   30.00000    8.30000    8.50000 1.1518E-02 2.2435E-03
   30.00000    8.50000    8.70000 7.9990E-03 2.0826E-03
   30.00000    8.70000    8.90000 9.0216E-03 2.3423E-03
   30.00000    8.90000    9.10000 1.1356E-02 2.5714E-03
   30.00000    9.10000    9.30000 1.3018E-02 2.4661E-03
   30.00000    9.30000    9.50000 9.2248E-03 2.2558E-03
   30.00000    9.50000    9.70000 7.3391E-03 2.3008E-03
   30.00000    9.70000    9.90000 8.1181E-03 2.0144E-03
   30.00000    9.90000   10.10000 7.8819E-03 2.1050E-03
   30.00000   10.10000   10.50000 8.2055E-03 1.4522E-03
   30.00000   10.50000   10.90000 8.6878E-03 1.6974E-03
   30.00000   10.90000   11.30000 6.2539E-03 1.6922E-03
   30.00000   11.30000   11.70000 6.7694E-03 1.5752E-03
   30.00000   11.70000   12.10000 7.8458E-03 1.4839E-03
   30.00000   12.10000   12.50000 6.2490E-03 1.4563E-03
   30.00000   12.50000   12.90000 6.4664E-03 1.2957E-03
   30.00000   12.90000   13.30000 7.9227E-03 1.3138E-03
   30.00000   13.30000   13.70000 8.4789E-03 1.1764E-03
   30.00000   13.70000   14.10000 6.6661E-03 1.3358E-03
   30.00000   14.10000   14.50000 6.1716E-03 1.2162E-03
   30.00000   14.50000   14.90000 4.4647E-03 1.1034E-03
   30.00000   14.90000   15.30000 5.4875E-03 9.8890E-04
   30.00000   15.30000   15.70000 3.7066E-03 1.2825E-03
   30.00000   15.70000   16.10000 9.8711E-03 1.6196E-03
   30.00000   16.10000   16.50000 1.3268E-02 1.9033E-03
   30.00000   16.50000   16.90000 2.0806E-02 2.9253E-03
   30.00000   16.90000   17.30000 5.4302E-02 5.6127E-03
   30.00000   17.30000   17.70000 1.4519E-01 1.1013E-02
   30.00000   17.70000   18.10000 2.5163E-01 1.6855E-02
   30.00000   18.10000   18.50000 2.2266E-01 1.5117E-02
   30.00000   18.50000   18.90000 1.5783E-01 1.1055E-02
   30.00000   18.90000   19.30000 7.7442E-02 5.9796E-03
   30.00000   19.30000   19.70000 3.7646E-02 3.3372E-03
   30.00000   19.70000   20.10000 1.4342E-02 1.6579E-03
   45.00000     .70000     .90000 4.2587E-01 4.1786E-02
   45.00000     .90000    1.10000 3.2095E-01 2.2013E-02
   45.00000    1.10000    1.30000 2.9909E-01 1.8561E-02
   45.00000    1.30000    1.50000 2.8106E-01 1.6695E-02
   45.00000    1.50000    1.70000 2.3771E-01 1.4380E-02
   45.00000    1.70000    1.90000 2.1067E-01 1.2965E-02
   45.00000    1.90000    2.10000 1.7584E-01 1.1365E-02
   45.00000    2.10000    2.30000 1.6319E-01 1.0711E-02
   45.00000    2.30000    2.50000 1.3278E-01 9.2311E-03
   45.00000    2.50000    2.70000 1.3490E-01 9.0819E-03
   45.00000    2.70000    2.90000 1.1975E-01 8.3958E-03
   45.00000    2.90000    3.10000 9.5175E-02 7.2862E-03
   45.00000    3.10000    3.30000 8.9440E-02 6.8023E-03
   45.00000    3.30000    3.50000 8.6615E-02 6.4491E-03
   45.00000    3.50000    3.70000 5.8848E-02 5.4686E-03
   45.00000    3.70000    3.90000 6.1291E-02 5.3253E-03
   45.00000    3.90000    4.10000 4.6021E-02 4.5397E-03
   45.00000    4.10000    4.30000 4.8394E-02 4.4496E-03
   45.00000    4.30000    4.50000 3.8920E-02 4.1742E-03
   45.00000    4.50000    4.70000 3.1127E-02 3.9281E-03
   45.00000    4.70000    4.90000 3.2331E-02 3.4289E-03
   45.00000    4.90000    5.10000 3.0136E-02 3.2181E-03
   45.00000    5.10000    5.30000 2.5620E-02 2.5442E-03
   45.00000    5.30000    5.50000 2.0781E-02 2.3746E-03
   45.00000    5.50000    5.70000 2.1775E-02 2.3792E-03
   45.00000    5.70000    5.90000 1.7474E-02 2.0843E-03
   45.00000    5.90000    6.10000 1.9845E-02 2.5551E-03
   45.00000    6.10000    6.30000 1.6991E-02 2.4430E-03
   45.00000    6.30000    6.50000 1.7932E-02 2.7384E-03
   45.00000    6.50000    6.70000 1.5855E-02 2.6868E-03
   45.00000    6.70000    6.90000 1.7921E-02 2.4537E-03
   45.00000    6.90000    7.10000 1.3879E-02 2.0483E-03
   45.00000    7.10000    7.30000 1.4379E-02 2.3130E-03
   45.00000    7.30000    7.50000 1.2213E-02 2.3580E-03
   45.00000    7.50000    7.70000 9.8455E-03 2.1532E-03
   45.00000    7.70000    7.90000 1.1772E-02 2.0818E-03
   45.00000    7.90000    8.10000 9.7165E-03 1.9284E-03
   45.00000    8.10000    8.30000 1.0149E-02 1.9374E-03
   45.00000    8.30000    8.50000 8.5981E-03 1.9530E-03
   45.00000    8.50000    8.70000 6.0484E-03 2.0442E-03
   45.00000    8.70000    8.90000 7.0405E-03 1.9653E-03
   45.00000    8.90000    9.10000 8.9352E-03 1.9766E-03
   45.00000    9.10000    9.30000 8.8490E-03 1.8556E-03
   45.00000    9.30000    9.50000 5.7313E-03 2.0011E-03
   45.00000    9.50000    9.70000 5.9888E-03 2.0656E-03
   45.00000    9.70000    9.90000 7.7776E-03 1.6077E-03
   45.00000    9.90000   10.10000 9.0611E-03 1.9911E-03
   45.00000   10.10000   10.50000 4.6953E-03 1.3002E-03
   45.00000   10.50000   10.90000 7.0691E-03 1.2054E-03
   45.00000   10.90000   11.30000 6.6999E-03 1.2539E-03
   45.00000   11.30000   11.70000 5.6151E-03 1.0958E-03
   45.00000   11.70000   12.10000 5.7362E-03 1.0994E-03
   45.00000   12.10000   12.50000 6.0220E-03 1.1006E-03
   45.00000   12.50000   12.90000 4.2136E-03 9.1427E-04
   45.00000   12.90000   13.30000 5.7633E-03 9.8563E-04
   45.00000   13.30000   13.70000 4.3322E-03 9.9429E-04
   45.00000   13.70000   14.10000 5.8484E-03 9.7888E-04
   45.00000   14.10000   14.50000 5.5893E-03 9.0403E-04
   45.00000   14.50000   14.90000 4.8898E-03 1.0654E-03
   45.00000   14.90000   15.30000 5.1442E-03 1.2095E-03
   45.00000   15.30000   15.70000 5.9848E-03 1.4055E-03
   45.00000   15.70000   16.10000 6.3655E-03 1.4192E-03
   45.00000   16.10000   16.50000 8.1251E-03 1.8300E-03
   45.00000   16.50000   16.90000 1.1507E-02 2.5346E-03
   45.00000   16.90000   17.30000 1.4056E-02 3.7704E-03
   45.00000   17.30000   17.70000 3.3799E-02 5.0889E-03
   45.00000   17.70000   18.10000 5.5204E-02 5.7123E-03
   45.00000   18.10000   18.50000 4.4258E-02 4.2811E-03
   45.00000   18.50000   18.90000 2.2284E-02 2.4773E-03
   45.00000   18.90000   19.30000 5.0024E-03 1.0118E-03
   45.00000   19.30000   19.70000 1.0484E-03 5.4248E-04
   60.00000     .70000     .90000 4.2439E-01 3.7142E-02
   60.00000     .90000    1.10000 3.7004E-01 2.2541E-02
   60.00000    1.10000    1.30000 3.2358E-01 1.8882E-02
   60.00000    1.30000    1.50000 2.7286E-01 1.5930E-02
   60.00000    1.50000    1.70000 2.4960E-01 1.4590E-02
   60.00000    1.70000    1.90000 2.1802E-01 1.3020E-02
   60.00000    1.90000    2.10000 1.8536E-01 1.1304E-02
   60.00000    2.10000    2.30000 1.5747E-01 9.9000E-03
   60.00000    2.30000    2.50000 1.4771E-01 9.4191E-03
   60.00000    2.50000    2.70000 1.3733E-01 8.8315E-03
   60.00000    2.70000    2.90000 1.1110E-01 7.4989E-03
   60.00000    2.90000    3.10000 1.0337E-01 6.9253E-03
   60.00000    3.10000    3.30000 9.1521E-02 6.3690E-03
   60.00000    3.30000    3.50000 7.4925E-02 5.6821E-03
   60.00000    3.50000    3.70000 7.6461E-02 5.6702E-03
   60.00000    3.70000    3.90000 5.9315E-02 4.8347E-03
   60.00000    3.90000    4.10000 5.3575E-02 4.3817E-03
   60.00000    4.10000    4.30000 5.5010E-02 4.4286E-03
   60.00000    4.30000    4.50000 4.5935E-02 4.3101E-03
   60.00000    4.50000    4.70000 3.7952E-02 3.9158E-03
   60.00000    4.70000    4.90000 3.5479E-02 3.4736E-03
   60.00000    4.90000    5.10000 3.1598E-02 3.2291E-03
   60.00000    5.10000    5.30000 2.5605E-02 2.3884E-03
   60.00000    5.30000    5.50000 1.9352E-02 2.1103E-03
   60.00000    5.50000    5.70000 2.0569E-02 2.1906E-03
   60.00000    5.70000    5.90000 1.8204E-02 2.2215E-03
   60.00000    5.90000    6.10000 1.9951E-02 2.2726E-03
   60.00000    6.10000    6.30000 1.6947E-02 2.1136E-03
   60.00000    6.30000    6.50000 1.2026E-02 1.8145E-03
   60.00000    6.50000    6.70000 1.1763E-02 1.9506E-03
   60.00000    6.70000    6.90000 1.5830E-02 1.9507E-03
   60.00000    6.90000    7.10000 1.3365E-02 1.8869E-03
   60.00000    7.10000    7.30000 1.6101E-02 2.0569E-03
   60.00000    7.30000    7.50000 1.2097E-02 1.8236E-03
   60.00000    7.50000    7.70000 1.1901E-02 1.8720E-03
   60.00000    7.70000    7.90000 1.1103E-02 1.8128E-03
   60.00000    7.90000    8.10000 8.7556E-03 1.5976E-03
   60.00000    8.10000    8.30000 4.2500E-03 1.6762E-03
   60.00000    8.30000    8.50000 8.3126E-03 1.5390E-03
   60.00000    8.50000    8.70000 6.7612E-03 1.5731E-03
   60.00000    8.70000    8.90000 7.7225E-03 1.5432E-03
   60.00000    8.90000    9.10000 7.5108E-03 1.3702E-03
   60.00000    9.10000    9.30000 5.7389E-03 1.2903E-03
   60.00000    9.30000    9.50000 4.9233E-03 1.4161E-03
   60.00000    9.50000    9.70000 4.4671E-03 1.5170E-03
   60.00000    9.70000    9.90000 5.2174E-03 1.4297E-03
   60.00000    9.90000   10.10000 5.5440E-03 1.3260E-03
   60.00000   10.10000   10.50000 5.0637E-03 1.0038E-03
   60.00000   10.50000   10.90000 5.6339E-03 1.1195E-03
   60.00000   10.90000   11.30000 4.3142E-03 1.0474E-03
   60.00000   11.30000   11.70000 4.0825E-03 1.1055E-03
   60.00000   11.70000   12.10000 5.6779E-03 1.1305E-03
   60.00000   12.10000   12.50000 5.8755E-03 1.0955E-03
   60.00000   12.50000   12.90000 4.9046E-03 1.0874E-03
   60.00000   12.90000   13.30000 2.5290E-03 1.0221E-03
   60.00000   13.30000   13.70000 2.9436E-03 1.0120E-03
   60.00000   13.70000   14.10000 4.1281E-03 1.0430E-03
   60.00000   14.10000   14.50000 4.7132E-03 1.0485E-03
   60.00000   14.50000   14.90000 2.9729E-03 1.0403E-03
   60.00000   14.90000   15.30000 2.6062E-03 1.1133E-03
   60.00000   15.30000   15.70000 4.7444E-03 1.3154E-03
   60.00000   15.70000   16.10000 4.7815E-03 1.5638E-03
   60.00000   16.10000   16.50000 7.5908E-03 1.8968E-03
   60.00000   16.50000   16.90000 4.7494E-03 2.4789E-03
   60.00000   16.90000   17.30000 7.6708E-03 3.1622E-03
   60.00000   17.30000   17.70000 2.1971E-02 3.7222E-03
   60.00000   17.70000   18.10000 3.5651E-02 3.7163E-03
   60.00000   18.10000   18.50000 3.5942E-02 3.1476E-03
   60.00000   18.50000   18.90000 1.5656E-02 1.7264E-03
   60.00000   18.90000   19.30000 6.3411E-03 9.6542E-04
   60.00000   19.30000   19.70000 1.2329E-03 3.8167E-04
   60.00000   19.70000   20.10000 3.1495E-04 2.1640E-04
   75.00000     .70000     .90000 3.1256E-01 2.6918E-02
   75.00000     .90000    1.10000 3.4367E-01 2.0113E-02
   75.00000    1.10000    1.30000 3.5527E-01 1.9670E-02
   75.00000    1.30000    1.50000 2.8832E-01 1.5846E-02
   75.00000    1.50000    1.70000 2.8329E-01 1.5541E-02
   75.00000    1.70000    1.90000 2.3055E-01 1.2934E-02
   75.00000    1.90000    2.10000 2.0507E-01 1.1668E-02
   75.00000    2.10000    2.30000 1.7382E-01 1.0026E-02
   75.00000    2.30000    2.50000 1.5652E-01 9.2091E-03
   75.00000    2.50000    2.70000 1.3381E-01 7.9561E-03
   75.00000    2.70000    2.90000 1.1165E-01 6.7321E-03
   75.00000    2.90000    3.10000 1.0763E-01 6.4483E-03
   75.00000    3.10000    3.30000 8.7987E-02 5.4866E-03
   75.00000    3.30000    3.50000 7.4488E-02 4.8038E-03
   75.00000    3.50000    3.70000 6.3471E-02 4.0694E-03
   75.00000    3.70000    3.90000 5.2882E-02 3.5081E-03
   75.00000    3.90000    4.10000 4.8113E-02 3.2874E-03
   75.00000    4.10000    4.30000 4.3960E-02 3.1243E-03
   75.00000    4.30000    4.50000 4.3993E-02 3.1523E-03
   75.00000    4.50000    4.70000 3.7966E-02 2.7812E-03
   75.00000    4.70000    4.90000 3.5079E-02 2.5686E-03
   75.00000    4.90000    5.10000 3.2622E-02 2.7260E-03
   75.00000    5.10000    5.30000 3.0166E-02 2.8056E-03
   75.00000    5.30000    5.50000 2.7709E-02 2.6474E-03
   75.00000    5.50000    5.70000 2.4160E-02 2.4173E-03
   75.00000    5.70000    5.90000 2.1373E-02 2.2566E-03
   75.00000    5.90000    6.10000 2.3268E-02 2.3498E-03
   75.00000    6.10000    6.30000 1.5921E-02 1.8992E-03
   75.00000    6.30000    6.50000 1.8611E-02 2.0361E-03
   75.00000    6.50000    6.70000 1.9135E-02 2.0529E-03
   75.00000    6.70000    6.90000 1.1859E-02 1.5122E-03
   75.00000    6.90000    7.10000 1.2029E-02 1.5985E-03
   75.00000    7.10000    7.30000 1.0831E-02 1.5035E-03
   75.00000    7.30000    7.50000 1.1193E-02 1.6244E-03
   75.00000    7.50000    7.70000 8.6444E-03 1.4459E-03
   75.00000    7.70000    7.90000 6.0348E-03 1.2418E-03
   75.00000    7.90000    8.10000 7.1875E-03 1.3285E-03
   75.00000    8.10000    8.30000 9.5955E-03 1.5130E-03
   75.00000    8.30000    8.50000 8.6005E-03 1.4049E-03
   75.00000    8.50000    8.70000 6.3363E-03 1.2696E-03
   75.00000    8.70000    8.90000 7.6659E-03 1.3748E-03
   75.00000    8.90000    9.10000 5.6849E-03 1.1551E-03
   75.00000    9.10000    9.30000 5.9655E-03 1.1538E-03
   75.00000    9.30000    9.50000 6.9266E-03 1.2198E-03
   75.00000    9.50000    9.70000 4.8536E-03 1.0769E-03
   75.00000    9.70000    9.90000 5.6147E-03 1.2087E-03
   75.00000    9.90000   10.10000 5.7564E-03 1.1088E-03
   75.00000   10.10000   10.50000 4.2662E-03 8.1702E-04
   75.00000   10.50000   10.90000 2.8071E-03 7.4628E-04
   75.00000   10.90000   11.30000 5.3666E-03 8.9743E-04
   75.00000   11.30000   11.70000 6.0562E-03 9.2735E-04
   75.00000   11.70000   12.10000 4.3559E-03 8.0482E-04
   75.00000   12.10000   12.50000 3.3937E-03 7.0204E-04
   75.00000   12.50000   12.90000 2.8600E-03 6.9761E-04
   75.00000   12.90000   13.30000 3.8362E-03 7.8276E-04
   75.00000   13.30000   13.70000 3.0999E-03 6.4652E-04
   75.00000   13.70000   14.10000 4.4491E-03 7.2427E-04
   75.00000   14.10000   14.50000 4.0324E-03 7.5852E-04
   75.00000   14.50000   14.90000 2.8468E-03 7.7041E-04
   75.00000   14.90000   15.30000 2.1811E-03 7.9322E-04
   75.00000   15.30000   15.70000 3.9292E-03 9.7143E-04
   75.00000   15.70000   16.10000 3.1426E-03 1.0468E-03
   75.00000   16.10000   16.50000 3.9640E-03 1.1277E-03
   75.00000   16.50000   16.90000 1.8017E-03 1.3537E-03
   75.00000   16.90000   17.30000 1.8209E-03 1.6237E-03
   75.00000   17.30000   17.70000 9.0252E-03 1.8328E-03
   75.00000   17.70000   18.10000 1.2084E-02 1.6241E-03
   75.00000   18.10000   18.50000 1.3491E-02 1.4895E-03
   75.00000   18.50000   18.90000 8.6697E-03 1.1078E-03
   75.00000   18.90000   19.30000 3.1378E-03 5.9478E-04
   75.00000   19.30000   19.70000 4.5996E-04 2.4612E-04
   75.00000   19.70000   20.10000 8.5204E-05 7.5729E-05
   90.00000     .70000     .90000 4.4771E-01 3.0795E-02
   90.00000     .90000    1.10000 3.4728E-01 1.9611E-02
   90.00000    1.10000    1.30000 3.2796E-01 1.7987E-02
   90.00000    1.30000    1.50000 3.0115E-01 1.6431E-02
   90.00000    1.50000    1.70000 2.7851E-01 1.5280E-02
   90.00000    1.70000    1.90000 2.3034E-01 1.2942E-02
   90.00000    1.90000    2.10000 1.8802E-01 1.0890E-02
   90.00000    2.10000    2.30000 1.6598E-01 9.8430E-03
   90.00000    2.30000    2.50000 1.5695E-01 9.3109E-03
   90.00000    2.50000    2.70000 1.3378E-01 8.0139E-03
   90.00000    2.70000    2.90000 1.2689E-01 7.6555E-03
   90.00000    2.90000    3.10000 1.0940E-01 6.6556E-03
   90.00000    3.10000    3.30000 9.8907E-02 6.0421E-03
   90.00000    3.30000    3.50000 8.2441E-02 5.1625E-03
   90.00000    3.50000    3.70000 7.0636E-02 4.6745E-03
   90.00000    3.70000    3.90000 6.0601E-02 4.1161E-03
   90.00000    3.90000    4.10000 5.5485E-02 3.8057E-03
   90.00000    4.10000    4.30000 5.0527E-02 3.5764E-03
   90.00000    4.30000    4.50000 4.3171E-02 3.2987E-03
   90.00000    4.50000    4.70000 3.8072E-02 2.9673E-03
   90.00000    4.70000    4.90000 3.3029E-02 2.5415E-03
   90.00000    4.90000    5.10000 2.9674E-02 2.7011E-03
   90.00000    5.10000    5.30000 2.6318E-02 1.9061E-03
   90.00000    5.30000    5.50000 1.8670E-02 1.6329E-03
   90.00000    5.50000    5.70000 2.0488E-02 1.7014E-03
   90.00000    5.70000    5.90000 1.8953E-02 1.6525E-03
   90.00000    5.90000    6.10000 1.5493E-02 1.4489E-03
   90.00000    6.10000    6.30000 1.2815E-02 1.3611E-03
   90.00000    6.30000    6.50000 1.2346E-02 1.2871E-03
   90.00000    6.50000    6.70000 1.2917E-02 1.2384E-03
   90.00000    6.70000    6.90000 1.0302E-02 1.1352E-03
   90.00000    6.90000    7.10000 7.3687E-03 1.1046E-03
   90.00000    7.10000    7.30000 1.1374E-02 1.2219E-03
   90.00000    7.30000    7.50000 8.4317E-03 1.1989E-03
   90.00000    7.50000    7.70000 8.0976E-03 1.1553E-03
   90.00000    7.70000    7.90000 7.8654E-03 1.0277E-03
   90.00000    7.90000    8.10000 5.7799E-03 9.9538E-04
   90.00000    8.10000    8.30000 5.9511E-03 9.1104E-04
   90.00000    8.30000    8.50000 7.3563E-03 9.2547E-04
   90.00000    8.50000    8.70000 6.2564E-03 9.9424E-04
   90.00000    8.70000    8.90000 6.2166E-03 1.0324E-03
   90.00000    8.90000    9.10000 6.6315E-03 1.0785E-03
   90.00000    9.10000    9.30000 4.7857E-03 1.0384E-03
   90.00000    9.30000    9.50000 4.7915E-03 1.0294E-03
   90.00000    9.50000    9.70000 4.8389E-03 9.5803E-04
   90.00000    9.70000    9.90000 4.7198E-03 9.6888E-04
   90.00000    9.90000   10.10000 3.6769E-03 8.8757E-04
   90.00000   10.10000   10.50000 4.5632E-03 6.6835E-04
   90.00000   10.50000   10.90000 4.2122E-03 7.1061E-04
   90.00000   10.90000   11.30000 3.8688E-03 6.6876E-04
   90.00000   11.30000   11.70000 3.3191E-03 6.3212E-04
   90.00000   11.70000   12.10000 2.2897E-03 6.2135E-04
   90.00000   12.10000   12.50000 2.2279E-03 6.6493E-04
   90.00000   12.50000   12.90000 3.3728E-03 6.4931E-04
   90.00000   12.90000   13.30000 2.2313E-03 6.7945E-04
   90.00000   13.30000   13.70000 2.0172E-03 6.9011E-04
   90.00000   13.70000   14.10000 1.7062E-03 6.3934E-04
   90.00000   14.10000   14.50000 2.2821E-03 7.0759E-04
   90.00000   14.50000   14.90000 1.6047E-03 6.7715E-04
   90.00000   14.90000   15.30000 2.1192E-03 8.5504E-04
   90.00000   15.30000   15.70000 2.0044E-03 9.3724E-04
   90.00000   15.70000   16.50000 1.2975E-03 1.2042E-03
   90.00000   16.50000   16.90000 1.4248E-03 1.4736E-03
   90.00000   16.90000   17.30000 2.6410E-03 1.3641E-03
   90.00000   17.30000   17.70000 1.0339E-02 1.2597E-03
   90.00000   17.70000   18.10000 1.2739E-02 1.2924E-03
   90.00000   18.10000   18.50000 1.1787E-02 1.1708E-03
   90.00000   18.50000   18.90000 5.8918E-03 7.8090E-04
   90.00000   18.90000   19.30000 2.0808E-03 5.0505E-04
   90.00000   19.30000   19.70000 1.1957E-03 3.0433E-04
   90.00000   19.70000   20.10000 5.3369E-04 1.6792E-04
  120.00000     .70000     .90000 4.2735E-01 2.9369E-02
  120.00000     .90000    1.10000 3.3644E-01 1.8835E-02
  120.00000    1.10000    1.30000 3.0908E-01 1.6709E-02
  120.00000    1.30000    1.50000 2.7925E-01 1.4986E-02
  120.00000    1.50000    1.70000 2.4838E-01 1.3398E-02
  120.00000    1.70000    1.90000 2.1276E-01 1.1776E-02
  120.00000    1.90000    2.10000 1.7880E-01 1.0206E-02
  120.00000    2.10000    2.30000 1.6607E-01 9.6169E-03
  120.00000    2.30000    2.50000 1.4415E-01 8.3741E-03
  120.00000    2.50000    2.70000 1.2610E-01 7.3531E-03
  120.00000    2.70000    2.90000 1.1016E-01 6.5180E-03
  120.00000    2.90000    3.10000 9.4723E-02 5.7334E-03
  120.00000    3.10000    3.30000 8.6413E-02 5.3677E-03
  120.00000    3.30000    3.50000 7.7708E-02 4.9820E-03
  120.00000    3.50000    3.70000 6.2739E-02 4.1979E-03
  120.00000    3.70000    3.90000 5.5497E-02 3.7776E-03
  120.00000    3.90000    4.10000 5.1823E-02 3.5193E-03
  120.00000    4.10000    4.30000 4.3799E-02 3.2194E-03
  120.00000    4.30000    4.50000 4.6575E-02 3.3813E-03
  120.00000    4.50000    4.70000 3.7799E-02 3.0542E-03
  120.00000    4.70000    4.90000 3.8538E-02 2.9200E-03
  120.00000    4.90000    5.10000 3.2618E-02 2.7365E-03
  120.00000    5.10000    5.30000 2.6140E-02 2.0172E-03
  120.00000    5.30000    5.50000 1.8760E-02 1.5979E-03
  120.00000    5.50000    5.70000 1.7559E-02 1.5118E-03
  120.00000    5.70000    5.90000 1.9616E-02 1.6413E-03
  120.00000    5.90000    6.10000 1.2891E-02 1.3705E-03
  120.00000    6.10000    6.30000 1.2016E-02 1.2562E-03
  120.00000    6.30000    6.50000 1.2731E-02 1.2769E-03
  120.00000    6.50000    6.70000 1.1577E-02 1.1934E-03
  120.00000    6.70000    6.90000 1.0135E-02 1.1396E-03
  120.00000    6.90000    7.10000 1.0476E-02 1.1102E-03
  120.00000    7.10000    7.30000 7.6459E-03 1.0305E-03
  120.00000    7.30000    7.50000 7.6205E-03 1.0279E-03
  120.00000    7.50000    7.70000 6.8101E-03 9.2668E-04
  120.00000    7.70000    7.90000 5.8306E-03 9.5446E-04
  120.00000    7.90000    8.10000 5.3776E-03 8.8559E-04
  120.00000    8.10000    8.30000 4.8830E-03 8.2170E-04
  120.00000    8.30000    8.50000 4.9635E-03 8.6800E-04
  120.00000    8.50000    8.70000 3.8458E-03 8.3427E-04
  120.00000    8.70000    8.90000 3.8727E-03 8.6926E-04
  120.00000    8.90000    9.10000 3.9466E-03 7.8188E-04
  120.00000    9.10000    9.30000 2.9147E-03 7.2990E-04
  120.00000    9.30000    9.50000 2.3009E-03 7.3192E-04
  120.00000    9.50000    9.70000 2.9379E-03 7.0376E-04
  120.00000    9.70000    9.90000 3.4252E-03 8.0862E-04
  120.00000    9.90000   10.10000 2.5315E-03 7.5905E-04
  120.00000   10.10000   10.50000 3.2755E-03 5.6929E-04
  120.00000   10.50000   10.90000 1.7690E-03 5.2495E-04
  120.00000   10.90000   11.30000 2.3955E-03 5.5909E-04
  120.00000   11.30000   11.70000 2.1208E-03 5.8949E-04
  120.00000   11.70000   12.10000 2.2414E-03 5.5001E-04
  120.00000   12.10000   12.50000 1.4824E-03 4.7712E-04
  120.00000   12.50000   12.90000 1.8170E-03 4.8694E-04
  120.00000   12.90000   13.30000 1.8758E-03 4.9418E-04
  120.00000   13.30000   13.70000 2.1981E-03 6.1619E-04
  120.00000   13.70000   14.10000 1.5970E-03 6.9180E-04
  120.00000   14.10000   14.50000 1.9414E-03 8.2785E-04
  120.00000   14.50000   15.30000 3.4490E-04 1.0518E-03
  120.00000   15.30000   15.70000 3.4053E-03 1.3024E-03
  120.00000   15.70000   16.10000 7.5842E-04 1.2332E-03
  120.00000   16.10000   16.50000 9.4684E-04 9.2988E-04
  120.00000   16.50000   16.90000 1.9975E-03 7.6104E-04
  120.00000   16.90000   17.30000 1.5966E-03 6.4741E-04
  120.00000   17.30000   17.70000 5.2314E-03 6.7473E-04
  120.00000   17.70000   18.10000 5.2851E-03 6.7865E-04
  120.00000   18.10000   18.50000 4.4503E-03 5.9438E-04
  120.00000   18.50000   18.90000 2.0711E-03 3.7391E-04
  120.00000   18.90000   19.30000 9.1201E-04 2.2789E-04
  120.00000   19.30000   19.70000 5.5558E-05 1.3071E-04
ENDDATA            430
ENDSUBENT          440
SUBENT        22353005   20131208   20140820   20140807       2238
BIB                  4          6
REACTION   (92-U-238(N,X)0-NN-1,,DE)
ANALYSIS   (INTAD)
SAMPLE     .Metallic cylinder of elemental uranium 2 cm in diam.
            and 5 cm height encapsulated in thin aluminium
            container and placed 12 cm from the neutron source
STATUS     (DEP,22353004)
ENDBIB               6
NOCOMMON             0          0
DATA                 4         72
E-CM-MIN   E-CM-MAX   DATA-CM    DATA-ERR
MEV        MEV        B/MEV      B/MEV
     .70000     .90000 4.7559E+00 7.5892E-01
     .90000    1.10000 4.3301E+00 6.8538E-01
    1.10000    1.30000 3.8891E+00 6.1557E-01
    1.30000    1.50000 3.4333E+00 5.4307E-01
    1.50000    1.70000 3.0193E+00 4.7773E-01
    1.70000    1.90000 2.6428E+00 4.1795E-01
    1.90000    2.10000 2.2682E+00 3.5940E-01
    2.10000    2.30000 2.0403E+00 3.2302E-01
    2.30000    2.50000 1.7797E+00 2.8155E-01
    2.50000    2.70000 1.6357E+00 2.5865E-01
    2.70000    2.90000 1.3558E+00 2.1501E-01
    2.90000    3.10000 1.1830E+00 1.8743E-01
    3.10000    3.30000 1.0642E+00 1.6879E-01
    3.30000    3.50000 9.6169E-01 1.5278E-01
    3.50000    3.70000 7.9898E-01 1.2974E-01
    3.70000    3.90000 6.9711E-01 1.1138E-01
    3.90000    4.10000 6.2563E-01 1.0082E-01
    4.10000    4.30000 5.8301E-01 9.4904E-02
    4.30000    4.50000 5.4822E-01 8.7938E-02
    4.50000    4.70000 4.5674E-01 7.4468E-02
    4.70000    4.90000 4.6130E-01 7.3659E-02
    4.90000    5.10000 4.0755E-01 6.5094E-02
    5.10000    5.30000 3.2542E-01 5.3243E-02
    5.30000    5.50000 2.6228E-01 4.7839E-02
    5.50000    5.70000 2.3564E-01 3.8650E-02
    5.70000    5.90000 2.3733E-01 3.8713E-02
    5.90000    6.10000 2.2072E-01 3.7891E-02
    6.10000    6.30000 1.8593E-01 2.9993E-02
    6.30000    6.50000 1.7115E-01 3.5571E-02
    6.50000    6.70000 1.6769E-01 3.2211E-02
    6.70000    6.90000 1.7152E-01 2.7767E-02
    6.90000    7.10000 1.6926E-01 2.8150E-02
    7.10000    7.30000 1.3574E-01 2.3737E-02
    7.30000    7.50000 1.2561E-01 2.0704E-02
    7.50000    7.70000 1.1292E-01 1.9415E-02
    7.70000    7.90000 9.6331E-02 1.9191E-02
    7.90000    8.10000 8.8849E-02 1.4755E-02
    8.10000    8.30000 7.6446E-02 1.9957E-02
    8.30000    8.50000 7.5772E-02 1.2898E-02
    8.50000    8.70000 6.4009E-02 1.0806E-02
    8.70000    8.90000 6.9027E-02 1.1675E-02
    8.90000    9.10000 6.3255E-02 1.0450E-02
    9.10000    9.30000 5.5033E-02 1.0643E-02
    9.30000    9.50000 4.4133E-02 1.1041E-02
    9.50000    9.70000 4.5726E-02 7.8016E-03
    9.70000    9.90000 5.9122E-02 1.1446E-02
    9.90000   10.10000 5.6838E-02 1.0347E-02
   10.10000   10.50000 4.6612E-02 8.8343E-03
   10.50000   10.90000 4.1121E-02 1.0946E-02
   10.90000   11.30000 4.5984E-02 1.0481E-02
   11.30000   11.70000 4.6124E-02 1.2589E-02
   11.70000   12.10000 5.3881E-02 9.9171E-03
   12.10000   12.50000 4.6904E-02 8.5257E-03
   12.50000   12.90000 3.2423E-02 7.3360E-03
   12.90000   13.30000 3.4467E-02 1.0519E-02
   13.30000   13.70000 3.6605E-02 9.2865E-03
   13.70000   14.10000 4.7091E-02 1.1068E-02
   14.10000   14.50000 4.5027E-02 7.7452E-03
   14.50000   14.90000 2.8152E-02 6.9279E-03
   14.90000   15.30000 2.1642E-02 5.7339E-03
   15.30000   15.70000 6.0129E-02 1.0278E-02
   15.70000   16.10000 8.6864E-02 1.4176E-02
   16.10000   16.50000 1.3952E-01 2.2061E-02
   16.50000   16.90000 1.5924E-01 2.6198E-02
   16.90000   17.30000 4.6488E-01 7.9126E-02
   17.30000   17.70000 8.3239E-01 1.4140E-01
   17.70000   18.10000 8.6732E-01 1.5342E-01
   18.10000   18.50000 7.9394E-01 1.4614E-01
   18.50000   18.90000 6.5063E-01 1.1932E-01
   18.90000   19.30000 3.3410E-01 7.5340E-02
   19.30000   19.70000 9.3503E-02 4.0506E-02
   19.70000   20.10000 2.8640E-02 1.5807E-02
ENDDATA             74
ENDSUBENT           85
ENDENTRY             5
