ENTRY            22362   20030529   20031222
SUBENT        22362001   20030529   20031222
BIB                 11         22
INSTITUTE  (2JPNTOH)
REFERENCE  (R,JAERI-M-92-027,309,199201) Experimental details
AUTHOR     (S.MATSUYAMA,T.ITO,M.BABA,N.ITO,H.IIDE,T.OKUBO,
           N.HIRAKAWA)
TITLE      .Measurement of double-differential (DDX) and energy
            differential neutron emission cross sections
            for Fe-nat at En=14.1 MeV neutron energy
FACILITY   (DYNAM,2JPNTOH)  4.5 mV Tohoku Dynamitron
INC-SOURCE (D-T) Titanum tritiated metallic target was bombarded
                 by pulsed neutron beam
METHOD     (TOF)    Tohoku 4.5 mV Dynamitron time-of-flight
                    spectrometer
DETECTOR   (SCIN)   NE213 liquid scintillator 14 cm in diameter
                    and 10 cm thickness
ERR-ANALYS (DATA-ERR)  Standard deviation. No details given
STATUS     .Data obtained via internet from:
              Baba (1997/06), Matsuyama (1991/06), Ito (1991/06).
HISTORY    (19971113C)  + +  Compiled by S.M.      + +
            910615 - Compiled first in Tohoku internal format
                     and presented in file FE.DAT in 'DDX'
                     Tohoku directory
           (20030529A) Updated to new date formats, lower case.
ENDBIB              22
COMMON               1          3
EN
MEV
   14.10000
ENDCOMMON            3
ENDSUBENT           29
SUBENT        22362002   20030529   20031222
BIB                  2          2
REACTION   (26-FE-0(N,X)0-NN-1,,DA/DE)
HISTORY    (20030529A) Reaction corrected.
ENDBIB               2
NOCOMMON             0          0
DATA                 5        593
ANG        E-MIN      E-MAX      DATA       DATA-ERR
ADEG       MEV        MEV        B/SR/MEV   B/SR/MEV
   30.00000     .70000     .90000 4.5697E-02 3.2615E-03
   30.00000     .90000    1.10000 4.7978E-02 2.8289E-03
   30.00000    1.10000    1.30000 4.5488E-02 2.5968E-03
   30.00000    1.30000    1.50000 3.9560E-02 2.2393E-03
   30.00000    1.50000    1.70000 3.6137E-02 2.0178E-03
   30.00000    1.70000    1.90000 3.1118E-02 1.7302E-03
   30.00000    1.90000    2.10000 2.7251E-02 1.5502E-03
   30.00000    2.10000    2.30000 2.5184E-02 1.3905E-03
   30.00000    2.30000    2.50000 2.6799E-02 1.5667E-03
   30.00000    2.50000    2.70000 2.3993E-02 1.4471E-03
   30.00000    2.70000    2.90000 1.9291E-02 1.1093E-03
   30.00000    2.90000    3.10000 1.7909E-02 1.0842E-03
   30.00000    3.10000    3.30000 1.6309E-02 1.0338E-03
   30.00000    3.30000    3.50000 1.6948E-02 1.0998E-03
   30.00000    3.50000    3.70000 1.3660E-02 9.2007E-04
   30.00000    3.70000    3.90000 1.3800E-02 9.2709E-04
   30.00000    3.90000    4.10000 1.2657E-02 8.7017E-04
   30.00000    4.10000    4.30000 1.2341E-02 8.6491E-04
   30.00000    4.30000    4.50000 1.1685E-02 8.2817E-04
   30.00000    4.50000    4.70000 9.5937E-03 7.2294E-04
   30.00000    4.70000    4.90000 9.3052E-03 7.1300E-04
   30.00000    4.90000    5.10000 8.6791E-03 6.9123E-04
   30.00000    5.10000    5.30000 8.0985E-03 6.7676E-04
   30.00000    5.30000    5.50000 8.8987E-03 7.3820E-04
   30.00000    5.50000    5.70000 8.0405E-03 6.8435E-04
   30.00000    5.70000    5.90000 7.7451E-03 6.6742E-04
   30.00000    5.90000    6.10000 6.5664E-03 6.0492E-04
   30.00000    6.10000    6.30000 6.4654E-03 6.1114E-04
   30.00000    6.30000    6.50000 5.2933E-03 5.6482E-04
   30.00000    6.50000    6.70000 5.5253E-03 5.4447E-04
   30.00000    6.70000    6.90000 6.0762E-03 5.8917E-04
   30.00000    6.90000    7.10000 5.7805E-03 5.4795E-04
   30.00000    7.10000    7.30000 4.7681E-03 5.0394E-04
   30.00000    7.30000    7.50000 4.4699E-03 4.8426E-04
   30.00000    7.50000    7.70000 4.1064E-03 4.8442E-04
   30.00000    7.70000    7.90000 3.2655E-03 4.2189E-04
   30.00000    7.90000    8.10000 3.2579E-03 4.1312E-04
   30.00000    8.10000    8.30000 3.7480E-03 4.4872E-04
   30.00000    8.30000    8.50000 3.9458E-03 4.5142E-04
   30.00000    8.50000    8.70000 4.0667E-03 4.3883E-04
   30.00000    8.70000    8.90000 3.3058E-03 4.1655E-04
   30.00000    8.90000    9.10000 4.0967E-03 4.5945E-04
   30.00000    9.10000    9.30000 5.0336E-03 5.3011E-04
   30.00000    9.30000    9.50000 4.4970E-03 4.7543E-04
   30.00000    9.50000    9.70000 3.8143E-03 4.5472E-04
   30.00000    9.70000    9.90000 2.9871E-03 3.9620E-04
   30.00000    9.90000   10.10000 2.4419E-03 3.5949E-04
   30.00000   10.10000   10.30000 2.4883E-03 3.6121E-04
   30.00000   10.30000   10.50000 2.5707E-03 3.3678E-04
   30.00000   10.50000   10.70000 3.4605E-03 4.0459E-04
   30.00000   10.70000   10.90000 3.4970E-03 3.9842E-04
   30.00000   10.90000   11.10000 3.4744E-03 4.0872E-04
   30.00000   11.10000   11.30000 3.2965E-03 4.1977E-04
   30.00000   11.30000   11.50000 2.7031E-03 3.9774E-04
   30.00000   11.50000   11.70000 2.0504E-03 3.4284E-04
   30.00000   11.70000   11.90000 1.7197E-03 3.5207E-04
   30.00000   11.90000   12.10000 2.3489E-03 4.1020E-04
   30.00000   12.10000   12.30000 2.8885E-03 4.4925E-04
   30.00000   12.30000   12.50000 5.4329E-03 6.4789E-04
   30.00000   12.50000   12.70000 9.0862E-03 9.2133E-04
   30.00000   12.70000   12.90000 1.7104E-02 1.4934E-03
   30.00000   12.90000   13.10000 3.0200E-02 2.4577E-03
   30.00000   13.10000   13.30000 4.2830E-02 3.4462E-03
   30.00000   13.30000   13.50000 7.3707E-02 5.7827E-03
   30.00000   13.50000   13.70000 1.1838E-01 9.1924E-03
   30.00000   13.70000   13.90000 1.5998E-01 1.2366E-02
   30.00000   13.90000   14.10000 1.7331E-01 1.3392E-02
   30.00000   14.10000   14.30000 1.4924E-01 1.1607E-02
   30.00000   14.30000   14.50000 1.0186E-01 8.0212E-03
   30.00000   14.50000   14.70000 5.7091E-02 4.6143E-03
   30.00000   14.70000   14.90000 2.3202E-02 2.0200E-03
   30.00000   14.90000   15.10000 1.1014E-02 1.0741E-03
   30.00000   15.10000   15.30000 4.4755E-03 5.4112E-04
   30.00000   15.30000   15.50000 2.5172E-03 3.6948E-04
   30.00000   15.50000   15.70000 1.4240E-03 2.7018E-04
   30.00000   15.70000   15.90000 4.4333E-04 1.3720E-04
   37.50000     .70000     .90000 4.2724E-02 3.0644E-03
   37.50000     .90000    1.10000 4.4374E-02 2.6112E-03
   37.50000    1.10000    1.30000 4.3951E-02 2.4721E-03
   37.50000    1.30000    1.50000 3.9385E-02 2.1954E-03
   37.50000    1.50000    1.70000 3.4505E-02 1.9312E-03
   37.50000    1.70000    1.90000 3.0663E-02 1.7189E-03
   37.50000    1.90000    2.10000 2.8513E-02 1.6335E-03
   37.50000    2.10000    2.30000 2.5289E-02 1.4050E-03
   37.50000    2.30000    2.50000 2.5718E-02 1.4691E-03
   37.50000    2.50000    2.70000 2.2757E-02 1.3273E-03
   37.50000    2.70000    2.90000 1.8784E-02 1.0855E-03
   37.50000    2.90000    3.10000 1.6517E-02 1.0137E-03
   37.50000    3.10000    3.30000 1.5345E-02 9.7761E-04
   37.50000    3.30000    3.50000 1.4841E-02 9.7405E-04
   37.50000    3.50000    3.70000 1.2903E-02 8.6778E-04
   37.50000    3.70000    3.90000 1.2243E-02 8.4414E-04
   37.50000    3.90000    4.10000 1.1880E-02 8.3490E-04
   37.50000    4.10000    4.30000 1.1596E-02 8.2976E-04
   37.50000    4.30000    4.50000 1.0585E-02 7.9258E-04
   37.50000    4.50000    4.70000 9.1942E-03 7.2340E-04
   37.50000    4.70000    4.90000 9.2997E-03 7.3639E-04
   37.50000    4.90000    5.10000 8.3254E-03 6.7274E-04
   37.50000    5.10000    5.30000 7.4456E-03 6.3250E-04
   37.50000    5.30000    5.50000 7.9815E-03 6.6670E-04
   37.50000    5.50000    5.70000 7.3591E-03 6.4149E-04
   37.50000    5.70000    5.90000 7.3338E-03 6.5264E-04
   37.50000    5.90000    6.10000 6.8449E-03 6.2316E-04
   37.50000    6.10000    6.30000 5.8025E-03 5.8968E-04
   37.50000    6.30000    6.50000 6.5155E-03 6.3029E-04
   37.50000    6.50000    6.70000 5.4704E-03 5.7297E-04
   37.50000    6.70000    6.90000 5.0281E-03 5.3571E-04
   37.50000    6.90000    7.10000 4.7762E-03 5.0004E-04
   37.50000    7.10000    7.30000 4.1890E-03 4.8472E-04
   37.50000    7.30000    7.50000 4.8204E-03 5.1003E-04
   37.50000    7.50000    7.70000 4.2040E-03 4.8698E-04
   37.50000    7.70000    7.90000 3.1491E-03 4.0849E-04
   37.50000    7.90000    8.10000 2.8521E-03 3.7991E-04
   37.50000    8.10000    8.30000 3.1741E-03 3.9225E-04
   37.50000    8.30000    8.50000 3.5416E-03 3.9722E-04
   37.50000    8.50000    8.70000 3.3989E-03 3.8993E-04
   37.50000    8.70000    8.90000 3.4761E-03 4.0726E-04
   37.50000    8.90000    9.10000 3.9292E-03 4.5330E-04
   37.50000    9.10000    9.30000 3.9883E-03 4.8069E-04
   37.50000    9.30000    9.50000 4.7875E-03 5.1079E-04
   37.50000    9.50000    9.70000 4.3092E-03 4.7443E-04
   37.50000    9.70000    9.90000 3.8980E-03 4.5721E-04
   37.50000    9.90000   10.10000 2.5196E-03 3.6326E-04
   37.50000   10.10000   10.30000 2.4152E-03 3.3368E-04
   37.50000   10.30000   10.50000 2.3689E-03 3.4110E-04
   37.50000   10.50000   10.70000 2.6754E-03 3.7180E-04
   37.50000   10.70000   10.90000 3.2055E-03 4.0293E-04
   37.50000   10.90000   11.10000 2.6783E-03 4.0981E-04
   37.50000   11.10000   11.30000 1.9677E-03 3.3652E-04
   37.50000   11.30000   11.50000 1.7430E-03 3.3628E-04
   37.50000   11.50000   11.70000 1.3387E-03 2.9339E-04
   37.50000   11.70000   11.90000 1.0554E-03 2.7992E-04
   37.50000   11.90000   12.10000 1.6609E-03 3.2230E-04
   37.50000   12.10000   12.30000 1.4125E-03 3.0023E-04
   37.50000   12.30000   12.50000 2.2377E-03 3.8286E-04
   37.50000   12.50000   12.70000 4.1346E-03 5.4045E-04
   37.50000   12.70000   12.90000 8.8193E-03 8.7527E-04
   37.50000   12.90000   13.10000 1.5781E-02 1.3790E-03
   37.50000   13.10000   13.30000 1.9924E-02 1.6696E-03
   37.50000   13.30000   13.50000 2.2961E-02 1.9070E-03
   37.50000   13.50000   13.70000 3.2400E-02 2.5586E-03
   37.50000   13.70000   13.90000 4.9909E-02 3.7231E-03
   37.50000   13.90000   14.10000 6.3849E-02 4.6371E-03
   37.50000   14.10000   14.30000 5.7738E-02 4.1935E-03
   37.50000   14.30000   14.50000 3.9685E-02 2.9515E-03
   37.50000   14.50000   14.70000 1.9541E-02 1.5778E-03
   37.50000   14.70000   14.90000 1.1374E-02 1.0103E-03
   37.50000   14.90000   15.10000 6.0545E-03 6.4314E-04
   37.50000   15.10000   15.30000 3.8242E-03 4.7814E-04
   37.50000   15.30000   15.50000 2.6968E-03 3.8187E-04
   37.50000   15.50000   15.70000 1.8934E-03 2.9528E-04
   37.50000   15.70000   15.90000 8.1039E-04 1.9264E-04
   45.00000     .70000     .90000 4.1937E-02 2.8356E-03
   45.00000     .90000    1.10000 4.3483E-02 2.4778E-03
   45.00000    1.10000    1.30000 4.3492E-02 2.3929E-03
   45.00000    1.30000    1.50000 3.5431E-02 1.9602E-03
   45.00000    1.50000    1.70000 3.3859E-02 1.8598E-03
   45.00000    1.70000    1.90000 3.1013E-02 1.7209E-03
   45.00000    1.90000    2.10000 2.7955E-02 1.5897E-03
   45.00000    2.10000    2.30000 2.4347E-02 1.3394E-03
   45.00000    2.30000    2.50000 2.3593E-02 1.3091E-03
   45.00000    2.50000    2.70000 2.0998E-02 1.1693E-03
   45.00000    2.70000    2.90000 1.7678E-02 1.0313E-03
   45.00000    2.90000    3.10000 1.6462E-02 9.9904E-04
   45.00000    3.10000    3.30000 1.5963E-02 9.8873E-04
   45.00000    3.30000    3.50000 1.5209E-02 9.6807E-04
   45.00000    3.50000    3.70000 1.2806E-02 8.3404E-04
   45.00000    3.70000    3.90000 1.2429E-02 8.2052E-04
   45.00000    3.90000    4.10000 1.1433E-02 7.8298E-04
   45.00000    4.10000    4.30000 1.1022E-02 7.6735E-04
   45.00000    4.30000    4.50000 9.9098E-03 7.1848E-04
   45.00000    4.50000    4.70000 9.9524E-03 7.1699E-04
   45.00000    4.70000    4.90000 8.7965E-03 6.5593E-04
   45.00000    4.90000    5.10000 8.0684E-03 6.2141E-04
   45.00000    5.10000    5.30000 7.4364E-03 6.0110E-04
   45.00000    5.30000    5.50000 8.1739E-03 6.3803E-04
   45.00000    5.50000    5.70000 7.3001E-03 5.9174E-04
   45.00000    5.70000    5.90000 5.7949E-03 5.2592E-04
   45.00000    5.90000    6.10000 5.3041E-03 5.0315E-04
   45.00000    6.10000    6.30000 5.3697E-03 5.1663E-04
   45.00000    6.30000    6.50000 4.7997E-03 5.0235E-04
   45.00000    6.50000    6.70000 6.2199E-03 5.7467E-04
   45.00000    6.70000    6.90000 6.2205E-03 5.7642E-04
   45.00000    6.90000    7.10000 5.2342E-03 5.0730E-04
   45.00000    7.10000    7.30000 4.8717E-03 4.9700E-04
   45.00000    7.30000    7.50000 4.1542E-03 4.4443E-04
   45.00000    7.50000    7.70000 4.1516E-03 4.4115E-04
   45.00000    7.70000    7.90000 3.0096E-03 3.7326E-04
   45.00000    7.90000    8.10000 2.7593E-03 3.5049E-04
   45.00000    8.10000    8.30000 2.8661E-03 3.8418E-04
   45.00000    8.30000    8.50000 2.9888E-03 3.7650E-04
   45.00000    8.50000    8.70000 3.4462E-03 3.9936E-04
   45.00000    8.70000    8.90000 3.2670E-03 3.8003E-04
   45.00000    8.90000    9.10000 4.1955E-03 4.4851E-04
   45.00000    9.10000    9.30000 4.6173E-03 4.9713E-04
   45.00000    9.30000    9.50000 5.3655E-03 5.2801E-04
   45.00000    9.50000    9.70000 3.2624E-03 3.9795E-04
   45.00000    9.70000    9.90000 2.6806E-03 3.6496E-04
   45.00000    9.90000   10.10000 2.4345E-03 3.3168E-04
   45.00000   10.10000   10.30000 2.2875E-03 2.9740E-04
   45.00000   10.30000   10.50000 2.0088E-03 3.0088E-04
   45.00000   10.50000   10.70000 2.6946E-03 3.4072E-04
   45.00000   10.70000   10.90000 3.0307E-03 3.6360E-04
   45.00000   10.90000   11.10000 2.3528E-03 3.3735E-04
   45.00000   11.10000   11.30000 1.8347E-03 2.9246E-04
   45.00000   11.30000   11.50000 1.2472E-03 2.6694E-04
   45.00000   11.50000   11.70000 1.2879E-03 2.6700E-04
   45.00000   11.70000   11.90000 1.4727E-03 2.6473E-04
   45.00000   11.90000   12.10000 1.3498E-03 2.6943E-04
   45.00000   12.10000   12.30000 1.3831E-03 2.8099E-04
   45.00000   12.30000   12.50000 2.3260E-03 3.6619E-04
   45.00000   12.50000   12.70000 5.3286E-03 5.6622E-04
   45.00000   12.70000   12.90000 1.0331E-02 8.9957E-04
   45.00000   12.90000   13.10000 1.5009E-02 1.2369E-03
   45.00000   13.10000   13.30000 1.6135E-02 1.3379E-03
   45.00000   13.30000   13.50000 2.1672E-02 1.6536E-03
   45.00000   13.50000   13.70000 2.7786E-02 2.0233E-03
   45.00000   13.70000   13.90000 3.7838E-02 2.6150E-03
   45.00000   13.90000   14.10000 3.7070E-02 2.5449E-03
   45.00000   14.10000   14.30000 3.0972E-02 2.1319E-03
   45.00000   14.30000   14.50000 1.7376E-02 1.2721E-03
   45.00000   14.50000   14.70000 9.1863E-03 7.5203E-04
   45.00000   14.70000   14.90000 4.1566E-03 4.2652E-04
   45.00000   14.90000   15.10000 2.4335E-03 3.0456E-04
   45.00000   15.10000   15.30000 1.0682E-03 1.9039E-04
   45.00000   15.30000   15.50000 4.8541E-04 1.1792E-04
   45.00000   15.50000   15.70000 8.9342E-05 5.8641E-05
   45.00000   15.70000   15.90000 7.1611E-05 4.2246E-05
   60.00000     .70000     .90000 3.6367E-02 2.3934E-03
   60.00000     .90000    1.10000 3.8026E-02 2.1335E-03
   60.00000    1.10000    1.30000 3.9154E-02 2.1177E-03
   60.00000    1.30000    1.50000 3.1831E-02 1.7445E-03
   60.00000    1.50000    1.70000 3.0033E-02 1.6194E-03
   60.00000    1.70000    1.90000 2.6100E-02 1.4100E-03
   60.00000    1.90000    2.10000 2.3205E-02 1.2769E-03
   60.00000    2.10000    2.30000 2.1225E-02 1.1597E-03
   60.00000    2.30000    2.50000 2.1737E-02 1.1682E-03
   60.00000    2.50000    2.70000 2.0188E-02 1.0931E-03
   60.00000    2.70000    2.90000 1.6285E-02 9.3775E-04
   60.00000    2.90000    3.10000 1.4439E-02 8.5172E-04
   60.00000    3.10000    3.30000 1.4489E-02 8.6758E-04
   60.00000    3.30000    3.50000 1.2893E-02 8.0932E-04
   60.00000    3.50000    3.70000 1.1265E-02 7.3512E-04
   60.00000    3.70000    3.90000 1.0418E-02 7.0184E-04
   60.00000    3.90000    4.10000 1.0263E-02 7.0572E-04
   60.00000    4.10000    4.30000 9.4339E-03 6.5829E-04
   60.00000    4.30000    4.50000 8.9009E-03 6.2716E-04
   60.00000    4.50000    4.70000 8.6415E-03 6.1485E-04
   60.00000    4.70000    4.90000 7.7901E-03 5.7656E-04
   60.00000    4.90000    5.10000 7.2627E-03 5.5646E-04
   60.00000    5.10000    5.30000 7.1815E-03 5.3843E-04
   60.00000    5.30000    5.50000 6.2858E-03 4.9018E-04
   60.00000    5.50000    5.70000 5.9871E-03 4.7432E-04
   60.00000    5.70000    5.90000 5.6356E-03 4.5663E-04
   60.00000    5.90000    6.10000 5.1449E-03 4.3448E-04
   60.00000    6.10000    6.30000 4.6444E-03 4.0707E-04
   60.00000    6.30000    6.50000 4.7899E-03 4.2089E-04
   60.00000    6.50000    6.70000 4.3678E-03 4.1145E-04
   60.00000    6.70000    6.90000 3.9649E-03 3.9999E-04
   60.00000    6.90000    7.10000 4.6301E-03 4.2954E-04
   60.00000    7.10000    7.30000 4.2876E-03 4.0746E-04
   60.00000    7.30000    7.50000 3.3499E-03 3.6258E-04
   60.00000    7.50000    7.70000 3.6733E-03 3.8871E-04
   60.00000    7.70000    7.90000 2.7057E-03 3.2375E-04
   60.00000    7.90000    8.10000 2.5662E-03 3.2997E-04
   60.00000    8.10000    8.30000 2.6389E-03 3.3775E-04
   60.00000    8.30000    8.50000 2.8048E-03 3.4717E-04
   60.00000    8.50000    8.70000 3.3860E-03 3.6827E-04
   60.00000    8.70000    8.90000 3.1492E-03 3.6071E-04
   60.00000    8.90000    9.10000 4.2246E-03 4.4974E-04
   60.00000    9.10000    9.30000 5.0572E-03 5.0430E-04
   60.00000    9.30000    9.50000 4.5028E-03 4.8351E-04
   60.00000    9.50000    9.70000 3.8073E-03 4.4191E-04
   60.00000    9.70000    9.90000 2.5916E-03 4.0871E-04
   60.00000    9.90000   10.10000 1.8896E-03 3.9415E-04
   60.00000   10.10000   10.30000 1.7961E-03 3.7211E-04
   60.00000   10.30000   10.50000 1.4633E-03 3.6178E-04
   60.00000   10.50000   10.70000 2.4686E-03 4.0098E-04
   60.00000   10.70000   10.90000 1.7575E-03 4.1356E-04
   60.00000   10.90000   11.10000 2.9259E-03 4.4837E-04
   60.00000   11.10000   11.30000 1.9667E-03 4.1540E-04
   60.00000   11.30000   11.50000 1.3330E-03 3.9015E-04
   60.00000   11.50000   11.70000 1.0111E-03 3.6942E-04
   60.00000   11.70000   11.90000 1.0949E-03 3.7812E-04
   60.00000   11.90000   12.10000 1.0430E-03 3.6777E-04
   60.00000   12.10000   12.30000 9.2082E-04 3.5257E-04
   60.00000   12.30000   12.50000 1.8665E-03 3.7709E-04
   60.00000   12.50000   12.70000 3.4843E-03 4.3157E-04
   60.00000   12.70000   12.90000 5.0603E-03 4.9986E-04
   60.00000   12.90000   13.10000 7.2804E-03 6.0643E-04
   60.00000   13.10000   13.30000 8.2484E-03 6.5755E-04
   60.00000   13.30000   13.50000 1.0188E-02 7.4315E-04
   60.00000   13.50000   13.70000 1.5139E-02 1.0210E-03
   60.00000   13.70000   13.90000 2.0621E-02 1.3611E-03
   60.00000   13.90000   14.10000 2.0044E-02 1.3385E-03
   60.00000   14.10000   14.30000 1.5502E-02 1.0781E-03
   60.00000   14.30000   14.50000 1.0596E-02 8.0282E-04
   60.00000   14.50000   14.70000 6.0612E-03 5.6221E-04
   60.00000   14.70000   14.90000 3.5988E-03 4.3388E-04
   60.00000   14.90000   15.10000 1.6806E-03 3.5353E-04
   60.00000   15.10000   15.30000 1.2249E-03 3.1312E-04
   60.00000   15.30000   15.50000 5.3979E-04 2.5956E-04
   60.00000   15.50000   15.70000 1.6095E-04 1.4204E-04
   75.00000     .70000     .90000 3.5390E-02 2.3847E-03
   75.00000     .90000    1.10000 3.3799E-02 1.9469E-03
   75.00000    1.10000    1.30000 3.3194E-02 1.8418E-03
   75.00000    1.30000    1.50000 2.5964E-02 1.4828E-03
   75.00000    1.50000    1.70000 2.8262E-02 1.5340E-03
   75.00000    1.70000    1.90000 2.5662E-02 1.3950E-03
   75.00000    1.90000    2.10000 2.2575E-02 1.2510E-03
   75.00000    2.10000    2.30000 2.0001E-02 1.1086E-03
   75.00000    2.30000    2.50000 1.9157E-02 1.0546E-03
   75.00000    2.50000    2.70000 1.6971E-02 9.6136E-04
   75.00000    2.70000    2.90000 1.5607E-02 9.1868E-04
   75.00000    2.90000    3.10000 1.3441E-02 8.1928E-04
   75.00000    3.10000    3.30000 1.3019E-02 8.0743E-04
   75.00000    3.30000    3.50000 1.1883E-02 7.5934E-04
   75.00000    3.50000    3.70000 1.0761E-02 7.0104E-04
   75.00000    3.70000    3.90000 1.0619E-02 7.0730E-04
   75.00000    3.90000    4.10000 1.0002E-02 6.8802E-04
   75.00000    4.10000    4.30000 9.0978E-03 6.4816E-04
   75.00000    4.30000    4.50000 8.5457E-03 6.1506E-04
   75.00000    4.50000    4.70000 7.4073E-03 5.6318E-04
   75.00000    4.70000    4.90000 6.5752E-03 5.1784E-04
   75.00000    4.90000    5.10000 5.7310E-03 4.7919E-04
   75.00000    5.10000    5.30000 5.7931E-03 4.6660E-04
   75.00000    5.30000    5.50000 5.4841E-03 4.5224E-04
   75.00000    5.50000    5.70000 5.3886E-03 4.5894E-04
   75.00000    5.70000    5.90000 4.6623E-03 4.2679E-04
   75.00000    5.90000    6.10000 4.6118E-03 4.2950E-04
   75.00000    6.10000    6.30000 4.2554E-03 4.0987E-04
   75.00000    6.30000    6.50000 4.6579E-03 4.2430E-04
   75.00000    6.50000    6.70000 4.0701E-03 3.9398E-04
   75.00000    6.70000    6.90000 3.4979E-03 3.6936E-04
   75.00000    6.90000    7.10000 3.7901E-03 3.7615E-04
   75.00000    7.10000    7.30000 2.9010E-03 3.4174E-04
   75.00000    7.30000    7.50000 3.3212E-03 3.4748E-04
   75.00000    7.50000    7.70000 2.5971E-03 3.0981E-04
   75.00000    7.70000    7.90000 2.2425E-03 3.0368E-04
   75.00000    7.90000    8.10000 2.0298E-03 2.7843E-04
   75.00000    8.10000    8.30000 1.9706E-03 2.9202E-04
   75.00000    8.30000    8.50000 2.1110E-03 2.9685E-04
   75.00000    8.50000    8.70000 2.3436E-03 3.0686E-04
   75.00000    8.70000    8.90000 3.1634E-03 3.5149E-04
   75.00000    8.90000    9.10000 2.7334E-03 3.7201E-04
   75.00000    9.10000    9.30000 3.2998E-03 4.0662E-04
   75.00000    9.30000    9.50000 2.3278E-03 3.7688E-04
   75.00000    9.50000    9.70000 1.9109E-03 3.8820E-04
   75.00000    9.70000    9.90000 8.7338E-04 3.6001E-04
   75.00000    9.90000   10.10000 9.8198E-04 3.7636E-04
   75.00000   10.10000   10.30000 1.2121E-03 3.8758E-04
   75.00000   10.30000   10.50000 2.8597E-04 3.6594E-04
   75.00000   10.50000   10.70000 1.1066E-03 3.5942E-04
   75.00000   10.70000   10.90000 1.0658E-03 3.6778E-04
   75.00000   10.90000   11.10000 1.2855E-03 3.8289E-04
   75.00000   11.10000   11.30000 1.3441E-03 3.6888E-04
   75.00000   11.30000   11.50000 7.9914E-04 3.6465E-04
   75.00000   11.50000   11.70000 6.9060E-04 3.6597E-04
   75.00000   11.70000   11.90000 7.1695E-04 3.7242E-04
   75.00000   11.90000   12.10000 4.4466E-04 3.7123E-04
   75.00000   12.10000   12.30000 3.8155E-04 3.7882E-04
   75.00000   12.30000   12.50000 2.5439E-03 4.0465E-04
   75.00000   12.50000   12.70000 3.5177E-03 4.6175E-04
   75.00000   12.70000   12.90000 5.0489E-03 5.4153E-04
   75.00000   12.90000   13.10000 7.4486E-03 6.5949E-04
   75.00000   13.10000   13.30000 7.4946E-03 6.6061E-04
   75.00000   13.30000   13.50000 1.0619E-02 8.3307E-04
   75.00000   13.50000   13.70000 1.1015E-02 8.5616E-04
   75.00000   13.70000   13.90000 1.0620E-02 8.2529E-04
   75.00000   13.90000   14.10000 8.4199E-03 6.8894E-04
   75.00000   14.10000   14.30000 4.7227E-03 4.9034E-04
   75.00000   14.30000   14.50000 2.6683E-03 3.9702E-04
   75.00000   14.50000   14.70000 1.7607E-03 3.6138E-04
   75.00000   14.70000   14.90000 8.8540E-04 3.3181E-04
   75.00000   14.90000   15.30000 4.7067E-04 3.0964E-04
   75.00000   15.30000   15.70000 1.4314E-04 2.5995E-04
   90.00000     .70000     .90000 3.8336E-02 2.3645E-03
   90.00000     .90000    1.10000 3.8900E-02 2.1226E-03
   90.00000    1.10000    1.30000 3.6603E-02 1.9400E-03
   90.00000    1.30000    1.50000 3.1267E-02 1.6536E-03
   90.00000    1.50000    1.70000 2.8206E-02 1.4914E-03
   90.00000    1.70000    1.90000 2.4701E-02 1.3089E-03
   90.00000    1.90000    2.10000 2.1903E-02 1.1736E-03
   90.00000    2.10000    2.30000 2.0843E-02 1.1126E-03
   90.00000    2.30000    2.50000 1.9321E-02 1.0321E-03
   90.00000    2.50000    2.70000 1.7892E-02 9.7378E-04
   90.00000    2.70000    2.90000 1.5170E-02 8.4883E-04
   90.00000    2.90000    3.10000 1.3847E-02 7.8088E-04
   90.00000    3.10000    3.30000 1.2707E-02 7.2853E-04
   90.00000    3.30000    3.50000 1.2178E-02 7.1373E-04
   90.00000    3.50000    3.70000 1.0439E-02 6.3219E-04
   90.00000    3.70000    3.90000 1.0204E-02 6.2736E-04
   90.00000    3.90000    4.10000 9.6180E-03 6.0446E-04
   90.00000    4.10000    4.30000 9.2303E-03 5.9265E-04
   90.00000    4.30000    4.50000 8.9968E-03 5.8689E-04
   90.00000    4.50000    4.70000 7.9368E-03 5.2775E-04
   90.00000    4.70000    4.90000 6.8574E-03 4.7675E-04
   90.00000    4.90000    5.10000 6.4431E-03 4.6527E-04
   90.00000    5.10000    5.30000 6.1941E-03 4.5165E-04
   90.00000    5.30000    5.50000 5.2755E-03 4.0565E-04
   90.00000    5.50000    5.70000 4.9435E-03 3.8811E-04
   90.00000    5.70000    5.90000 4.7045E-03 3.6899E-04
   90.00000    5.90000    6.10000 4.4367E-03 3.5267E-04
   90.00000    6.10000    6.30000 3.9569E-03 3.4172E-04
   90.00000    6.30000    6.50000 3.3969E-03 3.1892E-04
   90.00000    6.50000    6.70000 3.5839E-03 3.3463E-04
   90.00000    6.70000    6.90000 3.1559E-03 3.1892E-04
   90.00000    6.90000    7.10000 3.1341E-03 3.0192E-04
   90.00000    7.10000    7.30000 2.5238E-03 2.7568E-04
   90.00000    7.30000    7.50000 2.4203E-03 2.6030E-04
   90.00000    7.50000    7.70000 2.1466E-03 2.4201E-04
   90.00000    7.70000    7.90000 2.0138E-03 2.4116E-04
   90.00000    7.90000    8.10000 2.0367E-03 2.4566E-04
   90.00000    8.10000    8.30000 1.9108E-03 2.3777E-04
   90.00000    8.30000    8.50000 2.1909E-03 2.5870E-04
   90.00000    8.50000    8.70000 2.3067E-03 2.7213E-04
   90.00000    8.70000    8.90000 2.0545E-03 2.6339E-04
   90.00000    8.90000    9.10000 2.4692E-03 2.8270E-04
   90.00000    9.10000    9.30000 2.3351E-03 2.7385E-04
   90.00000    9.30000    9.50000 2.0373E-03 2.6353E-04
   90.00000    9.50000    9.70000 1.4834E-03 2.4303E-04
   90.00000    9.70000    9.90000 1.2785E-03 2.3602E-04
   90.00000    9.90000   10.10000 1.4409E-03 2.4046E-04
   90.00000   10.10000   10.30000 1.6157E-03 2.6530E-04
   90.00000   10.30000   10.50000 1.4107E-03 2.7295E-04
   90.00000   10.50000   10.70000 1.4758E-03 2.6457E-04
   90.00000   10.70000   10.90000 1.0030E-03 2.6354E-04
   90.00000   10.90000   11.10000 1.1444E-03 2.6506E-04
   90.00000   11.10000   11.30000 5.7604E-04 2.6950E-04
   90.00000   11.30000   11.50000 4.9476E-04 2.7996E-04
   90.00000   11.50000   11.70000 1.0792E-03 2.9059E-04
   90.00000   11.70000   11.90000 5.1677E-04 2.6912E-04
   90.00000   11.90000   12.10000 1.2050E-03 2.8755E-04
   90.00000   12.10000   12.30000 1.3156E-03 2.9757E-04
   90.00000   12.30000   12.50000 2.7441E-03 3.6528E-04
   90.00000   12.50000   12.70000 4.2724E-03 4.4080E-04
   90.00000   12.70000   12.90000 6.2688E-03 5.5639E-04
   90.00000   12.90000   13.10000 8.1638E-03 6.6963E-04
   90.00000   13.10000   13.30000 1.3948E-02 1.0362E-03
   90.00000   13.30000   13.50000 2.0672E-02 1.4950E-03
   90.00000   13.50000   13.70000 2.3203E-02 1.6705E-03
   90.00000   13.70000   13.90000 1.9958E-02 1.4588E-03
   90.00000   13.90000   14.10000 1.2284E-02 9.5961E-04
   90.00000   14.10000   14.30000 7.1095E-03 6.3091E-04
   90.00000   14.30000   14.50000 4.6386E-03 4.8665E-04
   90.00000   14.50000   14.70000 1.9365E-03 3.5218E-04
   90.00000   14.70000   14.90000 1.5103E-03 3.2244E-04
   90.00000   14.90000   15.10000 8.5278E-04 3.0840E-04
   90.00000   15.10000   15.30000 1.4051E-03 3.0655E-04
   90.00000   15.30000   15.50000 9.4438E-04 2.7424E-04
  120.00000     .70000     .90000 3.5595E-02 2.2802E-03
  120.00000     .90000    1.10000 3.5751E-02 1.9878E-03
  120.00000    1.10000    1.30000 3.2930E-02 1.7731E-03
  120.00000    1.30000    1.50000 2.8162E-02 1.5065E-03
  120.00000    1.50000    1.70000 2.6613E-02 1.4127E-03
  120.00000    1.70000    1.90000 2.2656E-02 1.2116E-03
  120.00000    1.90000    2.10000 2.1173E-02 1.1397E-03
  120.00000    2.10000    2.30000 2.0096E-02 1.0760E-03
  120.00000    2.30000    2.50000 1.7132E-02 9.4081E-04
  120.00000    2.50000    2.70000 1.6363E-02 9.0055E-04
  120.00000    2.70000    2.90000 1.3272E-02 7.5738E-04
  120.00000    2.90000    3.10000 1.3100E-02 7.5149E-04
  120.00000    3.10000    3.30000 1.1786E-02 6.9973E-04
  120.00000    3.30000    3.50000 1.1212E-02 6.7233E-04
  120.00000    3.50000    3.70000 9.8061E-03 5.9829E-04
  120.00000    3.70000    3.90000 8.6827E-03 5.4948E-04
  120.00000    3.90000    4.10000 8.7065E-03 5.5295E-04
  120.00000    4.10000    4.30000 8.0457E-03 5.2519E-04
  120.00000    4.30000    4.50000 6.9055E-03 4.7826E-04
  120.00000    4.50000    4.70000 6.6282E-03 4.7440E-04
  120.00000    4.70000    4.90000 6.8548E-03 4.8900E-04
  120.00000    4.90000    5.10000 5.9298E-03 4.4554E-04
  120.00000    5.10000    5.30000 4.7669E-03 3.7451E-04
  120.00000    5.30000    5.50000 4.6372E-03 3.7604E-04
  120.00000    5.50000    5.70000 5.2529E-03 3.9934E-04
  120.00000    5.70000    5.90000 3.9592E-03 3.2666E-04
  120.00000    5.90000    6.10000 3.6033E-03 3.1936E-04
  120.00000    6.10000    6.30000 3.2265E-03 3.0494E-04
  120.00000    6.30000    6.50000 3.5230E-03 3.1019E-04
  120.00000    6.50000    6.70000 3.2363E-03 3.0213E-04
  120.00000    6.70000    6.90000 2.9224E-03 2.9036E-04
  120.00000    6.90000    7.10000 2.1560E-03 2.5136E-04
  120.00000    7.10000    7.30000 2.2475E-03 2.5643E-04
  120.00000    7.30000    7.50000 1.8033E-03 2.5377E-04
  120.00000    7.50000    7.70000 1.9809E-03 2.5530E-04
  120.00000    7.70000    7.90000 1.6590E-03 2.3587E-04
  120.00000    7.90000    8.10000 1.7049E-03 2.4665E-04
  120.00000    8.10000    8.30000 1.6740E-03 2.4056E-04
  120.00000    8.30000    8.50000 1.7417E-03 2.4062E-04
  120.00000    8.50000    8.70000 1.5582E-03 2.4320E-04
  120.00000    8.70000    8.90000 2.3203E-03 2.8159E-04
  120.00000    8.90000    9.10000 2.2792E-03 2.6582E-04
  120.00000    9.10000    9.30000 1.8671E-03 2.4357E-04
  120.00000    9.30000    9.50000 1.5725E-03 2.4820E-04
  120.00000    9.50000    9.70000 7.5548E-04 2.3063E-04
  120.00000    9.70000    9.90000 7.7177E-04 2.3257E-04
  120.00000    9.90000   10.10000 1.0854E-03 2.4704E-04
  120.00000   10.10000   10.30000 6.9942E-04 2.2813E-04
  120.00000   10.30000   10.50000 1.1042E-03 2.4906E-04
  120.00000   10.50000   10.70000 5.7664E-04 2.3325E-04
  120.00000   10.70000   10.90000 2.8907E-04 2.3796E-04
  120.00000   10.90000   11.10000 6.9059E-04 2.4589E-04
  120.00000   11.10000   11.30000 1.8665E-04 2.5688E-04
  120.00000   11.30000   11.50000 5.7886E-05 2.4836E-04
  120.00000   11.50000   11.70000 4.0384E-04 2.5517E-04
  120.00000   11.70000   11.90000 3.1480E-04 2.1895E-04
  120.00000   11.90000   12.10000 1.0540E-03 2.4145E-04
  120.00000   12.10000   12.30000 1.9041E-03 2.7007E-04
  120.00000   12.30000   12.50000 3.2712E-03 3.4184E-04
  120.00000   12.50000   12.70000 3.2613E-03 3.4851E-04
  120.00000   12.70000   12.90000 3.8779E-03 3.8395E-04
  120.00000   12.90000   13.10000 5.0076E-03 4.4608E-04
  120.00000   13.10000   13.30000 6.7428E-03 5.2814E-04
  120.00000   13.30000   13.50000 6.7878E-03 5.2868E-04
  120.00000   13.50000   13.70000 5.2046E-03 4.4334E-04
  120.00000   13.70000   13.90000 2.6057E-03 3.0973E-04
  120.00000   13.90000   14.10000 1.5252E-03 2.6291E-04
  120.00000   14.10000   14.30000 9.3917E-04 2.2553E-04
  120.00000   14.30000   14.50000 2.1965E-04 2.0926E-04
  120.00000   14.50000   14.70000 3.4145E-04 2.1623E-04
  120.00000   14.70000   14.90000 9.3138E-05 2.1931E-04
  150.00000     .70000     .90000 4.2255E-02 2.5481E-03
  150.00000     .90000    1.10000 3.5982E-02 1.9934E-03
  150.00000    1.10000    1.30000 3.5942E-02 1.9223E-03
  150.00000    1.30000    1.50000 3.0038E-02 1.6095E-03
  150.00000    1.50000    1.70000 2.7478E-02 1.4594E-03
  150.00000    1.70000    1.90000 2.4513E-02 1.3033E-03
  150.00000    1.90000    2.10000 2.0793E-02 1.1194E-03
  150.00000    2.10000    2.30000 1.9884E-02 1.0622E-03
  150.00000    2.30000    2.50000 1.7314E-02 9.6326E-04
  150.00000    2.50000    2.70000 1.5389E-02 8.4409E-04
  150.00000    2.70000    2.90000 1.3480E-02 7.5658E-04
  150.00000    2.90000    3.10000 1.3891E-02 8.0708E-04
  150.00000    3.10000    3.30000 1.2905E-02 7.7822E-04
  150.00000    3.30000    3.50000 1.1030E-02 6.7268E-04
  150.00000    3.50000    3.70000 9.6452E-03 5.9438E-04
  150.00000    3.70000    3.90000 9.8177E-03 6.1758E-04
  150.00000    3.90000    4.10000 8.5331E-03 5.5976E-04
  150.00000    4.10000    4.30000 7.7237E-03 5.1684E-04
  150.00000    4.30000    4.50000 7.5074E-03 5.0372E-04
  150.00000    4.50000    4.70000 6.6721E-03 4.6195E-04
  150.00000    4.70000    4.90000 5.9210E-03 4.2310E-04
  150.00000    4.90000    5.10000 5.6185E-03 4.1275E-04
  150.00000    5.10000    5.30000 5.4559E-03 3.9798E-04
  150.00000    5.30000    5.50000 4.6458E-03 3.6442E-04
  150.00000    5.50000    5.70000 4.4473E-03 3.5708E-04
  150.00000    5.70000    5.90000 4.1626E-03 3.4161E-04
  150.00000    5.90000    6.10000 3.8515E-03 3.2790E-04
  150.00000    6.10000    6.30000 3.0012E-03 2.9430E-04
  150.00000    6.30000    6.50000 3.5262E-03 3.1685E-04
  150.00000    6.50000    6.70000 3.2416E-03 3.1057E-04
  150.00000    6.70000    6.90000 2.8477E-03 2.9037E-04
  150.00000    6.90000    7.10000 2.6897E-03 2.7435E-04
  150.00000    7.10000    7.30000 2.5560E-03 2.6749E-04
  150.00000    7.30000    7.50000 1.8552E-03 2.3320E-04
  150.00000    7.50000    7.70000 1.9158E-03 2.3845E-04
  150.00000    7.70000    7.90000 1.6793E-03 2.3573E-04
  150.00000    7.90000    8.10000 1.9198E-03 2.4248E-04
  150.00000    8.10000    8.30000 2.1504E-03 2.6710E-04
  150.00000    8.30000    8.50000 1.7683E-03 2.5192E-04
  150.00000    8.50000    8.70000 2.5004E-03 2.7290E-04
  150.00000    8.70000    8.90000 1.8008E-03 2.3833E-04
  150.00000    8.90000    9.10000 1.2437E-03 2.1491E-04
  150.00000    9.10000    9.30000 1.1477E-03 2.1078E-04
  150.00000    9.30000    9.50000 1.1998E-03 2.0076E-04
  150.00000    9.50000    9.70000 8.9901E-04 2.0115E-04
  150.00000    9.70000    9.90000 1.1008E-03 2.1611E-04
  150.00000    9.90000   10.10000 1.1487E-03 2.0532E-04
  150.00000   10.10000   10.30000 1.1827E-03 2.2253E-04
  150.00000   10.30000   10.50000 1.3108E-03 2.3565E-04
  150.00000   10.50000   10.70000 1.0457E-03 2.2864E-04
  150.00000   10.70000   10.90000 4.2723E-04 2.2280E-04
  150.00000   10.90000   11.10000 5.8408E-04 2.0238E-04
  150.00000   11.10000   11.30000 7.3513E-04 2.0333E-04
  150.00000   11.30000   11.50000 9.7680E-04 2.0826E-04
  150.00000   11.50000   11.70000 9.1355E-04 2.1032E-04
  150.00000   11.70000   11.90000 1.7649E-03 2.4936E-04
  150.00000   11.90000   12.10000 2.9177E-03 3.2078E-04
  150.00000   12.10000   12.30000 4.5922E-03 4.2931E-04
  150.00000   12.30000   12.50000 5.7555E-03 4.9692E-04
  150.00000   12.50000   12.70000 5.6949E-03 4.9405E-04
  150.00000   12.70000   12.90000 8.7001E-03 6.8281E-04
  150.00000   12.90000   13.10000 1.1234E-02 8.5928E-04
  150.00000   13.10000   13.30000 1.0730E-02 8.2019E-04
  150.00000   13.30000   13.50000 7.4776E-03 6.0437E-04
  150.00000   13.50000   13.70000 3.3976E-03 3.5662E-04
  150.00000   13.70000   13.90000 1.7690E-03 2.5608E-04
  150.00000   13.90000   14.10000 8.6517E-04 2.1088E-04
  150.00000   14.10000   14.30000 7.4001E-04 1.9293E-04
  150.00000   14.30000   14.50000 4.7059E-04 2.0211E-04
  150.00000   14.50000   14.70000 2.7164E-04 2.1408E-04
  150.00000   14.70000   14.90000 4.8250E-05 2.1829E-04
  150.00000   14.90000   15.10000 1.7858E-04 2.5607E-04
ENDDATA            595
ENDSUBENT          602
SUBENT        22362003   20030529   20031222
BIB                  1          1
REACTION   (26-FE-0(N,X)0-NN-1,,DE)
ENDBIB               1
NOCOMMON             0          0
DATA                 4         73
E-CM-MIN   E-CM-MAX   DATA-CM    DATA-ERR
MEV        MEV        B/MEV      B/MEV
     .90000    1.10000 4.8767E-01 2.6812E-02
    1.10000    1.30000 4.5555E-01 2.4487E-02
    1.30000    1.50000 3.9987E-01 2.1877E-02
    1.50000    1.70000 3.6346E-01 1.8643E-02
    1.70000    1.90000 3.2419E-01 1.6932E-02
    1.90000    2.10000 2.8926E-01 1.4883E-02
    2.10000    2.30000 2.7253E-01 1.3812E-02
    2.30000    2.50000 2.5249E-01 1.2948E-02
    2.50000    2.70000 2.2166E-01 1.1432E-02
    2.70000    2.90000 1.9566E-01 9.8821E-03
    2.90000    3.10000 1.7771E-01 9.1417E-03
    3.10000    3.30000 1.7020E-01 8.7179E-03
    3.30000    3.50000 1.5351E-01 7.9917E-03
    3.50000    3.70000 1.4059E-01 7.1960E-03
    3.70000    3.90000 1.3013E-01 6.7284E-03
    3.90000    4.10000 1.2334E-01 6.5519E-03
    4.10000    4.30000 1.1549E-01 6.0115E-03
    4.30000    4.50000 1.0627E-01 5.7894E-03
    4.50000    4.70000 9.6942E-02 5.3269E-03
    4.70000    4.90000 8.9072E-02 4.7135E-03
    4.90000    5.10000 8.4405E-02 4.7157E-03
    5.10000    5.30000 8.0059E-02 4.3504E-03
    5.30000    5.50000 7.2137E-02 3.7246E-03
    5.50000    5.70000 6.7728E-02 3.6538E-03
    5.70000    5.90000 6.4312E-02 3.4135E-03
    5.90000    6.10000 5.7745E-02 3.0628E-03
    6.10000    6.30000 5.4373E-02 3.0085E-03
    6.30000    6.50000 5.1509E-02 3.1519E-03
    6.50000    6.70000 5.0528E-02 3.1573E-03
    6.70000    6.90000 4.7383E-02 2.7349E-03
    6.90000    7.10000 4.3855E-02 2.3893E-03
    7.10000    7.30000 3.7963E-02 2.0073E-03
    7.30000    7.50000 3.5834E-02 1.8986E-03
    7.50000    7.70000 2.9903E-02 1.5398E-03
    7.70000    7.90000 2.8780E-02 1.5376E-03
    7.90000    8.10000 2.8343E-02 1.6244E-03
    8.10000    8.30000 2.8744E-02 1.5547E-03
    8.30000    8.50000 3.0051E-02 1.8517E-03
    8.50000    8.70000 3.2317E-02 1.6255E-03
    8.70000    8.90000 3.3953E-02 2.1704E-03
    8.90000    9.10000 3.9040E-02 2.9868E-03
    9.10000    9.30000 3.5863E-02 2.8717E-03
    9.30000    9.50000 2.8855E-02 2.7502E-03
    9.50000    9.70000 2.2532E-02 1.9740E-03
    9.70000    9.90000 1.7793E-02 1.5009E-03
    9.90000   10.10000 1.7708E-02 1.3555E-03
   10.10000   10.30000 1.9460E-02 1.9852E-03
   10.30000   10.50000 1.9668E-02 2.1795E-03
   10.50000   10.70000 2.0838E-02 1.5433E-03
   10.70000   10.90000 1.7422E-02 2.3379E-03
   10.90000   11.10000 1.4231E-02 2.1211E-03
   11.10000   11.30000 1.1332E-02 1.2104E-03
   11.30000   11.50000 9.0556E-03 1.0450E-03
   11.50000   11.70000 1.0492E-02 1.7982E-03
   11.70000   11.90000 1.0608E-02 1.6523E-03
   11.90000   12.10000 1.3753E-02 3.3598E-03
   12.10000   12.30000 2.7407E-02 4.0944E-03
   12.30000   12.50000 5.2028E-02 6.8987E-03
   12.50000   12.70000 8.2260E-02 1.1371E-02
   12.70000   12.90000 1.0181E-01 1.6108E-02
   12.90000   13.10000 1.1784E-01 2.2927E-02
   13.10000   13.30000 1.4951E-01 3.2793E-02
   13.30000   13.50000 2.0428E-01 4.1644E-02
   13.50000   13.70000 2.3315E-01 4.4625E-02
   13.70000   13.90000 2.0507E-01 3.8652E-02
   13.90000   14.10000 1.3558E-01 2.6127E-02
   14.10000   14.30000 7.7528E-02 1.5909E-02
   14.30000   14.50000 4.2658E-02 9.6292E-03
   14.50000   14.70000 2.3009E-02 5.3613E-03
   14.70000   14.90000 1.2689E-02 3.7429E-03
   14.90000   15.10000 6.3512E-03 3.0770E-03
   15.10000   15.30000 1.5206E-03 2.3024E-03
   15.30000   15.50000 5.0134E-03 3.0052E-03
ENDDATA             75
ENDSUBENT           81
ENDENTRY             3
