ENTRY            22370   19990604   19991117
SUBENT        22370001   19990604   19991117
BIB                 11         29
TITLE       APPLICATION OF 'BGO' SCINTILLATORS TO ABSOLUTE
            MEASUREMENTS OF NEUTRON CAPTURE CROSS-SECTIONS
            BETWEEN 0.01 EV AND 10 EV
AUTHOR     (S.YAMAMOTO,K.KOBAYASHI,Y.FUJITA)
INSTITUTE  (2JPNKTO)
REFERENCE  (J,NST,33,(11),815,199611) MAIN REFERENCE,DATA ARE
           GIVEN
FACILITY   (LINAC)  46-MEV ELECTRON LINEAR ACCELERATOR AT THE
             RESEARCH REACTOR INSTITUTE, KYOTO UNIVERSITY - KURRI
METHOD     (TOF)
DETECTOR   (SCIN)  BISMUTH GERMANATE (BI4-GE3-O12) SCINTILLATOR,
                   DENSITY 7.13 GRAM/CM2
MONITOR    (62-SM-0(N,G),,SIG)   FOR THERMAL NEUTRON FLUX
                                 MONITORING
           (5-B-10(N,A)3-LI-7,,SIG)   FOR NEUTRON FLUX MONITORING
            AT ENERGIES FROM 0.1 TO 10 EV
SAMPLE     .SAMARIUM SAMPLE WAS METALLIC PLATE OF 1.8*1.8 CM2 AND
            0.5 MM THICK, PURITY 99.8 PC.
           .BORON-10 POWDER IN THIN ALUMINIUM CASE 0.2 MM IN
            THICKNESS SAMPLE THICKNESS IS 1.102 GRAM/CM2,
            ENRICHMENT OF B-10 SAMPLE IS 90.4 PC
INC-SOURCE (PHOTO) FAST NEUTRONS WERE PRODUCED IN A WATER-COOLED
               TANTALUM TARGET 5 CM IN DIAMETER AND 6.1 CM LONG
              .FAST NEUTRONS WERE MODERATED IN AN OCTAGONAL WATER
               TANK 30 CM IN DIAMETER AND 10 CM THICK PLACED
               BESIDE THE TARGET. LINAC OPERATED WITH 50 HZ REPE-
               TITION RATE, PULSE WIDTH 3 MICROSEC
HISTORY    (19980128C)  + +  COMPILED BY S.MAEV  + +
           (19990604A) DATE is corrected
ENDBIB              29
NOCOMMON             0          0
ENDSUBENT           32
SUBENT        22370002   19990604   19991117
BIB                  3          5
REACTION   (79-AU-197(N,G)79-AU-198,,SIG,,AV) AVERAGED OVER
                      ENERGY INTERVAL GIVEN IN DATA SECTION
SAMPLE      .METALLIC PLATE 1.8*1.8 CM2, THICKNESS 0.716 G/CM2,
             PURITY 99.999 PC
STATUS     (TABLE) DATA ARE TAKEN FROM TABLE 1 OF MAIN REFERENCE
ENDBIB               5
NOCOMMON             0          0
DATA                 4         10
EN-MIN     EN-MAX     DATA       ERR-T
EV         EV         B          B
  0.0134    0.0213    117.7       2.9
  0.0213    0.0338     94.1       2.3
  0.0338    0.0538     75.7       1.8
  0.0538    0.0855     61.2       1.5
  0.0855    0.136      49.4       1.2
  0.136     0.217      40.3       1.0
  0.217     0.347      33.4       0.8
  0.347     0.554      28.3       0.7
  0.554     0.886      25.3       0.7
  0.886     1.438      24.7       0.6
ENDDATA             12
ENDSUBENT           22
SUBENT        22370003   19990604   19991117
BIB                  3          6
REACTION   (51-SB-0(N,G),,SIG,,AV)  AVERAGED OVER ENERGY INTERVAL
                                    GIVEN IN DATA SECTION
SAMPLE     .FINE POWDER PACKED IN ALUMINIUM CASE 1.8*1.8 CM2 AND
            5 MM THICK. PURITY IS 99.9 PC, SAMPLE THICKNESS IS
            I.843 GRAM/CM2
STATUS     (TABLE) DATA ARE TAKEN FROM TABLE 2 OF MAIN REFERENCE
ENDBIB               6
NOCOMMON             0          0
DATA                 4         11
EN-MIN     EN-MAX     DATA       ERR-T
EV         EV         B          B
  0.0134    0.0213     6.31        0.18
  0.0213    0.0338     5.00        0.13
  0.0338    0.0538     4.05        0.10
  0.0538    0.0855     3.30        0.08
  0.0855    0.136      2.64        0.07
  0.136     0.217      2.10        0.06
  0.217     0.347      1.67        0.05
  0.347     0.554      1.34        0.05
  0.554     0.886      1.14        0.04
  0.886     1.438      0.98        0.03
  1.438     2.344      0.95        0.03
ENDDATA             13
ENDSUBENT           24
SUBENT        22370004   19990604   19991117
BIB                  3          5
REACTION   (79-AU-197(N,G)79-AU-198,,SIG)
SAMPLE      .METALLIC PLATE 1.8*1.8 CM2, THICKNESS 0.716 G/CM2,
             PURITY 99.999 PC
STATUS     (APRVD) DATA ARE OBTAINED FROM THE AUTHOR -
                   YAMAMOTO, 980128
ENDBIB               5
NOCOMMON             0          0
DATA                 3         54
EN         DATA       ERR-T
EV         B          B
 1.3380E-02 1.3346E+02 3.3168E+00
 1.5030E-02 1.2539E+02 3.1009E+00
 1.6860E-02 1.1805E+02 2.9068E+00
 1.8930E-02 1.1212E+02 2.7514E+00
 2.1260E-02 1.0571E+02 2.5882E+00
 2.3870E-02 1.0055E+02 2.4574E+00
 2.6790E-02 9.4746E+01 2.3124E+00
 3.0090E-02 8.9488E+01 2.1816E+00
 3.3780E-02 8.4399E+01 2.0561E+00
 3.7910E-02 7.9892E+01 1.9450E+00
 4.2570E-02 7.6398E+01 1.8589E+00
 4.7840E-02 7.2409E+01 1.7613E+00
 5.3760E-02 6.8747E+01 1.6719E+00
 6.0390E-02 6.4759E+01 1.5750E+00
 6.7790E-02 6.1532E+01 1.4967E+00
 7.6100E-02 5.8330E+01 1.4192E+00
 8.5480E-02 5.5230E+01 1.3443E+00
 9.6050E-02 5.2474E+01 1.2782E+00
 1.0790E-01 4.9638E+01 1.2104E+00
 1.2130E-01 4.7139E+01 1.1516E+00
 1.3610E-01 4.4631E+01 1.0930E+00
 1.5280E-01 4.2679E+01 1.0486E+00
 1.7150E-01 4.0466E+01 9.9906E-01
 1.9280E-01 3.8825E+01 9.6365E-01
 2.1700E-01 3.6460E+01 9.1185E-01
 2.4390E-01 3.5160E+01 8.8475E-01
 2.7430E-01 3.3382E+01 8.4403E-01
 3.0840E-01 3.2347E+01 8.2129E-01
 3.4670E-01 3.0621E+01 7.8025E-01
 3.9050E-01 2.9943E+01 7.6299E-01
 4.3930E-01 2.8161E+01 7.2217E-01
 4.9320E-01 2.7181E+01 6.9809E-01
 5.5410E-01 2.6500E+01 6.8208E-01
 6.2280E-01 2.5924E+01 6.6813E-01
 6.9990E-01 2.5143E+01 6.4955E-01
 7.8620E-01 2.4912E+01 6.4391E-01
 8.8590E-01 2.4319E+01 6.2649E-01
 1.0010E+00 2.3999E+01 6.1878E-01
 1.1300E+00 2.4378E+01 6.2751E-01
 1.2740E+00 2.5211E+01 6.4762E-01
 1.4380E+00 2.5472E+01 6.5122E-01
 1.6280E+00 2.7004E+01 6.8862E-01
 1.8360E+00 2.8912E+01 7.3507E-01
 2.0730E+00 3.2729E+01 8.2460E-01
 2.3440E+00 3.8119E+01 9.5601E-01
 2.6530E+00 4.5917E+01 1.1426E+00
 3.0040E+00 6.1539E+01 1.5231E+00
 3.4030E+00 9.5473E+01 2.3457E+00
 3.8530E+00 1.9358E+02 4.7334E+00
 4.3590E+00 7.4330E+02 1.8104E+01
 5.5480E+00 4.4072E+02 1.0747E+01
 6.3010E+00 8.2384E+01 2.0271E+00
 7.1300E+00 3.0642E+01 7.7545E-01
 8.0390E+00 1.5323E+01 4.0520E-01
ENDDATA             56
ENDSUBENT           66
SUBENT        22370005   19990604   19991117
BIB                  3          6
REACTION   (51-SB-0(N,G),,SIG)
SAMPLE     .FINE POWDER PACKED IN ALUMINIUM CASE 1.8*1.8 CM2 AND
            5 MM THICK. PURITY IS 99.9 PC, SAMPLE THICKNESS IS
            I.843 GRAM/CM2
STATUS     (APRVD) DATA ARE OBTAINED FROM THE AUTHOR -
                   YAMAMOTO, 980128
ENDBIB               6
NOCOMMON             0          0
DATA                 3         55
EN         DATA       ERR-T
EV         B          B
 1.3380E-02 7.0941E+00 2.0851E-01
 1.5030E-02 6.7201E+00 1.9115E-01
 1.6860E-02 6.4127E+00 1.7707E-01
 1.8930E-02 5.9675E+00 1.6065E-01
 2.1260E-02 5.6048E+00 1.4832E-01
 2.3870E-02 5.2872E+00 1.3794E-01
 2.6790E-02 5.0296E+00 1.2985E-01
 3.0090E-02 4.7663E+00 1.2192E-01
 3.3780E-02 4.5459E+00 1.1560E-01
 3.7910E-02 4.3030E+00 1.0885E-01
 4.2570E-02 4.0521E+00 1.0201E-01
 4.7840E-02 3.8623E+00 9.7007E-02
 5.3760E-02 3.6634E+00 9.1835E-02
 6.0390E-02 3.4905E+00 8.7539E-02
 6.7790E-02 3.3233E+00 8.3419E-02
 7.6100E-02 3.1662E+00 7.9666E-02
 8.5480E-02 2.9538E+00 7.4570E-02
 9.6050E-02 2.8668E+00 7.2869E-02
 1.0790E-01 2.6430E+00 6.7776E-02
 1.2130E-01 2.5063E+00 6.5204E-02
 1.3610E-01 2.3470E+00 6.2229E-02
 1.5280E-01 2.2374E+00 6.0822E-02
 1.7150E-01 2.1232E+00 5.9724E-02
 1.9280E-01 1.9955E+00 5.8175E-02
 2.1700E-01 1.8961E+00 5.7969E-02
 2.4390E-01 1.7356E+00 5.4995E-02
 2.7430E-01 1.6475E+00 5.3606E-02
 3.0840E-01 1.6339E+00 5.4364E-02
 3.4670E-01 1.5085E+00 5.1132E-02
 3.9050E-01 1.4012E+00 4.7497E-02
 4.3930E-01 1.3141E+00 4.5976E-02
 4.9320E-01 1.2972E+00 4.5720E-02
 5.5410E-01 1.2271E+00 4.3698E-02
 6.2280E-01 1.2192E+00 4.2443E-02
 6.9990E-01 1.1718E+00 4.2443E-02
 7.8620E-01 1.0788E+00 3.9165E-02
 8.8590E-01 1.0533E+00 3.7653E-02
 1.0010E+00 9.9971E-01 3.5885E-02
 1.1300E+00 9.6118E-01 3.4233E-02
 1.2740E+00 9.6163E-01 3.3920E-02
 1.4380E+00 9.4671E-01 3.2632E-02
 1.6280E+00 9.3824E-01 3.1927E-02
 1.8360E+00 9.3993E-01 3.1496E-02
 2.0730E+00 9.4513E-01 3.0162E-02
 2.3440E+00 9.9417E-01 3.0902E-02
 2.6530E+00 1.0509E+00 3.1150E-02
 3.0040E+00 1.2034E+00 3.4440E-02
 3.4030E+00 1.4396E+00 3.9057E-02
 3.8530E+00 1.7922E+00 4.6952E-02
 4.3590E+00 2.6173E+00 6.6452E-02
 4.9230E+00 4.9449E+00 1.2755E-01
 5.5480E+00 2.5199E+01 6.4592E-01
 6.3010E+00 1.4487E+02 3.9782E+00
 7.1300E+00 7.5156E+00 2.4574E-01
 8.0390E+00 2.2035E+00 8.8106E-02
ENDDATA             57
ENDSUBENT           68
ENDENTRY             5
