ENTRY            22384   19990527   19991117
SUBENT        22384001   19990527   19991117
BIB                 11         19
TITLE       RADIATIVE STRENGTH IN THE COMPOUND NUCLEUS 157-GD
AUTHOR     (J.KOPECKY,M.UHL,R.E.CHRIEN)
INSTITUTE  (2NEDRCN)  KOPECKY
           (2AUSIRK)  UHL
           (1USABNL)  CHRIEN
REFERENCE  (J,PR/C,47,(1),312,199301)  MAIN REFERENCE, DATA GIVEN
           (J,NP/A,468,285,1987)  .EXPERIMENTAL AND DATA ANALYSIS
                                 DETAILS
FACILITY   (REAC,1USABNL)  FILTERED BEAM FACILITY AT THE
                           BROOKHAVEN HIGH-FLUX REACTOR
INC-SOURCE (REAC)
INC-SPECT   2 KEV AND 24 KEV AVERAGED ENERGY BEAMS PRODUCED BY
            TRANSMISSION OF REACTOR NEUTRONS THROUGH SCANDIUM
            AND IRON FILTERS
MONITOR    (17-CL-0(N,G),,SPC)
SAMPLE      93.58 PC ENRICHED GD-156 SAMPLE, WEIGHT 57 GRAM
HISTORY    (19980524C)  COMPILED BY S.MAEV  + +
           (19990527A) DATE is corrected
ERR-ANALYS (DATA-ERR)  ERRORS ARE NOT SPECIFIED
ENDBIB              19
NOCOMMON             0          0
ENDSUBENT           22
SUBENT        22384002   19990527   19991117
BIB                  1          2
REACTION   (64-GD-156(N,G)64-GD-157,,SPC,,REL) IN REFERENCE UNITS
              ARE GIVEN IN PERCENT
ENDBIB               2
NOCOMMON             0          0
DATA                 6        229
EN         E          E-ERR      E-LVL-FIN  DATA       DATA-ERR
KEV        KEV        KEV        KEV        ARB-UNITS  PER-CENT
      2.    3694.79     0.54       2667.67      9.3      24.0
      2.    3700.43     0.73       2659.58      6.8      32.0
      2.    3727.24     0.49       2633.17     10.9      24.2
      2.    3734.60     0.54       2625.81     11.1      22.1
      2.    3746.33     0.50       2614.08     11.0      21.1
      2.    3752.82     0.36       2607.59     14.8      16.6
      2.    3765.41     0.61       2595.00     11.6      28.9
      2.    3770.52     0.45       2589.89     21.0      17.7
      2.    3775.45     0.56       2584.96     12.5      25.1
      2.    3789.32     0.44       2571.09     13.0      20.7
      2.    3798.06     0.42       2562.35     12.9      21.8
      2.    3804.77     0.35       2555.64     16.4      19.1
      2.    3820.23     0.77       2540.18      9.1      30.2
      2.    3836.70     0.54       2523.71     13.5      21.0
      2.    3842.40     0.75       2518.01      9.4      29.0
      2.    3868.77     0.38       2491.64     11.6      20.2
      2.    3891.67     0.66       2468.74      8.6      24.7
      2.    3918.75     0.38       2441.66     15.1      13.0
      2.    3947.02     0.63       2413.39      6.2      27.2
      2.    3967.25     0.68       2393.16      5.4      28.6
      2.    3973.49     0.54       2386.92      5.6      27.4
      2.    3979.45     0.43       2380.96      8.3      21.4
      2.    3987.14     0.18       2373.27     21.8      10.0
      2.    3993.24     0.32       2367.17     11.7      19.1
      2.    4007.99     0.44       2352.42     10.7      18.0
      2.    4017.76     0.44       2342.64      8.6      20.2
      2.    4026.88     0.25       2333.52     16.5      10.8
      2.    4043.13     0.32       2317.27     11.7      14.0
      2.    4053.05     0.67       2307.35      8.6      26.5
      2.    4057.16     0.65       2303.24      9.2      24.8
      2.    4069.89     0.35       2290.51     14.3      13.7
      2.    4084.36     0.77       2276.24      4.3      40.0
      2.    4101.22     0.30       2259.18     17.3      11.0
      2.    4118.36     0.56       2242.04      5.9      24.0
      2.    4130.28     0.28       2230.12     14.4      11.7
      2.    4142.28     0.33       2218.12     22.6      15.5
      2.    4153.31     0.22       2207.09     20.9       8.9
      2.    4161.67     0.23       2198.73     19.8       9.0
      2.    4171.92     0.21       2188.48     22.7       7.8
      2.    4179.33     0.26       2181.07     18.8       9.4
      2.    4187.11     0.29       2173.29     15.0      11.8
      2.    4195.71     0.17       2164.69     26.4       7.9
      2.    4214.02     0.39       2146.38     13.1       9.8
      2.    4224.71     0.38       2135.69     10.5      13.9
      2.    4231.05     0.34       2129.35     11.7      12.9
      2.    4242.51     0.34       2117.89     10.5      15.2
      2.    4261.04     0.34       2099.36     10.0      16.4
      2.    4266.77     0.34       2093.63     10.0      16.0
      2.    4288.38     0.26       2072.02     11.8      11.8
      2.    4308.40     0.30       2052.00      9.8      14.0
      2.    4316.21     0.50       2044.19      5.7      24.0
      2.    4322.63     0.28       2037.77     10.7      14.0
      2.    4344.82     0.70       2015.58      6.9      45.4
      2.    4364.31     0.67       1996.08      6.8      26.6
      2.    4368.44     0.28       1991.95     16.8      11.9
      2.    4376.99     0.40       1983.40      7.1      19.1
      2.    4383.54     0.94       1976.85      2.9      45.7
      2.    4397.34     0.83       1963.05      3.5      36.8
      2.    4403.75     0.47       1956.64      9.6      10.0
      2.    4408.07     0.63       1952.32      7.1      21.8
      2.    4423.00     0.33       1937.39      8.4      14.6
      2.    4440.55     0.41       1919.84      8.2      21.0
      2.    4445.81     0.22       1914.58     16.0      10.1
      2.    4454.52     0.43       1905.87      6.0      21.2
      2.    4463.79     0.34       1896.60      8.1      15.2
      2.    4471.10     0.20       1889.29     15.3       9.2
      2.    4498.75     0.20       1861.64     23.2      11.3
      2.    4505.52     0.71       1854.87      7.5      24.7
      2.    4510.61     0.96       1849.78      8.0      27.2
      2.    4514.91     0.40       1845.48     15.7      15.4
      2.    4523.67     0.38       1836.72     10.7      16.7
      2.    4536.55     0.22       1823.84     20.5      10.0
      2.    4558.60     0.28       1801.79     21.7      11.1
      2.    4572.50     0.51       1787.89      4.9      25.4
      2.    4600.65     0.49       1759.74      5.2      25.4
      2.    4610.37     0.14       1750.02     22.8       6.2
      2.    4620.31     0.35       1740.08     15.3      14.6
      2.    4624.06     0.33       1736.33     16.6      13.7
      2.    4638.59     0.44       1721.80      9.2      17.8
      2.    4643.05     0.15       1717.34     31.0       6.2
      2.    4693.82     0.16       1666.56     26.0       7.4
      2.    4702.15     0.19       1658.23     20.8      11.8
      2.    4743.91     0.20       1616.47     24.0       7.4
      2.    4748.94     0.19       1611.44     24.6       0.7
      2.    4770.88     0.23       1589.50     15.9       9.4
      2.    4776.97     0.35       1583.41      9.9      13.3
      2.    4791.80     0.46       1568.58      7.1      18.1
      2.    4797.69     0.89       1562.69      3.8      32.1
      2.    4808.70     0.59       1551.68      6.9      22.4
      2.    4834.95     0.48       1525.43      8.2      17.5
      2.    4839.44     0.26       1520.94     15.8       9.8
      2.    4869.72     0.72       1490.66      6.0      28.8
      2.    4882.82     0.29       1477.56     12.2      15.3
      2.    4947.82     0.20       1412.56     20.7       7.9
      2.    4973.87     0.15       1386.51     22.6       5.9
      2.    5011.72     0.13       1348.74     27.0       5.6
      2.    5021.26     0.28       1339.20     10.1      11.2
      2.    5029.80     0.28       1330.66      9.9      11.5
      2.    5044.88     0.09       1315.58     39.4       4.2
      2.    5061.77     0.33       1298.69      7.9      13.3
      2.    5077.52     0.41       1282.85      6.0      18.2
      2.    5100.59     0.46       1249.78      6.1      19.7
      2.    5268.74     0.24       1091.73     11.6      11.0
      2.    5319.50     0.17       1040.97     21.47      7.4
      2.    5551.60     0.09        808.87     85.4       3.6
      2.    5567.16     0.14        793.31     43.3       5.4
      2.    5598.01     0.11        762.46     57.8       4.6
      2.    5609.94     0.37        750.53     12.7      12.5
      2.    5631.45     0.10        729.00     66.9       4.1
      2.    5659.09     0.14        701.38     45.3       5.3
      2.    5677.27     0.19        683.20     31.1       7.0
      2.    5886.06     0.14        474.41     20.8       5.9
      2.    6860.47     0.07          0.      100.0       2.9
     24.    3715.54     0.69       2667.67     24.0      26.1
     24.    3719.69     1.13       2663.05     14.3      41.2
     24.    3724.62     0.68       2659.58     16.7      30.0
     24.    3732.26     0.61       2650.48     13.9      29.2
     24.    3749.29     0.42       2633.17     19.8      20.5
     24.    3767.61     0.61       2614.08     10.6      26.7
     24.    3774.99     0.35       2607.59     19.0      16.3
     24.    3797.41     0.42       2589.89     10.0      30.0
     24.    3798.38     0.58       2584.96     18.8      28.4
     24.    3890.79     0.38       2491.64     26.2      17.1
     24.    3912.37     1.05       2468.74     14.5      28.0
     24.    3917.23     0.74       2465.51     11.4      26.7
     24.    3942.04     0.85       2441.66     20.1      26.6
     24.    3969.79     0.55       2413.39     17.6      24.8
     24.    3981.55     0.39       2401.19     25.2      16.9
     24.    4003.92     0.86       2380.96     13.4      29.5
     24.    4010.04     0.73       2373.27     12.2      26.5
     24.    4016.01     0.81       2367.17     12.9      32.0
     24.    4049.82     0.67       2333.52     14.6      24.3
     24.    4054.76     0.43       2327.97     17.9      15.8
     24.    4066.76     0.52       2317.27     13.5      21.5
     24.    4092.24     0.30       2290.51     24.1      12.3
     24.    4123.23     0.35       2259.18     24.1      17.1
     24.    4132.45     0.50       2250.28     16.7      22.3
     24.    4152.94     0.97       2230.12     13.5      43.5
     24.    4165.40     0.65       2218.12     20.4      27.3
     24.    4173.36     0.36       2207.09     39.8      14.5
     24.    4184.29     0.43       2198.73     31.6      17.3
     24.    4194.57     0.43       2188.48     30.5      17.9
     24.    4202.86     0.75       2179.87     20.9      26.9
     24.    4208.22     0.94       2173.29     12.7      34.1
     24.    4218.20     0.34       2164.69     30.1      15.4
     24.    4236.12     0.41       2146.38     15.8      18.2
     24.    4259.57     0.70       2123.16     16.3      25.4
     24.    4264.64     0.63       2117.89     17.2      24.7
     24.    4287.29     0.48       2093.63     29.9      20.0
     24.    4311.51     0.65       2072.02     21.7      25.9
     24.    4344.70     0.45       2037.77     15.1      21.5
     24.    4354.29     0.62       2028.57      5.4      35.1
     24.    4385.89     0.85       1996.08     12.9      27.4
     24.    4390.95     0.34       1991.95     27.4      12.9
     24.    4399.22     0.49       1983.40     12.8      25.5
     24.    4407.00     0.35       1976.85     18.6      19.0
     24.    4423.56     0.92       1959.18     15.4      37.7
     24.    4425.95     0.13       1956.64     13.4      21.4
     24.    4429.31     0.56       1952.32     25.4      22.2
     24.    4445.91     0.23       1937.39      6.5      25.6
     24.    4461.35     0.29       1919.84      4.0      41.9
     24.    4466.49     0.15       1914.58     23.06      7.2
     24.    4487.21     0.39       1896.60     21.0      13.8
     24.    4494.02     0.28       1889.29     25.4      12.1
     24.    4521.27     0.32       1861.64     35.3      27.6
     24.    4527.57     0.62       1854.87     23.6      35.2
     24.    4532.12     0.35       1849.78     20.9      36.9
     24.    4537.91     0.51       1845.48     21.3      30.5
     24.    4547.29     0.35       1836.72     12.1      14.0
     24.    4558.84     0.34       1823.84     26.4      13.4
     24.    4584.32     0.69       1789.40     13.3      27.5
     24.    4594.39     0.72       1787.89     12.8      29.4
     24.    4622.72     0.24       1759.74     19.6      19.8
     24.    4633.23     0.50       1750.02     18.9      19.7
     24.    4642.02     0.48       1740.08     28.9      15.9
     24.    4647.05     0.76       1736.33     17.7      24.9
     24.    4662.28     0.15       1721.80     16.2       6.2
     24.    4664.55     0.29       1717.34     36.0      11.3
     24.    4680.93     0.51       1701.79     11.7      31.3
     24.    4690.66     0.42       1692.05     14.8      18.1
     24.    4716.45     0.19       1666.56     46.9       7.7
     24.    4725.37     0.45       1658.23     18.4      16.8
     24.    4733.80     0.64       1648.91     12.3      24.2
     24.    4747.22     0.37       1635.49     21.4      15.0
     24.    4765.17     0.53       1616.47     17.9      17.8
     24.    4770.30     0.33       1611.44     34.0       9.9
     24.    4776.01     0.61       1606.70     13.3      21.4
     24.    4793.60     0.74       1589.50      5.2      29.0
     24.    4808.66     0.39       1574.05     34.4      48.7
     24.    4814.49     0.36       1566.22     41.0      31.6
     24.    4820.23     0.53       1562.69     26.4      37.1
     24.    4826.57     0.49       1556.14     45.4      18.3
     24.    4831.01     0.42       1551.68     42.3      15.9
     24.    4856.86     0.44       1525.43     23.9      14.6
     24.    4860.85     0.30       1520.94     33.9      13.0
     24.    4893.24     0.21       1490.66     28.2      11.3
     24.    4904.85     0.33       1477.56     18.9      13.2
     24.    4945.55     0.58       1437.16     12.0      25.1
     24.    4970.16     0.23       1412.56     29.3       9.5
     24.    4983.52     0.53       1399.19     11.7      20.4
     24.    4997.43     0.40       1386.51     15.7      15.0
     24.    5033.89     0.17       1348.74     28.5      11.0
     24.    5044.21     0.36       1339.20     36.3       8.6
     24.    5052.30     0.38       1330.66     19.6      14.5
     24.    5067.11     0.16       1315.58     54.8       6.5
     24.    5084.75     0.17       1298.69     27.8      13.4
     24.    5099.87     0.52       1282.85     17.9      18.8
     24.    5133.34     0.52       1249.78     23.0      19.7
     24.    5137.15     0.62       1245.45     16.3      28.8
     24.    5198.34     0.45       1184.36     15.1      30.0
     24.    5246.08     0.32       1136.71     16.7      14.9
     24.    5290.24     0.21       1091.73     39.0       7.7
     24.    5320.40     0.74       1062.39     13.4      24.4
     24.    5341.98     0.25       1040.97     27.9       8.3
     24.    5386.16     0.90        996.63     13.9      25.0
     24.    5412.00     0.45        970.74     15.8      21.7
     24.    5567.40     0.37        815.39     36.8       9.8
     24.    5574.31     0.17        808.87     74.65      8.1
     24.    5589.58     0.23        793.31     43.8       8.1
     24.    5621.01     0.57        762.46     54.1      22.7
     24.    5631.81     0.26        750.53     42.1      11.7
     24.    5653.98     0.28        729.00     53.4       5.7
     24.    5681.77     0.21        701.38      7.86      7.3
     24.    5699.33     0.16        683.20    113.9       5.1
     24.    5727.06     0.49        655.73     17.3      29.2
     24.    5858.79     0.60        524.02     37.7      29.3
     24.    5909.63     0.43        474.41     46.5      11.1
     24.    6319.13     0.16         63.66     78.2       4.5
     24.    6382.79     0.13          0.      100.0       4.7
ENDDATA            231
ENDSUBENT          238
ENDENTRY             2
