ENTRY            13817   20020129   20020410
SUBENT        13817001   20020129   20020410
BIB                  9         15
INSTITUTE  (1USAANL,2GERMUN)
REFERENCE  (J,PR,187,1632,196911)
AUTHOR     (R.K.SMITHER,E.BIEBER,T.VON EGIDY,W.KAISER,K.WIEN)
TITLE      Level Scheme of 153Sm Based on (n,gamma), (n,e-), and
            beta-Decay Experiments
FACILITY   (REAC,1USAANL) In-pile facility at the Argonne CP-5
            reseach reactor.
INC-SOURCE (REAC) Reactor core with a thermal neutron flux ~3E+13
            n/(cm2.s).
INC-SPECT  Reactor spectrum.
CORRECTION Samples of enriched 149Sm and 150Sm used to identify
            and remove gamma lines from 149Sm and 150Sm (n,gamma)
            reactions close to lines from the 152Sm(n,gamma)153Sm
            reaction.
HISTORY    (20020122C) IS
ENDBIB              15
COMMON               1          3
EN-DUMMY
EV
0.0253
ENDCOMMON            3
ENDSUBENT           22
SUBENT        13817002   20020129   20020410
BIB                  9         42
REACTION   (62-SM-152(N,G)62-SM-153,,SPC,,SPA)
FACILITY   (SPECC,1USAANL) 7.7-m Argonne bent-crystal
             spectrometer.
SAMPLE     180 mg of Sm203 (enriched 99.06% in 152Sm) enclosed
            in an Mg(85%)-Al(15%) holder which constrained the
            sample to a volume 7-cm high, 1-cm deep, 0.017-cm
            wide.
DETECTOR   (NAICR) Bank of NaI crystals used to detect the low
            energy gamma-ray spectrum as a function of Bragg
            angle of the bent-crystal spectrometer. 2-mm- and
            4-mm-thick bent quartz crystals employed in the
            spectrometer.
MONITOR    (62-SM-152(N,G)62-SM-153,,SPC,,SPA)
            On basis of previously published studies 103-keV line
            was assumed to have an intensity of 28 gamma rays per
            100 neutron captures when the beta-decay rate was in
            equilibrium with the neutron-capture rate.
           Gamma-ray energies based on the previously established
            energy calibration of the bent-crystal spectrometer;
            additionally checked in comparing the energies
            obtained for some of the strong lines in the
            149Sm(n,gamma)150Sm spectrum with published values.
ANALYSIS   Energies and intensities represent an average taken
            from the analysis of a series of 4-10 runs over the
            spectrum.
           Each line approximated in the computer analysis of the
            data with a Gaussian curve when well-resolved regions
            of the spectrum were fitted. A more elaborate line
            shape was used for each diffraction peak in the case
            of fitting complex doublet and triplet structures,
CORRECTION Data corrected for the presence of gammas from the
            149Sm, 150Sm, 151Sm, and 154Sm (n,gamma) reactions.
           Also identified and removed were the transitions
            produced by the 153Sm(n,g)154Sm, and 153Eu(n,g)154Eu
            reactions by observing the variations in their
            intensities as a function of time.
ERR-ANALYS (E-ERR) Uncertainties in gamma-ray energies; do not
            include a possible systematic error estimated as
            large as 1 part in 10,000.
           (DATA-ERR) Relative uncertainties of line intensities;
            do not include any error in normalization procedure.
STATUS     Data taken from Table II of reference.
ENDBIB              42
COMMON               1          3
E-NRM
KEV
 103.
ENDCOMMON            3
DATA                 4        275
E          E-ERR      DATA       DATA-ERR
KEV        KEV        PC/REAC    PER-CENT
  28.309    0.005      2.10       10.
  35.571    0.005      0.030      10.
  35.842    0.005      6.20       10.
  36.423    0.005      0.021      20.
  37.343    0.005      0.223      10.
  45.996    0.005      0.262      10.
  51.040    0.010      0.030      20.
  53.534    0.005      0.136      10.
  55.031    0.008      0.171      10.
  55.61     0.01       0.029      20.
  57.94     0.01       0.042      20.
  59.42     0.01       0.026      20.
  63.66     0.01       0.007      50.
  66.16     0.01       0.008      30.
  76.96     0.01       0.043      20.
  79.43     0.01       0.021      20.
  83.03     0.02       0.043      20.
  83.302    0.008      0.059      20.
  83.339    0.005      1.70        6.
  88.16     0.01       0.0073     30.
  90.56     0.01       0.052      20.
  90.766    0.013      0.116      20.
  90.874    0.005      2.47        5.
  91.455    0.005      0.80        5.
  92.03     0.01       0.08       15.
  93.81     0.01       0.008      30.
 104.58     0.01       0.008      30.
 104.93     0.01       0.007      40.
 105.42     0.01       0.016      20.
 108.71     0.01       0.250       6.
 108.89     0.01       0.051      10.
 112.65     0.01       0.018      15.
 113.18     0.01       0.010      15.
 117.330    0.005      0.014      15.
 118.838    0.005      0.120       7.
 119.763    0.005      2.84        5.
 120.64     0.01       0.130       7.
 123.62     0.02       0.029      15.
 126.44     0.02       0.012      30.
 127.298    0.005      6.60        5.
 129.36     0.01       0.69        5.
 135.54     0.02       0.028      15.
 138.21     0.02       0.024      15.
 138.32     0.02       0.035      15.
 138.64     0.03       0.015      10.
 146.73     0.04       0.016      20.
 147.06     0.01       0.242      10.
 149.417    0.011      0.025      10.
 162.09     0.02       0.027      20.
 163.21     0.02       0.011      40.
 166.64     0.01       0.78        5.
 167.15     0.03       0.008      40.
 170.33     0.03       0.013      33.
 171.45     0.01       0.069      10.
 173.34     0.01       0.137       8.
 173.70     0.01       0.014      25.
 175.370    0.011      1.21        5.
 180.34     0.03       0.011      20.
 181.80     0.03       0.011      20.
 182.44     0.02       0.010      25.
 182.52     0.01       0.024      15.
 182.900    0.008      1.49        5.
 184.82     0.02       0.044      20.
 185.845    0.011      0.056      10.
 187.10     0.02       0.008      20.
 188.119    0.011      0.028      10.
 193.82     0.02       0.060      15.
 194.33     0.02       0.063      15.
 194.66     0.03       0.021      25.
 194.80     0.04       0.018      30.
 194.95     0.04       0.014      30.
 195.58     0.04       0.018      30.
 196.866    0.011      0.210       5.
 198.20     0.04       0.009      30.
 200.93     0.07       0.033      15.
 202.78     0.05       0.011      20.
 203.25     0.04       0.042      20.
 204.36     0.03       0.070       8.
 208.802    0.014      0.103      12.
 211.24     0.02       0.020      15.
 212.14     0.04       0.020      15.
 212.844    0.011      0.150       6.
 220.77     0.06       0.004      30.
 222.656    0.011      0.244       8.
 223.173    0.011      0.250       8.
 229.40     0.05       0.0063     30.
 230.243    0.013      0.015      12.
 234.93     0.05       0.029      12.
 240.868    0.014      0.047      15.
 242.24     0.20       0.014      50.
 243.06     0.04       0.037      15.
 244.62     0.04       0.029      15.
 247.08     0.03       0.030      15.
 247.62     0.06       0.007      30.
 248.39     0.04       0.014      15.
 249.14     0.04       0.024      15.
 249.73     0.04       0.015      15.
 252.01     0.016      0.046      15.
 254.794    0.015      0.449       5.
 257.68     0.05       0.027      20.
 258.43     0.05       0.008      50.
 261.15     0.05       0.0036     50.
 261.58     0.03       0.055      12.
 261.76     0.04       0.011      30.
 262.31     0.04       0.0057     30.
 262.86     0.04       0.014      22.
 263.20     0.04       0.016      20.
 264.25     0.05       0.008      40.
 265.10     0.04       0.063       8.
 265.78     0.04       0.043      12.
 267.56     0.03       0.014      20.
 268.09     0.03       0.013      20.
 269.17     0.02       0.786       6.
 271.40     0.08       0.012      30.
 275.20     0.04       0.037      15.
 276.71     0.02       1.62        6.
 277.72     0.04       0.044      12.
 278.17     0.02       0.195       6.
 282.55     0.04       0.049      12.
 284.41     0.05       0.013      30.
 285.23     0.04       0.020      20.
 287.49     0.06       0.030      15.
 290.71     0.08       0.015      30.
 291.17     0.05       0.090      10.
 293.54     0.07       0.031      20.
 296.82     0.05       0.028      15.
 298.20     0.05       0.038      12.
 298.94     0.03       0.075       8.
 302.95     0.04       0.105      12.
 303.16     0.04       0.105      12.
 307.21     0.04       0.928      25.
 308.71     0.07       0.100       8.
 310.62     0.07       0.019      20.
 312.85     0.05       0.017      25.
 313.54     0.03       0.235       6.
 314.60     0.03       0.099       8.
 315.21     0.05       0.053      10.
 317.80     0.03       0.135       8.
 321.13     0.03       2.64        6.
 326.45     0.05       0.031      15.
 327.81     0.08       0.017      30.
 329.39     0.03       0.186       7.
 330.75     0.03       0.103      10.
 340.95     0.05       0.071      10.
 347.85     0.06       0.018      30.
 349.16     0.05       0.117       8.
 350.20     0.05       0.156       7.
 351.19     0.06       0.051      11.
 354.76     0.03       1.01        6.
 356.62     0.10       0.038      25.
 358.48     0.06       0.050      14.
 359.12     0.10       0.032      16.
 360.21     0.10       0.036      16.
 362.30     0.03       0.810       7.
 365.13     0.07       0.034      20.
 367.03     0.07       0.034      20.
 368.27     0.10       0.082      10.
 369.63     0.03       0.300       6.
 370.43     0.09       0.028      30.
 371.89     0.09       0.016      35.
 372.87     0.04       0.075      10.
 374.69     0.04       0.048      14.
 379.10     0.04       0.132       8.
 384.79     0.04       0.102      10.
 386.02     0.07       0.021      30.
 389.12     0.16       0.054      30.
 390.24     0.04       0.667       6.
 393.58     0.08       0.109      10.
 396.49     0.04       0.431       8.
 397.90     0.04       3.31        6.
 398.89     0.08       0.051      20.
 400.63     0.16       0.028      40.
 404.17     0.04       1.85        6.
 407.30     0.07       0.171       8.
 413.75     0.15       0.176      20.
 414.97     0.06       3.04        6.
 417.13     0.17       0.021      40.
 419.93     0.17       0.011      60.
 422.71     0.09       0.024      40.
 425.97     0.19       0.029      30.
 428.18     0.19       0.024      40.
 433.11     0.10       0.071      15.
 435.43     0.20       0.028      30.
 439.53     0.06       0.280       8.
 442.51     0.06       0.754       6.
 445.15     0.06       0.164      10.
 447.27     0.06       0.050      16.
 452.22     0.30       0.017      50.
 456.20     0.30       0.018      50.
 459.92     0.06       0.321       8.
 470.65     0.06       1.86        7.
 473.63     0.06       2.23        7.
 481.14     0.06       0.686       8.
 482.51     0.06       0.175      10.
 488.57     0.12       0.135      11.
 491.55     0.12       0.040      25.
 494.35     0.12       0.098      20.
 502.21     0.18       0.227      12.
 503.52     0.18       0.075      20.
 516.72     0.10       0.473       7.
 518.02     0.13       0.115      16.
 521.12     0.20       0.042      30.
 523.06     0.20       0.104      20.
 524.22     0.20       0.152      20.
 530.63     0.26       0.059      40.
 532.92     0.26       0.147      20.
 535.42     0.28       0.137      25.
 539.16     0.30       0.113      25.
 540.53     0.30       0.125      25.
 549.66     0.30       0.064      33.
 551.74     0.30       0.095      25.
 559.88     0.13       0.129      20.
 561.61     0.22       0.052      25.
 564.70     0.22       0.141      20.
 567.50     0.15       0.524      12.
 568.32     0.24       0.229      14.
 574.05     0.50       0.101      30.
 574.99     0.50       0.114      30.
 579.91     0.50       0.155      25.
 582.96     0.50       0.276      16.
 586.44     0.50       0.270      16.
 589.83     0.50       0.178      20.
 593.77     0.17       0.223      14.
 604.19     0.34       0.073      30.
 605.93     0.34       0.192      16.
 610.07     0.28       0.030      50.
 614.44     0.16       0.170      12.
 618.94     0.40       0.095      30.
 622.76     0.10       1.42        7.
 627.55     0.30       0.363      12.
 630.24     0.10       1.82        7.
 646.28     0.22       0.233      12.
 649.77     0.33       0.090      35.
 659.95     0.10       2.07        7.
 662.90     0.50       0.160      25.
 675.28     0.33       0.161      25.
 681.70     0.26       0.289      16.
 689.41     0.35       0.257      16.
 693.16     0.35       0.281      16.
 698.41     0.24       0.353      14.
 702.61     0.24       0.224      20.
 707.08     0.25       0.229      20.
 714.91     0.20       0.986      10.
 721.96     0.50       0.096      40.
 727.37     0.25       0.420      15.
 734.89     0.13       1.65       10.
 743.10     0.53       0.183      35.
 746.70     0.53       0.239      30.
 749.92     0.54       0.188      30.
 753.60     0.27       0.546      10.
 757.59     0.57       0.083      50.
 767.62     0.24       0.685      10.
 772.31     0.30       0.406      16.
 780.72     0.24       0.535      12.
 788.72     0.24       0.985      10.
 808.40     0.33       0.263      20.
 817.44     0.66       0.101      50.
 825.20     0.34       0.492      16.
 834.07     0.34       0.483      16.
 838.98     0.34       0.870      12.
 847.15     0.70       0.185      50.
 858.02     0.70       0.229      30.
 871.28     0.51       0.276      30.
 878.63     0.38       0.896      16.
 891.40     0.90       0.209      40.
 902.91     0.40       0.732      16.
 911.96     0.42       0.352      20.
 924.40     0.43       0.590      18.
 941.23     0.44       0.722      15.
 954.16     0.67       0.597      16.
 969.90     0.68       0.663      20.
 979.39     0.80       1.18       16.
 988.56     0.90       0.371      30.
1023.76     0.90       0.565      30.
1041.34     0.90       0.714      25.
ENDDATA            277
ENDSUBENT          328
SUBENT        13817003   20020129   20020410
BIB                  9         30
REACTION   (62-SM-152(N,G)62-SM-153,,SPC,,SPA)
SAMPLE     85 mg of Sm203 (enriched 99.06% in 152Sm) enclosed
            in a carbon source holder.
DETECTOR   (GELI)
           NaI crystals placed on opposite sides of the Ge(Li)
            detector were used in coincidence in some runs to
            identify double-escape peaks.
ANALYSIS   Data consisted of 14 separate runs.
           Data runs identifying double-escape peaks in spectrum
            made with a gate that recorded the spectrum in the
            Ge(Li) detector only in coincidence with NaI crystals.
           Absolute values of the gamma energies obtained by
            measuring the relative energies of the stronger lines
            in carbon and nitrogen and adjusting them for the best
            fit with the published values (G.E.Thomas et al.,
            Nucl.Instr.Meth. 56, 325, 1967).
MONITOR    (62-SM-149(N,G)62-SM-150,,SPC,,SPA)
MONIT-REF  (,L.V.GROSHEV+,J,NP,43,669,1963)
CORRECTION Data corrected for gamma transitions associated with
            background sources, for gamma lines of 150Sm and 151Sm
            and for fast neutrons scattered by the sample.
ERR-ANALYS (E-ERR) Uncertainties in gamma-ray energies;
            reflect only the errors associated with the location
            of the centroid of the peak and the calibration of the
            energy per channel.
           (DATA-ERR) Relative uncertainties of line intensities;
            reflect errors on the relative intensities only and do
            not include a possible systematic error of 25% in thei
            absolute values.
STATUS     Data taken from Table IV of reference.
ENDBIB              30
NOCOMMON             0          0
DATA                 4         23
E          E-ERR      DATA       DATA-ERR
KEV        KEV        PC/REAC    PER-CENT
4506.5      0.6        0.67        8.
4525.6      0.7        0.26       10.
4546.6      0.6        0.84        7.
4646.5      0.7        0.14       15.
4698.6      0.5        0.96        7.
4758.9      0.6        0.11       25.
4851.0      0.6        0.09       25.
4865.0      0.5        0.37        8.
4947.2      0.5        0.16       10.
5119.2      0.5        0.40        8.
5174.0      0.3        0.61        6.
5239.2      0.2        1.08        6.
5388.10     0.16       0.41        6.
5454.3      0.2        0.24        8.
5463.9      0.2        0.33        6.
5507.4      0.5        0.010      30.
5513.8      0.7        0.007      40.
5548.12     0.12       0.120       7.
5592.48     0.12       0.085      10.
5741.97     0.10       4.35        4.
5833.47     0.10       1.09        4.
5862.1      0.4        0.014      30.
5869.20     0.10       0.142       6.
ENDDATA             25
ENDSUBENT           60
ENDENTRY             3
