ENTRY            13828   20020409   20020502
SUBENT        13828001   20020409   20020502
BIB                 11         20
INSTITUTE  (1USAANL)
REFERENCE  (J,PR/C,14,75,197607)
AUTHOR     (D.L.Bushnell,G.R.Tassotto,R.K.Smither)
TITLE      States excited in 146Nd by thermal and average-
            resonance neutron-capture gamma rays.
FACILITY   (REAC,1USAANL) Internal target facility at Argonne
            CP-5 research reactor.
INC-SOURCE (REAC) Reactor core with a thermal-neutron flux ~3E+13
            n/(cm2.s).
DETECTOR   (GE-IN) A 4-cm3 cooled intrinsic-germanium detector
            located in a Compton-suppression pair spectrometer,
            used in both coincidence and anticoincidence modes.
MONITOR    Energy and intensity calibrations based primarily on
            the known lines from the 14N(n,g)15N reaction.
            Calibration spectrum collected with target in place
            and nitrogen gas used to flush the through tube.
ADD-RES    Capture state (neutron separation) energy of 146Nd
            determined to be 7564.7(2) keV.
STATUS     Data taken from Table III, IV, and V in reference.
HISTORY    (20020327C) IS
ENDBIB              20
NOCOMMON             0          0
ENDSUBENT           23
SUBENT        13828002   20020409   20020502
BIB                  7         18
REACTION   (60-ND-145(N,G)60-ND-146,,SPC,,REL/SPA)
INC-SPECT  Reactor spectrum
SAMPLE     Three targets used.
           . Two neodymium oxide targets, about 50 mg, contained
             in small graphite holders. One target enriched to
             89.67% in 145Nd, the other enriched to 91.06% in
             143Nd (0.39% 145Nd).
           . Natural neodymium target (8.3% 145Nd), about 25 g.
METHOD     (COINC) The spectrometer used in the coincidence mode
            which allowed only double escape events to be
            recorded.
ANALYSIS   Isotopic identifications made by comparison of thermal-
            neutron-capture gamma-ray spectra from the target
            enriched in 143Nd, from the target enriched in 145Nd,
            and from the natural target.
ERR-ANALYS (DATA-ERR) Intensity uncertainties.
REL-REF    (R,,J.K.HAWKINS,T,HAWKINS,1974) Data primarily taken
            from this experiment.
ENDBIB              18
COMMON               1          3
EN-DUMMY
EV
0.0253
ENDCOMMON            3
DATA                 4         41
E          E-ERR      DATA       DATA-ERR
KEV        KEV        ARB-UNITS  PER-CENT
7110.8       0.3       390.        1.5
6521.3       0.4       206.        2.0
6375.0       0.3        17.0       8.0
6093.9       0.3       314.        2.2
5818.3       0.3         5.2      17.
5787.4       0.2       100.        2.2
5777.4       0.2        11.7       9.0
5752.5       0.5         4.2      20.
5645.7       0.2        45.1       3.6
5587.5       0.2        13.7      15.
5575.3       0.3        24.5       3.8
5492.3       0.4         3.6      19.
5468.7       0.3        10.2       7.4
5367.3       0.3        15.6       5.5
5344.8       0.3        11.6       7.5
5338.2       0.3         5.5      16.
5207.6       0.2        47.8       2.7
5131.0       0.5         3.1      26.
5128.2       0.3         7.5       9.9
5125.8       0.3         3.4      20.
5094.7       0.3        10.3       7.7
5073.2       0.3        11.5       6.7
5048.3       0.3        24.7       4.2
5043.3       0.3        39.6       3.2
5036.3       0.3         6.7      12.
5011.9       0.2        76.4       2.1
5002.5       0.3        14.0       6.4
4990.9       0.3         5.4      14.
4975.1       0.3        29.4       3.7
4903.8       0.3         5.2      15.
4857.3       0.3         4.3      18.
4814.5       0.2        26.7       4.2
4780.8       0.3        10.1       8.5
4720.0       0.3         4.2      19.
4694.0       0.3         2.2      35.
4679.3       0.3         5.2      20.
4634.0       0.2        22.7       5.0
4595.0       0.3         6.4      15.
4567.9       0.2        46.9       3.0
4551.4       0.5         5.6      30.
4473.4       0.3         5.7      15.
ENDDATA             43
ENDSUBENT           70
SUBENT        13828003   20020409   20020502
BIB                  8         22
REACTION   (60-ND-145(N,G)60-ND-146,,SPC,,REL/SPA)
INC-SPECT  Reactor spectrum effectively limited by boron that
            removes low-energy neutrons. Dominant contributions to
            spectrum were from neutrons in the approximate energy
            range  200-500 eV.
SAMPLE     Natural neodymium target (8.3% 145Nd), about 25 g,
            surrounded by 0.95-cm thick boron absorber.
METHOD     (COINC) Average-resonance neutron-capture gamma-ray
            experiment. Spectra obtained with the spectrometer
            system in the coincidence mode which allowed only
            double escape events to be recorded.
ANALYSIS   Capture averaged over many neutron resonances in order
            to average out Porter-Thomas fluctuations in the
            intensities of primary transitions resulting from
            capture in a single resonance.
ERR-ANALYS (DATA-ERR) Intensity uncertainties.
FLAG       (1.) Reduced relative intensities, i.e., measured
            intensities multiplied by a factor (E0/E)**3, where
            E0=7564.7 keV is the capture state energy and E is the
            gamma-ray energy.
REL-REF    (N,,L.M.Bollinger+,J,PR/C,2,1951,1970)
            Average-resonance neutron-capture technique.
ENDBIB              22
COMMON               2          3
EN-MIN     EN-MAX
EV         EV
200.       500.
ENDCOMMON            3
DATA                 5         55
E          E-ERR      DATA       DATA-ERR   FLAG
KEV        KEV        ARB-UNITS  PER-CENT   NO-DIM
7110.8       0.3         5.5      12.        1.
6521.3       0.4        17.6       6.        1.
6375.0       0.3         1.6      29.        1.
6093.9       0.3         5.7      11.        1.
5818.3       0.3        10.7       7.        1.
5787.4       0.2        10.0       7.        1.
5777.4       0.2         4.7      14.        1.
5752.5       0.5         0.81     80.        1.
5680.0       0.5         0.86     83.        1.
5669.1       1.0         0.43    100.        1.
5645.7       0.2         5.3      12.        1.
5587.5       0.2         3.4      20.        1.
5575.3       0.3         5.6      13.        1.
5492.3       0.4         1.4      85.        1.
5468.7       0.3         6.2      13.        1.
5367.3       0.3         9.5      10.        1.
5344.8       0.5         5.0      17.        1.
5338.2       0.5         4.2      22.        1.
5333.7       0.7         1.8      50.        1.
5277.6       0.6         5.1      18.        1.
5262.6       0.5         4.7      21.        1.
5207.6       0.2         5.8      17.        1.
5145.3       0.3         4.9      22.        1.
5131.0       0.5         1.7      61.        1.
5128.2       0.5         4.5      25.        1.
5125.8       0.5         4.3      26.        1.
5094.7       0.3         6.0      19.        1.
5079.3       0.5         5.8      20.        1.
5073.2       0.5         6.5      18.        1.
5048.3       0.3         0.9      62.        1.
5043.3       0.4         4.5      26.        1.
5036.3       0.3         5.3      22.        1.
5016.9       0.4         5.7      20.        1.
5011.9       0.2         6.7      15.        1.
5008.7       0.3         9.2      10.        1.
5002.5       0.5         5.3      20.        1.
4990.9       0.3        10.3       8.        1.
4975.1       0.3        12.0      20.        1.
4963.1       0.6         1.5      76.        1.
4903.8       0.3        10.0      10.        1.
4857.5       0.5         7.0      20.        1.
4814.5       0.5         5.2      25.        1.
4780.8       0.4         8.2      15.        1.
4761.6       0.5        10.6      15.        1.
4658.9       0.6         6.2      25.        1.
4634.0       0.5         6.0      20.        1.
4606.1       0.5         5.5      25.        1.
4567.9       0.5         7.1      21.        1.
4551.4       0.4         8.2      18.        1.
4530.0       0.5         5.0      30.        1.
4522.4       0.5         6.7      23.        1.
4500.0       0.5         6.7      23.        1.
4392.6       0.5         7.2      22.        1.
4386.4       0.5         5.8      25.        1.
4334.9       0.4         8.0      20.        1.
ENDDATA             57
ENDSUBENT           88
SUBENT        13828004   20020409   20020502
BIB                  5         20
REACTION   (60-ND-145(N,G)60-ND-146,,SPC,,REL/SPA)
INC-SPECT  Reactor spectrum
SAMPLE     Three targets used.
           . Two neodymium oxide targets, about 50 mg, contained
             in small graphite holders. One target enriched to
             89.67% in 145Nd, the other enriched to 91.06% in
             143Nd (0.39% 145Nd).
           . Natural neodymium target (8.3% 145Nd), about 25 g.
ANALYSIS   Investigated secondary gamma transitions in the energy
            range from 400 to 2600 keV by rejection of all but
            full-energy detector events (anticoincidence mode).
           Isotopic identifications made by comparison of thermal-
            neutron-capture gamma-ray spectra from the target
            enriched in 143Nd, from the target enriched in 145Nd,
            and from the natural target.
ERR-ANALYS (DATA-ERR) Intensity uncertainties.
           Contributions to relative intensity error due to errors
            in the linewidth, efficiency, and transmission were at
            most 2%, 10%, and 15%, respectively, up to 1500 keV.
            Above 1500 keV the efficiency error was at most 20%.
ENDBIB              20
COMMON               1          3
EN-DUMMY
EV
0.0253
ENDCOMMON            3
DATA                 4        155
E          E-ERR      DATA       DATA-ERR
KEV        KEV        ARB-UNITS  PER-CENT
 448.4       0.6         1.1      18.
 453.7       0.1       100.0       0.2
 467.4       0.7         0.16     83.
 471.4       0.6         0.70     30.
 474.5       0.2         7.5       1.9
 476.7       0.5         0.62     25.
 479.2       0.5         0.83     20.
 482.0       0.5         0.74     20.
 522.9       0.6         0.30     25.
 528.3       0.4         0.56     14.
 534.9       0.6         0.25     30.
 545.4       0.6         0.20     36.
 555.9       0.2         2.4       2.9
 565.1       0.6         0.25     25.
 578.0       0.5         0.29     19.
 584.6       0.6         0.32     17.
 589.4       0.2        27.0       0.4
 598.3       0.5         0.34     16.
 600.0       0.8         0.12     50.
 602.0       0.8         0.12     50.
 630.1       0.5         0.17     29.
 650.6       0.5         0.29     18.
 674.3       0.4         0.10     50.
 677.1       0.5         0.10     50.
 702.1       0.2         1.7       3.
 716.8       0.5         0.17     29.
 721.6       0.5         0.07     63.
 724.6       0.4         0.22     22.
 729.6       0.5         0.25     20.
 735.9       0.2        15.3       0.5
 745.2       0.4         0.16     30.
 757.7       0.5         0.15     32.
 765.1       0.5         0.12     37.
 772.5       0.2         0.39     12.
 775.6       0.5         0.37     12.
 788.8       0.3         0.43     11.
 807.3       0.2         0.70      6.9
 849.9       0.3         0.31     15.
 868.5       0.4         0.26     18.
 871.5       0.4         0.34     14.
 875.9       0.2         1.7       2.9
 883.3       0.2         1.1       5.
 906.7       0.2         0.65      7.
 923.2       0.2         1.1       5.
 946.3       0.2         1.5       4.
1002.7       0.2         0.84      6.
1012.3       0.4         0.22     21.
1016.9       0.2         4.7       1.3
1029.6       0.3         0.17     28.
1036.8       0.3         0.25     19.
1039.5       0.3         0.16     30.
1053.1       0.2         0.78      6.
1081.1       0.2         0.34     13.
1093.5       0.3         0.14     32.
1125.1       0.2         1.0       5.
1139.9       0.2         0.48     10.
1149.8       0.4         0.21     22.
1165.2       0.5         0.12     38.
1167.2       0.2         0.64      7.
1169.5       0.4         0.30     15.
1181.7       0.4         0.15     31.
1183.6       0.4         0.24     19.
1190.8       0.4         0.30     15.
1193.4       0.4         0.31     19.
1219.9       0.4         0.22     21.
1244.0       0.4         0.22     20.
1268.5       0.4         0.22     20.
1292.2       0.3         0.64      7.
1314.3       0.3         0.79      7.
1324.0       0.3         3.4       1.7
1332.3       0.4         0.26     18.
1333.9       0.3         1.5       4.
1363.5       0.3         0.79      6.
1377.3       0.3         1.6       3.
1382.0       0.5         0.1      45.
1392.3       0.3         0.27     17.
1426.5       0.3         0.41     11.
1434.3       0.3         0.79      6.
1448.6       0.4         0.24     19.
1452.2       0.3         1.4       4.
1465.4       0.3         1.8       3.
1468.8       0.3         0.30     17.
1471.0       0.3         4.4       1.3
1478.6       0.3         0.45     10.
1496.5       0.4         0.11     40.
1502.9       0.4         0.22     20.
1521.9       0.3         1.3       4.
1525.5       0.5         0.90      5.
1536.0       0.3         0.66      7.
1560.1       0.3         0.29     15.
1579.5       0.4         0.34     13.
1613.9       0.3         0.49      9.
1637.8       0.6         0.23     19.
1665.6       0.3         0.33     13.
1671.8       0.4         0.19     23.
1680.9       0.4         0.31     14.
1689.8       0.4         0.31     14.
1728.4       0.5         0.20     22.
1741.4       0.3         0.48     10.
1744.3       0.3         1.0       5.
1750.7       0.3         0.32     14.
1766.7       0.2         1.0       5.
1771.1       0.3         0.16     26.
1777.3       0.3         0.12     35.
1779.8       0.3         0.12     35.
1787.3       0.3         0.17     23.
1812.1       0.3         0.29     15.
1832.9       0.3         0.25     17.
1853.3       0.3         0.25     17.
1862.7       0.3         0.34     13.
1873.5       0.4         0.24     18.
1880.5       0.5         0.21     15.
1903.2       0.4         0.31     15.
1906.8       0.6         0.09     50.
1910.8       0.6         0.09     50.
1914.1       0.6         0.10     45.
1917.4       1.0         0.06     80.
1919.7       1.0         0.07     80.
1944.2       0.3         0.15     30.
1969.0       0.5         0.16     40.
1975.1       0.5         0.11     60.
1977.7       0.5         0.23     50.
1981.4       0.3         0.42     20.
1984.2       0.4         0.43     20.
1989.2       0.5         0.18     60.
2003.0       0.3         0.16     30.
2030.0       0.3         0.18     25.
2037.8       0.3         0.46     10.
2045.6       0.3         0.17     25.
2057.8       0.3         0.18     25.
2083.2       0.3         0.20     20.
2096.3       1.0         0.10     50.
2108.3       0.2         0.46      9.
2120.2       0.3         0.38     11.
2136.0       0.2         0.71      6.
2142.5       0.5         0.10     43.
2149.1       0.3         0.31     13.
2157.6       1.0         0.07     60.
2168.5       0.3         0.13     33.
2207.0       0.3         0.23     19.
2209.4       0.3         0.23     19.
2223.5       0.2         1.3       4.
2234.5       0.3         0.21     20.
2266.8       0.3         0.17     24.
2278.1       0.3         0.10     40.
2291.2       0.3         0.13     31.
2369.5       0.3         0.12     33.
2459.8       0.3         0.14     30.
2658.9       0.4         0.20     20.
2685.6       0.3         0.15     31.
2691.3       0.3         0.13     33.
2793.0       0.4         0.14     29.
2830.3       0.5         0.24     18.
2852.8       0.4         0.12     36.
2856.5       0.4         0.23     19.
ENDDATA            157
ENDSUBENT          186
ENDENTRY             4
