ENTRY            13889   20040225   20040517
SUBENT        13889001   20040225   20040517
BIB                 13         22
INSTITUTE  (1USALAS,1USALRL,1USAOHO,2GERBOC,3POLUJK)
REFERENCE  (J,PRL,81,57,199807)
AUTHOR     (W.P.Abfalterer,F.B.Bateman,F.S.Dietrich,Ch.Elster,
           R.W.Finlay,W.Gloeckle,J.Golak,R.C.Haight,D.Hueber,
           G.L.Morgan,H.Witala)
TITLE      Inadequacies of the Nonrelativistic 3N Hamiltonian in
            Describing the n + d Total Cross Section
FACILITY   (MESON,1USALAS) LANSCE/WNR facility.
INC-SOURCE (EVAP) 800 MeV protons on tungsten target
SAMPLE     Deionized water, 0.999 g/cm2 thick, and heavy water,
            1.106 g/cm2 thick,aluminum cylinders. Heavy water
            enriched to 99.9% 2H.
METHOD     (TOF)
DETECTOR   (SCIN) Plastic scintillation counters.
CORRECTION Corrected for dead time, background, and density
            variations with temperature.
ERR-ANALYS (ERR-S) Uncertainties given are statistical.  In
            addition there is an estimated 1% systematic
            uncertainty.
STATUS     Data received by email from F.Dietrich, 2004/2/11.
           (APRVD) Approved by F. Dietrich, 24 February 2004.
HISTORY    (20040212C)
ENDBIB              22
NOCOMMON             0          0
ENDSUBENT           25
SUBENT        13889002   20040212   20040517
BIB                  2          3
REACTION   ((1-H-2(N,TOT),,SIG)-(1-H-1(N,TOT),,SIG))
STATUS     (DEP,13569005) Source of data used to correct for
            oxygen content of samples.
ENDBIB               3
NOCOMMON             0          0
DATA                 3        101
EN         DATA       ERR-S
MEV        B          B
  9.16       9.664E-02   1.69E-03
  9.53       9.732E-02   1.70E-03
  9.92       1.020E-01   1.84E-03
 10.33       1.069E-01   1.88E-03
 10.75       1.112E-01   1.64E-03
 11.19       1.097E-01   2.34E-03
 11.64       1.118E-01   2.49E-03
 12.12       1.185E-01   2.11E-03
 12.61       1.143E-01   2.03E-03
 13.13       1.170E-01   2.06E-03
 13.66       1.186E-01   2.06E-03
 14.22       1.205E-01   2.00E-03
 14.80       1.142E-01   2.13E-03
 15.41       1.217E-01   1.94E-03
 16.04       1.218E-01   1.81E-03
 16.69       1.225E-01   1.71E-03
 17.37       1.189E-01   1.77E-03
 18.08       1.192E-01   1.64E-03
 18.82       1.168E-01   1.63E-03
 19.59       1.173E-01   1.55E-03
 20.39       1.164E-01   1.00E-03
 21.22       1.150E-01   9.47E-04
 22.08       1.114E-01   8.89E-04
 22.99       1.105E-01   8.44E-04
 23.92       1.092E-01   8.00E-04
 24.90       1.061E-01   7.64E-04
 25.92       1.021E-01   7.28E-04
 26.97       1.008E-01   6.92E-04
 28.07       9.806E-02   6.57E-04
 29.22       9.573E-02   6.26E-04
 30.41       9.382E-02   5.98E-04
 31.65       8.994E-02   5.69E-04
 32.95       8.678E-02   5.41E-04
 34.29       8.520E-02   5.13E-04
 35.69       8.265E-02   4.88E-04
 37.15       7.917E-02   4.65E-04
 38.66       7.706E-02   4.43E-04
 40.24       7.424E-02   4.22E-04
 41.88       7.111E-02   4.01E-04
 43.59       6.841E-02   3.82E-04
 45.37       6.586E-02   3.64E-04
 47.23       6.359E-02   3.47E-04
 49.15       6.075E-02   3.32E-04
 51.16       5.857E-02   3.17E-04
 53.25       5.655E-02   3.04E-04
 55.42       5.359E-02   2.91E-04
 57.68       5.119E-02   2.79E-04
 60.04       4.973E-02   2.68E-04
 62.49       4.747E-02   2.58E-04
 65.04       4.605E-02   2.48E-04
 67.69       4.340E-02   2.39E-04
 70.46       4.180E-02   2.30E-04
 73.33       4.001E-02   2.23E-04
 76.33       3.861E-02   2.15E-04
 79.44       3.692E-02   2.08E-04
 82.68       3.562E-02   2.02E-04
 86.06       3.434E-02   1.96E-04
 89.57       3.334E-02   1.91E-04
 93.23       3.182E-02   1.86E-04
 97.03       3.065E-02   1.81E-04
101.0        2.972E-02   1.77E-04
105.1        2.887E-02   1.73E-04
109.4        2.812E-02   1.69E-04
113.9        2.733E-02   1.66E-04
118.5        2.664E-02   1.62E-04
123.4        2.579E-02   1.60E-04
128.4        2.563E-02   1.57E-04
133.6        2.485E-02   1.55E-04
139.1        2.438E-02   1.53E-04
144.8        2.390E-02   1.51E-04
150.7        2.358E-02   1.50E-04
156.8        2.332E-02   1.49E-04
163.2        2.313E-02   1.48E-04
169.9        2.303E-02   1.47E-04
176.8        2.279E-02   1.46E-04
184.0        2.246E-02   1.46E-04
191.5        2.229E-02   1.46E-04
199.4        2.249E-02   1.46E-04
207.5        2.244E-02   1.46E-04
216.0        2.227E-02   1.46E-04
224.8        2.260E-02   1.47E-04
234.0        2.270E-02   1.48E-04
243.5        2.243E-02   1.48E-04
253.5        2.274E-02   1.50E-04
263.8        2.265E-02   1.51E-04
274.6        2.267E-02   1.52E-04
285.8        2.320E-02   1.53E-04
297.4        2.319E-02   1.55E-04
309.6        2.358E-02   1.56E-04
322.2        2.377E-02   1.57E-04
335.4        2.410E-02   1.58E-04
349.0        2.466E-02   1.59E-04
363.3        2.499E-02   1.60E-04
378.1        2.509E-02   1.60E-04
393.6        2.560E-02   1.61E-04
409.6        2.632E-02   1.61E-04
426.3        2.699E-02   1.62E-04
443.7        2.772E-02   1.63E-04
461.9        2.851E-02   1.66E-04
480.7        2.931E-02   1.72E-04
500.3        3.015E-02   1.81E-04
ENDDATA            103
ENDSUBENT          111
ENDENTRY             2
