ENTRY            13896   20221025   20230913   20230911       1505
SUBENT        13896001   20221025   20230913   20230911       1505
BIB                 13         26
TITLE      95Mo(n,a) cross section from 1 eV to 500 keV: A test
            of the alpha+nucleus optical potential used in
            calculating reaction rates for explosive
            nucleosynthesis
AUTHOR     (W.Rapp, P.E.Koehler, F.Kaeppeler, S.Raman)
INSTITUTE  (1USAORL,2GERKFK)
REFERENCE  (J,PR/C,68,015802,200307)  Main reference
REL-REF    (O,14797004,P.E.Kohler,J,PR/C,105,054306,2022)
            Resonance parameters updated
FACILITY   (LINAC,1USAORL) ORELA
INC-SOURCE (PHOTO) Neutrons from electrons on tantalum target
SAMPLE     Two metallic foils containing 96.8% enriched 95Mo,
           placed back to back on either side of an Al foil.
DETECTOR   (IOCH) Compensated ionization chamber used as alpha
            detector and another as a flux monitor.
MONITOR    (3-LI-6(N,T)2-HE-4,,SIG)
MONIT-REF  (,A.D.Carlson+,R,NISTIR-5177,1993) ENDF standard
CORRECTION Corrected for:
           . counting loss,
           . time-independent background,
           . alpha straggling in samples and imperfect charge
             collection,
HISTORY    (20040518C)
           (20120225U) On. BIB updated (formal correction)
           (20221018A) S.H. Inserted data for 95Mo(n,a) reaction,
            deleted STATUS in sub 1
ENDBIB              26
NOCOMMON             0          0
ENDSUBENT           29
SUBENT        13896002   20221025   20230913   20230911       1505
BIB                  4          5
REACTION   (42-MO-95(N,A)40-ZR-92,,SIG)
STATUS     (TABLE) Data partially presented in fig.2 of the
                   main reference sent by author P.E.K.
ERR-ANALYS (ERR-S) Statistical uncertainty
HISTORY    (20221018A) S.H. Inserted data from author
ENDBIB               5
NOCOMMON             0          0
DATA                 3       1702
EN         DATA       ERR-S
EV         B          B
  10032.050  0.0000334  0.0000116
   9785.150  0.0000355  0.0000118
   9547.256  0.0000486  0.0000121
   9402.950  0.0000601  0.0000222
   9346.143  0.0000230  0.0000250
   9289.849  0.0000344  0.0000269
   9234.061  0.0000645  0.0000261
   9178.775  0.0000375  0.0000239
   9123.984  0.0001028  0.0000273
   9069.682  0.0000641  0.0000264
   9015.862  0.0000587  0.0000251
   8962.521  0.0000734  0.0000303
   8909.652  0.0000783  0.0000285
   8857.250  0.0000453  0.0000267
   8805.309  0.0000398  0.0000273
   8753.822  0.0000915  0.0000313
   8702.786  0.0000555  0.0000289
   8652.195  0.0000400  0.0000269
   8602.045  0.0000447  0.0000257
   8552.328  0.0000781  0.0000306
   8503.042  0.0000628  0.0000322
   8454.181  0.0000544  0.0000265
   8405.739  0.0000321  0.0000250
   8357.712  0.0000408  0.0000238
   8310.096  0.0000645  0.0000259
   8262.887  0.0000466  0.0000287
   8216.077  0.0000304  0.0000262
   8169.664  0.0000317  0.0000278
   8123.644  0.0000480  0.0000292
   8078.012  0.0000785  0.0000303
   8032.762  0.0000466  0.0000299
   7987.893  0.0000397  0.0000302
   7943.397  0.0000493  0.0000292
   7899.273  0.0000307  0.0000276
   7855.516  0.0000412  0.0000279
   7812.120  0.0000169  0.0000287
   7769.084  0.0000869  0.0000319
   7726.402  0.0000591  0.0000272
   7684.071  0.0000174  0.0000246
   7642.086  0.0000098  0.0000222
   7600.446  0.0000492  0.0000292
   7538.619  0.0000173  0.0000190
   7457.351  0.0000182  0.0000199
   7377.390  0.0000066  0.0000186
   7298.708  0.0000285  0.0000178
   7221.277  0.0000068  0.0000179
   7145.073  0.0000025  0.0000192
   7070.069  0.0000071  0.0000196
   6996.239  0.0000105  0.0000199
   6923.561  0.0000077  0.0000209
   6852.008  0.0000139  0.0000192
   6781.559  0.0000157  0.0000209
   6712.191  0.0000288  0.0000229
   6643.882  0.0000235  0.0000234
   6576.611  0.0000412  0.0000244
   6510.356  0.0000199  0.0000209
   6445.097  0.0000397  0.0000240
   6380.814  0.0000374  0.0000268
   6317.489  0.0000445  0.0000233
   6255.102  0.0000119  0.0000210
   6193.634  0.0000206  0.0000243
   6133.067  0.0000213  0.0000222
   6073.385  0.0000077  0.0000210
   6014.570  0.0000128  0.0000212
   5956.604  0.0000036  0.0000222
   5899.474  0.0000271  0.0000243
   5843.161  0.0000227  0.0000235
   5787.650  0.0000217  0.0000244
   5732.927  0.0000151  0.0000215
   5678.976  0.0000406  0.0000221
   5639.011  0.0000498  0.0000286
   5612.602  0.0000497  0.0000317
   5586.377  0.0000556  0.0000325
   5560.336  0.0000597  0.0000345
   5534.478  0.0000513  0.0000327
   5508.798  0.0001411  0.0000363
   5483.297  0.0000658  0.0000341
   5457.973  0.0000417  0.0000322
   5432.824  0.0000374  0.0000294
   5407.848  0.0000483  0.0000278
   5383.044  0.0000592  0.0000347
   5358.410  0.0000923  0.0000347
   5333.945  0.0000400  0.0000358
   5309.647  0.0000320  0.0000333
   5285.515  0.0000596  0.0000393
   5261.547  0.0000505  0.0000342
   5237.742  0.0000227  0.0000389
   5214.098  0.0000258  0.0000278
   5190.613  0.0000692  0.0000344
   5167.287  0.0000796  0.0000359
   5144.118  0.0000670  0.0000374
   5121.104  0.0000232  0.0000383
   5098.244  0.0000732  0.0000332
   5075.538  0.0000629  0.0000335
   5052.981  0.0001283  0.0000394
   5030.576  0.0000738  0.0000348
   5008.319  0.0001683  0.0000417
   4986.209  0.0002493  0.0000513
   4964.246  0.0002334  0.0000488
   4942.428  0.0001308  0.0000394
   4920.752  0.0001664  0.0000440
   4899.220  0.0001636  0.0000444
   4877.828  0.0002318  0.0000521
   4856.576  0.0002591  0.0000521
   4835.463  0.0001373  0.0000378
   4814.486  0.0001808  0.0000439
   4793.646  0.0001095  0.0000418
   4772.942  0.0002475  0.0000560
   4752.371  0.0001500  0.0000400
   4731.933  0.0001712  0.0000440
   4711.626  0.0001774  0.0000430
   4691.450  0.0001369  0.0000469
   4671.403  0.0000337  0.0000384
   4651.484  0.0000224  0.0000397
   4631.693  0.0000898  0.0000393
   4612.027  0.0000491  0.0000359
   4592.487  0.0000238  0.0000346
   4573.070  0.0000771  0.0000348
   4553.776  0.0000268  0.0000362
   4534.604  0.0000455  0.0000356
   4515.553  0.0000252  0.0000358
   4496.623  0.0000355  0.0000385
   4468.448  0.0000091  0.0000255
   4431.292  0.0000248  0.0000274
   4394.597  0.0000260  0.0000264
   4358.357  0.0000300  0.0000282
   4322.563  0.0000656  0.0000335
   4287.208  0.0000373  0.0000284
   4252.285  0.0000354  0.0000286
   4217.787  0.0000759  0.0000295
   4183.708  0.0000452  0.0000278
   4150.039  0.0000614  0.0000274
   4116.775  0.0000281  0.0000278
   4083.910  0.0000600  0.0000310
   4051.437  0.0000267  0.0000280
   4019.349  0.0000522  0.0000322
   3987.642  0.0000166  0.0000277
   3956.307  0.0000096  0.0000284
   3925.341  0.0000276  0.0000275
   3894.737  0.0000186  0.0000274
   3864.490  0.0000304  0.0000281
   3843.526  0.0000056  0.0000391
   3831.623  0.0000834  0.0000422
   3819.775  0.0000457  0.0000449
   3807.982  0.0000337  0.0000491
   3796.244  0.0000819  0.0000428
   3784.560  0.0000336  0.0000392
   3772.929  0.0000752  0.0000467
   3761.353  0.0000430  0.0000428
   3749.829  0.0000727  0.0000458
   3738.358  0.0000617  0.0000424
   3726.940  0.0001459  0.0000454
   3715.574  0.0000837  0.0000378
   3704.260  0.0001395  0.0000481
   3692.997  0.0000638  0.0000494
   3681.787  0.0001007  0.0000464
   3670.627  0.0001126  0.0000464
   3659.517  0.0000944  0.0000464
   3648.458  0.0001490  0.0000502
   3637.448  0.0000792  0.0000471
   3626.489  0.0000617  0.0000461
   3615.579  0.0000625  0.0000412
   3604.719  0.0000327  0.0000489
   3593.907  0.0000458  0.0000380
   3583.144  0.0000698  0.0000560
   3572.428  0.0001023  0.0000435
   3561.762  0.0000646  0.0000426
   3551.142  0.0000681  0.0000494
   3540.570  0.0000922  0.0000509
   3530.045  0.0000607  0.0000490
   3519.568  0.0000840  0.0000496
   3501.344  0.0000027  0.0000261
   3475.553  0.0000162  0.0000273
   3450.047  0.0000213  0.0000291
   3424.820  0.0000208  0.0000303
   3399.869  0.0000090  0.0000265
   3375.190  0.0000138  0.0000284
   3350.778 -0.0000032  0.0000271
   3326.631  0.0000150  0.0000278
   3309.883  0.0000343  0.0000526
   3300.368  0.0000093  0.0000487
   3290.896  0.0000949  0.0000443
   3281.464  0.0000367  0.0000547
   3272.072  0.0001002  0.0000505
   3262.721  0.0000820  0.0000419
   3253.410  0.0001164  0.0000552
   3244.138  0.0001197  0.0000472
   3234.906  0.0002090  0.0000578
   3225.714  0.0002155  0.0000597
   3216.561  0.0002576  0.0000698
   3207.446  0.0001700  0.0000508
   3198.370  0.0002583  0.0000649
   3189.333  0.0002581  0.0000714
   3180.333  0.0001962  0.0000562
   3171.372  0.0002629  0.0000658
   3162.449  0.0002248  0.0000649
   3153.563  0.0001118  0.0000563
   3144.715  0.0000945  0.0000527
   3135.904  0.0001003  0.0000435
   3127.130  0.0000617  0.0000506
   3118.393  0.0001992  0.0000637
   3109.692  0.0000064  0.0000475
   3101.028  0.0001837  0.0000603
   3092.399  0.0001307  0.0000521
   3083.807  0.0001942  0.0000616
   3075.250  0.0001124  0.0000478
   3066.729  0.0001239  0.0000587
   3058.244  0.0001275  0.0000504
   3049.794  0.0001180  0.0000504
   3041.378  0.0000557  0.0000519
   3032.997  0.0000228  0.0000555
   3024.651  0.0001310  0.0000537
   3016.340  0.0000392  0.0000446
   3008.062  0.0001304  0.0000501
   2999.819  0.0000812  0.0000486
   2991.609  0.0000504  0.0000506
   2982.414  0.0000555  0.0000452
   2972.246  0.0000719  0.0000441
   2962.130  0.0000418  0.0000528
   2952.066  0.0000588  0.0000465
   2942.053  0.0000850  0.0000494
   2932.091  0.0000306  0.0000512
   2922.179  0.0000431  0.0000474
   2912.318  0.0000307  0.0000524
   2902.506  0.0000525  0.0000439
   2892.744  0.0000617  0.0000420
   2883.031  0.0000899  0.0000427
   2873.367  0.0000765  0.0000491
   2863.751  0.0000801  0.0000496
   2854.184  0.0000871  0.0000432
   2844.665  0.0000697  0.0000414
   2835.193  0.0000742  0.0000499
   2825.768  0.0000042  0.0000444
   2816.390  0.0000944  0.0000531
   2807.059  0.0000559  0.0000435
   2797.774  0.0000834  0.0000524
   2783.933  0.0000230  0.0000325
   2765.637  0.0000153  0.0000337
   2747.521  0.0000032  0.0000338
   2729.582 -0.0000110  0.0000305
   2711.819  0.0000089  0.0000339
   2694.228  0.0000174  0.0000368
   2676.808  0.0000102  0.0000314
   2659.556  0.0000329  0.0000339
   2642.471  0.0000169  0.0000352
   2625.550  0.0000041  0.0000315
   2608.790  0.0000171  0.0000303
   2592.191  0.0000245  0.0000351
   2575.750  0.0000091  0.0000348
   2559.464  0.0000136  0.0000341
   2548.156  0.0000289  0.0000588
   2541.728 -0.0000122  0.0000538
   2535.324  0.0000828  0.0000475
   2528.944  0.0000082  0.0000589
   2522.589  0.0001143  0.0000692
   2516.257  0.0001761  0.0000651
   2509.949  0.0003079  0.0000798
   2503.665  0.0002257  0.0000667
   2497.404  0.0002360  0.0000704
   2491.167  0.0003774  0.0000863
   2484.953  0.0004229  0.0000893
   2478.762  0.0005580  0.0001095
   2472.594  0.0007533  0.0001289
   2466.450  0.0006835  0.0001208
   2460.329  0.0007976  0.0001268
   2454.229  0.0006375  0.0001104
   2448.153  0.0005445  0.0001033
   2442.099  0.0006231  0.0001101
   2436.068  0.0004005  0.0000866
   2430.059  0.0004203  0.0000889
   2424.073  0.0005038  0.0001027
   2418.108  0.0005541  0.0001070
   2412.165  0.0004592  0.0000953
   2406.244  0.0006814  0.0001207
   2400.345  0.0004318  0.0000932
   2394.468  0.0004901  0.0001000
   2388.613  0.0004775  0.0000997
   2382.778  0.0003518  0.0000858
   2376.965  0.0002992  0.0000879
   2371.173  0.0001570  0.0000630
   2365.403  0.0002466  0.0000677
   2359.653  0.0001656  0.0000616
   2353.924  0.0001946  0.0000607
   2348.216  0.0000486  0.0000598
   2342.530  0.0000847  0.0000693
   2336.863  0.0001249  0.0000657
   2331.217  0.0000630  0.0000585
   2325.592  0.0000079  0.0000577
   2319.986  0.0000098  0.0000622
   2314.402 -0.0000120  0.0000528
   2304.677  0.0000109  0.0000380
   2290.889  0.0000120  0.0000370
   2277.226  0.0000032  0.0000355
   2263.684  0.0000173  0.0000356
   2250.262  0.0000092  0.0000363
   2236.960  0.0000105  0.0000370
   2223.775  0.0000044  0.0000382
   2210.707  0.0000237  0.0000384
   2197.753  0.0000312  0.0000391
   2184.913  0.0000118  0.0000400
   2172.185  0.0000448  0.0000414
   2159.568  0.0000454  0.0000399
   2147.060  0.0000366  0.0000410
   2134.661  0.0000485  0.0000358
   2126.045  0.0000762  0.0000605
   2121.146  0.0000499  0.0000739
   2116.263  0.0000232  0.0000504
   2111.397  0.0000459  0.0000625
   2106.548 -0.0000131  0.0000576
   2101.715  0.0000838  0.0000621
   2096.899  0.0000269  0.0000611
   2092.100  0.0000276  0.0000578
   2087.317  0.0000657  0.0000637
   2082.550  0.0001112  0.0000682
   2077.800  0.0001467  0.0000751
   2073.066  0.0000700  0.0000676
   2068.348  0.0000523  0.0000791
   2063.646  0.0001724  0.0000666
   2058.960  0.0000856  0.0000671
   2054.290  0.0000466  0.0000590
   2049.636  0.0000442  0.0000587
   2044.998 -0.0000130  0.0000570
   2040.376  0.0001044  0.0000648
   2035.769  0.0001082  0.0000683
   2031.178  0.0000329  0.0000575
   2026.602  0.0000067  0.0000619
   2022.042  0.0000071  0.0000601
   2017.497 -0.0000119  0.0000523
   2012.967  0.0000647  0.0000526
   2008.453  0.0000074  0.0000609
   2003.954  0.0001723  0.0000693
   1999.469  0.0001556  0.0000642
   1995.001  0.0000815  0.0000653
   1990.546  0.0000432  0.0000597
   1986.107  0.0001532  0.0000562
   1981.683  0.0001866  0.0000703
   1977.273  0.0001073  0.0000547
   1972.878  0.0002242  0.0000800
   1968.499  0.0002452  0.0000758
   1964.133  0.0002460  0.0000730
   1959.782  0.0002096  0.0000724
   1955.445  0.0002459  0.0000711
   1951.123  0.0002080  0.0000650
   1946.814  0.0000886  0.0000730
   1942.521  0.0001874  0.0000747
   1938.241  0.0001233  0.0000829
   1933.976  0.0000695  0.0000556
   1929.724  0.0002949  0.0000790
   1925.487  0.0001751  0.0000700
   1921.264  0.0001632  0.0000695
   1917.054  0.0000693  0.0000721
   1912.858  0.0001061  0.0000636
   1908.677  0.0000753  0.0000691
   1904.508  0.0001631  0.0000816
   1900.354  0.0000683  0.0000779
   1896.213  0.0001529  0.0000883
   1892.085  0.0001388  0.0000734
   1887.971  0.0000702  0.0000691
   1883.870  0.0000868  0.0000599
   1879.783  0.0000458  0.0000693
   1875.708  0.0000057  0.0000658
   1871.648  0.0001283  0.0000594
   1867.600  0.0000097  0.0000687
   1863.566  0.0000310  0.0000611
   1859.544  0.0000284  0.0000720
   1855.536  0.0000467  0.0000618
   1851.540  0.0000494  0.0000656
   1847.558  0.0000731  0.0000708
   1843.588 -0.0000118  0.0000520
   1839.631 -0.0000133  0.0000587
   1835.687  0.0000092  0.0000684
   1831.755  0.0000067  0.0000642
   1827.836  0.0000491  0.0000632
   1823.930  0.0000095  0.0000696
   1820.036  0.0001392  0.0000630
   1816.154  0.0000288  0.0000717
   1809.391  0.0000201  0.0000420
   1799.796  0.0000207  0.0000447
   1790.276  0.0000127  0.0000432
   1780.832  0.0000213  0.0000440
   1771.462 -0.0000132  0.0000368
   1762.166  0.0000050  0.0000427
   1752.943  0.0000222  0.0000417
   1743.792  0.0000049  0.0000440
   1734.713  0.0000050  0.0000439
   1725.704  0.0000371  0.0000447
   1716.766  0.0000243  0.0000421
   1707.897  0.0000384  0.0000427
   1699.096  0.0000110  0.0000414
   1690.363  0.0000139  0.0000430
   1681.697  0.0000222  0.0000464
   1673.098  0.0000428  0.0000430
   1664.564  0.0000240  0.0000450
   1656.096  0.0000410  0.0000482
   1647.692  0.0000128  0.0000425
   1639.352  0.0000121  0.0000443
   1631.075  0.0000347  0.0000456
   1622.861 -0.0000062  0.0000442
   1614.708  0.0000118  0.0000421
   1606.617  0.0000034  0.0000419
   1598.586  0.0000041  0.0000444
   1590.616  0.0000019  0.0000399
   1582.705  0.0000142  0.0000467
   1574.852 -0.0000053  0.0000425
   1567.058  0.0000127  0.0000448
   1559.322 -0.0000145  0.0000403
   1551.643  0.0000046  0.0000434
   1544.021  0.0000029  0.0000438
   1536.454  0.0000127  0.0000465
   1530.816  0.0000363  0.0000646
   1527.074  0.0000443  0.0000625
   1523.346  0.0000754  0.0000612
   1519.632  0.0000613  0.0000680
   1515.931  0.0000614  0.0000686
   1512.244  0.0001992  0.0000672
   1508.570  0.0001315  0.0000793
   1504.910  0.0000973  0.0000695
   1501.262  0.0000479  0.0000819
   1497.628  0.0000431  0.0000750
   1494.008  0.0001373  0.0000761
   1490.400  0.0001363  0.0000807
   1486.805  0.0001432  0.0000782
   1483.224  0.0001250  0.0000799
   1479.655  0.0000242  0.0000714
   1476.100  0.0001106  0.0000702
   1472.557  0.0000806  0.0000674
   1469.026 -0.0000154  0.0000608
   1465.509  0.0000859  0.0000637
   1462.004  0.0000973  0.0000730
   1458.511  0.0000045  0.0000638
   1455.031  0.0000207  0.0000719
   1451.564  0.0000113  0.0000688
   1446.386  0.0000032  0.0000460
   1439.525  0.0000162  0.0000540
   1432.713  0.0000059  0.0000531
   1425.948  0.0000029  0.0000540
   1419.232  0.0000034  0.0000459
   1412.563  0.0000277  0.0000541
   1405.941  0.0000043  0.0000488
   1401.005  0.0000391  0.0000725
   1397.729  0.0000475  0.0000723
   1394.464  0.0001071  0.0000743
   1391.211  0.0000483  0.0000690
   1387.969  0.0000632  0.0000676
   1384.738  0.0000228  0.0000637
   1381.519  0.0000660  0.0000743
   1378.311  0.0000050  0.0000679
   1375.114  0.0000275  0.0000793
   1371.928  0.0000844  0.0000782
   1368.753 -0.0000167  0.0000659
   1365.589  0.0000241  0.0000711
   1362.436  0.0000394  0.0000642
   1359.294  0.0000273  0.0000740
   1356.163  0.0000720  0.0000686
   1353.043  0.0000475  0.0000820
   1349.933  0.0000923  0.0000844
   1346.834  0.0000240  0.0000735
   1343.746  0.0000494  0.0000749
   1340.668  0.0000660  0.0000740
   1337.602  0.0000829  0.0000750
   1334.545  0.0000679  0.0000853
   1331.499  0.0000070  0.0000704
   1328.463  0.0000270  0.0000760
   1325.438  0.0000255  0.0000783
   1322.423  0.0000045  0.0000712
   1319.419 -0.0000158  0.0000621
   1316.424  0.0000393  0.0000652
   1311.952  0.0000293  0.0000557
   1306.024  0.0000249  0.0000531
   1300.136  0.0000346  0.0000550
   1294.287 -0.0000169  0.0000471
   1288.478 -0.0000068  0.0000478
   1282.708  0.0000049  0.0000500
   1276.977  0.0000017  0.0000503
   1271.285 -0.0000067  0.0000497
   1265.630  0.0000119  0.0000499
   1260.012  0.0000375  0.0000560
   1254.433  0.0000518  0.0000582
   1248.890  0.0000040  0.0000567
   1243.383  0.0000164  0.0000538
   1237.913  0.0000164  0.0000542
   1232.479  0.0000139  0.0000509
   1227.081  0.0000251  0.0000558
   1221.719  0.0000029  0.0000491
   1216.391  0.0000152  0.0000507
   1211.098  0.0000047  0.0000516
   1205.839  0.0000151  0.0000530
   1200.615  0.0000408  0.0000527
   1195.425  0.0000605  0.0000528
   1190.268  0.0000681  0.0000551
   1186.678  0.0000676  0.0001030
   1184.633  0.0000591  0.0000781
   1182.595  0.0001216  0.0000863
   1180.561  0.0001178  0.0000801
   1178.533  0.0000438  0.0000921
   1176.510  0.0000931  0.0000791
   1174.492  0.0003024  0.0001158
   1172.479  0.0002822  0.0001013
   1170.472  0.0003694  0.0001056
   1168.469  0.0004904  0.0001164
   1166.472  0.0003235  0.0000945
   1164.480  0.0004007  0.0001163
   1162.492  0.0008198  0.0001632
   1160.510  0.0008773  0.0001678
   1158.533  0.0011356  0.0001909
   1156.562  0.0012620  0.0001933
   1154.595  0.0012243  0.0001960
   1152.633  0.0011236  0.0001941
   1150.676  0.0013500  0.0002099
   1148.725  0.0009313  0.0001691
   1146.777  0.0009866  0.0001691
   1144.836  0.0013591  0.0002201
   1142.898  0.0009724  0.0001726
   1140.966  0.0011345  0.0002015
   1139.039  0.0010924  0.0001876
   1137.117  0.0012811  0.0002145
   1135.200  0.0009716  0.0001871
   1133.287  0.0008601  0.0001615
   1131.379  0.0009153  0.0001804
   1129.476  0.0009415  0.0001735
   1127.578  0.0007003  0.0001480
   1125.685  0.0002285  0.0001083
   1123.796  0.0006212  0.0001532
   1121.912  0.0005892  0.0001499
   1120.033  0.0005793  0.0001507
   1118.158  0.0005365  0.0001349
   1116.289  0.0002982  0.0001113
   1114.423  0.0002504  0.0001157
   1112.563  0.0001349  0.0001116
   1110.708  0.0000419  0.0000984
   1108.856  0.0000113  0.0000928
   1107.010  0.0000477  0.0001099
   1103.790  0.0000460  0.0000717
   1099.214  0.0000278  0.0000584
   1094.666  0.0000058  0.0000597
   1090.146 -0.0000078  0.0000574
   1085.655  0.0000254  0.0000559
   1081.191  0.0000292  0.0000563
   1076.755  0.0000457  0.0000598
   1072.346  0.0000063  0.0000596
   1067.964 -0.0000071  0.0000547
   1063.609  0.0000056  0.0000583
   1059.280 -0.0000192  0.0000535
   1054.977  0.0000291  0.0000604
   1050.701  0.0000058  0.0000580
   1046.451  0.0000294  0.0000576
   1042.227  0.0000314  0.0000618
   1038.028 -0.0000073  0.0000571
   1033.854 -0.0000189  0.0000527
   1029.705  0.0000063  0.0000568
   1025.582  0.0000060  0.0000564
   1021.483  0.0000496  0.0000597
   1017.409  0.0000564  0.0000589
   1013.359  0.0000632  0.0000578
   1009.333  0.0000419  0.0000532
   1006.529 -0.0000199  0.0000873
   1004.932  0.0000462  0.0000957
   1003.339  0.0000792  0.0001002
   1001.750  0.0001682  0.0001111
   1000.164  0.0002149  0.0000922
    998.582  0.0001878  0.0000831
    997.004  0.0003015  0.0001100
    995.430  0.0002245  0.0001106
    993.859  0.0003347  0.0001171
    992.292  0.0008598  0.0001801
    990.729  0.0005268  0.0001318
    989.170  0.0004468  0.0001238
    987.614  0.0007593  0.0001658
    986.062  0.0008420  0.0001652
    984.513  0.0007398  0.0001574
    982.968  0.0006139  0.0001454
    981.427  0.0009108  0.0001738
    979.889  0.0005939  0.0001362
    978.355  0.0005886  0.0001359
    976.825  0.0006723  0.0001491
    975.298  0.0003261  0.0001250
    973.775  0.0005570  0.0001323
    972.255  0.0003846  0.0001217
    970.739  0.0006087  0.0001451
    969.226  0.0001920  0.0001018
    967.718  0.0004950  0.0001239
    966.212  0.0004332  0.0001255
    964.710  0.0003683  0.0001137
    963.211  0.0002662  0.0001170
    961.716  0.0001578  0.0001032
    960.225  0.0001386  0.0001161
    958.737  0.0000765  0.0001125
    957.252  0.0001337  0.0000960
    955.771  0.0001350  0.0000913
    954.293  0.0000723  0.0001041
    952.819  0.0000102  0.0000949
    951.348 -0.0000189  0.0000833
    949.514  0.0000664  0.0000816
    947.321  0.0000216  0.0000846
    945.135  0.0000431  0.0000873
    942.956  0.0000018  0.0000778
    940.785  0.0000477  0.0000907
    938.622  0.0000714  0.0000827
    936.466  0.0000247  0.0000858
    934.317  0.0000229  0.0000763
    932.176  0.0000029  0.0000806
    930.042 -0.0000003  0.0000816
    927.916  0.0000728  0.0000775
    925.796  0.0000819  0.0000890
    923.684  0.0000268  0.0000797
    921.580  0.0000491  0.0000904
    919.831  0.0000586  0.0001017
    918.436  0.0000505  0.0001208
    917.044  0.0001828  0.0000921
    915.655  0.0003959  0.0001346
    914.269  0.0003295  0.0001201
    912.887  0.0004481  0.0001306
    911.507  0.0003233  0.0001192
    910.131  0.0004743  0.0001272
    908.758  0.0004772  0.0001429
    907.388  0.0005967  0.0001590
    906.021  0.0008104  0.0001719
    904.657  0.0006530  0.0001514
    903.296  0.0007161  0.0001602
    901.938  0.0006363  0.0001433
    900.583  0.0007852  0.0001662
    899.232  0.0005788  0.0001338
    897.883  0.0010721  0.0001954
    896.538  0.0005034  0.0001343
    895.195  0.0006045  0.0001477
    893.855  0.0007006  0.0001585
    892.519  0.0006601  0.0001533
    891.185  0.0005768  0.0001451
    889.855  0.0005979  0.0001456
    888.527  0.0004980  0.0001286
    887.203  0.0005473  0.0001335
    885.881  0.0004557  0.0001260
    884.562  0.0004626  0.0001237
    883.246  0.0004710  0.0001259
    881.934  0.0001268  0.0001199
    880.624  0.0001894  0.0001239
    879.317  0.0001260  0.0001183
    878.013  0.0001685  0.0001328
    876.711  0.0001527  0.0001041
    875.413  0.0001324  0.0001232
    874.118  0.0000869  0.0001323
    872.825 -0.0000224  0.0000985
    871.536  0.0000111  0.0000963
    869.286  0.0000328  0.0000703
    866.086  0.0000081  0.0000707
    862.905 -0.0000229  0.0000640
    859.740  0.0000032  0.0000621
    856.594 -0.0000226  0.0000630
    853.464  0.0000201  0.0000689
    850.352  0.0000055  0.0000681
    847.256 -0.0000072  0.0000655
    844.178 -0.0000077  0.0000636
    841.116  0.0000048  0.0000665
    838.071  0.0000214  0.0000718
    835.042  0.0000185  0.0000637
    832.030  0.0000065  0.0000681
    829.034 -0.0000106  0.0000645
    826.054  0.0000071  0.0000632
    823.090  0.0000191  0.0000695
    820.142  0.0000667  0.0000690
    817.210 -0.0000102  0.0000684
    814.294  0.0000320  0.0000697
    811.393  0.0000202  0.0000705
    808.508 -0.0000220  0.0000614
    805.638 -0.0000217  0.0000604
    802.783 -0.0000091  0.0000666
    799.943  0.0000191  0.0000676
    797.119  0.0000064  0.0000683
    794.309 -0.0000225  0.0000626
    791.514  0.0000332  0.0000689
    788.734  0.0000052  0.0000737
    785.969  0.0000087  0.0000683
    783.218  0.0000058  0.0000715
    780.482  0.0000191  0.0000694
    777.759  0.0000086  0.0000712
    775.051  0.0000049  0.0000682
    772.357  0.0000200  0.0000671
    769.678 -0.0000088  0.0000677
    767.012  0.0000070  0.0000707
    764.360  0.0000202  0.0000736
    761.721 -0.0000098  0.0000679
    759.097  0.0000083  0.0000778
    756.485  0.0000341  0.0000756
    753.888 -0.0000086  0.0000738
    751.303  0.0000227  0.0000775
    748.732  0.0000057  0.0000760
    746.174  0.0000218  0.0000741
    743.630  0.0000415  0.0000793
    741.098  0.0000221  0.0000781
    738.579  0.0000254  0.0000813
    736.073  0.0000408  0.0000818
    733.579  0.0000180  0.0000726
    731.099 -0.0000228  0.0000638
    728.630  0.0000062  0.0000736
    726.175  0.0000226  0.0000754
    723.732 -0.0000097  0.0000715
    721.301  0.0000064  0.0000707
    718.882  0.0000081  0.0000752
    716.475  0.0000663  0.0000746
    714.081  0.0000856  0.0000743
    711.698  0.0000246  0.0000748
    709.328  0.0000241  0.0000683
    706.969  0.0000454  0.0000711
    704.622  0.0000869  0.0000732
    702.286  0.0000613  0.0000798
    699.962  0.0000470  0.0000681
    697.650  0.0001041  0.0000684
    695.349  0.0000246  0.0000690
    693.060  0.0000052  0.0000791
    690.781 -0.0000096  0.0000715
    688.514  0.0000083  0.0000780
    686.259 -0.0000093  0.0000716
    684.014  0.0000221  0.0000792
    681.780 -0.0000101  0.0000718
    679.557  0.0000069  0.0000779
    677.345  0.0000539  0.0000783
    675.144 -0.0000107  0.0000784
    672.953 -0.0000081  0.0000747
    670.774 -0.0000098  0.0000787
    668.604  0.0000242  0.0000850
    666.445 -0.0000263  0.0000733
    664.297  0.0000234  0.0000788
    662.159 -0.0000118  0.0000747
    660.031 -0.0000246  0.0000686
    657.914  0.0000085  0.0000757
    655.807  0.0000532  0.0000781
    653.710 -0.0000249  0.0000695
    651.622  0.0000255  0.0000815
    649.545  0.0000216  0.0000763
    647.478 -0.0000255  0.0000710
    645.421 -0.0000073  0.0000745
    643.373 -0.0000254  0.0000709
    641.335 -0.0000095  0.0000772
    639.307  0.0000079  0.0000800
    637.289 -0.0000273  0.0000759
    635.280  0.0000131  0.0000747
    633.280  0.0000066  0.0000776
    631.290  0.0000570  0.0000888
    629.309  0.0000408  0.0000836
    627.338 -0.0000272  0.0000759
    625.375  0.0000057  0.0000773
    623.423 -0.0000107  0.0000813
    621.479  0.0000238  0.0000841
    619.544  0.0000555  0.0000804
    617.618  0.0000061  0.0000800
    615.701  0.0000073  0.0000750
    613.793  0.0000270  0.0000864
    611.894  0.0000038  0.0000771
    610.004 -0.0000086  0.0000727
    608.123 -0.0000103  0.0000798
    606.250 -0.0000084  0.0000778
    604.386 -0.0000097  0.0000737
    602.530  0.0000279  0.0000785
    600.683  0.0000208  0.0000798
    598.844 -0.0000092  0.0000737
    597.014  0.0000220  0.0000823
    595.193 -0.0000078  0.0000801
    593.379 -0.0000099  0.0000776
    591.574 -0.0000264  0.0000736
    589.777  0.0000030  0.0000807
    587.988  0.0000286  0.0000858
    586.208  0.0000591  0.0000865
    584.435  0.0000554  0.0000794
    582.671 -0.0000101  0.0000787
    580.914  0.0000436  0.0000880
    579.165 -0.0000275  0.0000767
    577.425 -0.0000283  0.0000788
    575.692 -0.0000103  0.0000788
    573.967 -0.0000268  0.0000746
    572.249  0.0000191  0.0000810
    570.540  0.0000099  0.0000750
    568.837 -0.0000101  0.0000810
    567.143  0.0000054  0.0000817
    565.877  0.0000089  0.0001134
    565.036  0.0000446  0.0001294
    564.196  0.0000831  0.0001183
    563.358  0.0001048  0.0001039
    562.522  0.0001829  0.0001243
    561.688  0.0002978  0.0001317
    560.856  0.0001069  0.0001162
    560.026  0.0004987  0.0001475
    559.197  0.0002416  0.0001189
    558.370  0.0003117  0.0001385
    557.546  0.0005693  0.0001549
    556.723  0.0005201  0.0001473
    555.901  0.0006180  0.0001519
    555.082  0.0007180  0.0001692
    554.264  0.0004164  0.0001399
    553.448  0.0005426  0.0001769
    552.634  0.0007171  0.0001628
    551.822  0.0004887  0.0001626
    551.012  0.0003765  0.0001415
    550.203  0.0004533  0.0001579
    549.396  0.0003029  0.0001515
    548.591  0.0002844  0.0001297
    547.788  0.0001598  0.0001420
    546.987  0.0002655  0.0001447
    546.187  0.0001897  0.0001259
    545.389  0.0002155  0.0001372
    544.593  0.0001111  0.0001439
    543.798  0.0000408  0.0001282
    543.005  0.0001184  0.0001290
    542.214 -0.0000269  0.0001058
    541.425  0.0000115  0.0001231
    540.244  0.0000065  0.0000849
    538.676  0.0000277  0.0000935
    537.114 -0.0000267  0.0000741
    535.559  0.0000461  0.0000973
    534.011  0.0000069  0.0000907
    532.470 -0.0000094  0.0000881
    530.935 -0.0000108  0.0000818
    529.407  0.0000094  0.0000892
    527.886 -0.0000309  0.0000863
    526.371 -0.0000307  0.0000855
    524.863  0.0000082  0.0000937
    523.361  0.0000273  0.0000920
    521.865  0.0000684  0.0000961
    520.376 -0.0000311  0.0000867
    518.893  0.0000093  0.0000867
    517.417 -0.0000117  0.0000811
    515.947  0.0000306  0.0000845
    514.483 -0.0000133  0.0000822
    513.025  0.0000333  0.0000986
    511.574  0.0000249  0.0000893
    510.129  0.0000051  0.0000898
    508.690  0.0000574  0.0000922
    507.256  0.0000268  0.0000921
    505.829 -0.0000131  0.0000866
    504.408  0.0000068  0.0000863
    502.993 -0.0000308  0.0000857
    501.584  0.0000282  0.0000957
    500.181  0.0000073  0.0000886
    498.784 -0.0000121  0.0000847
    497.392  0.0000434  0.0000975
    496.007  0.0000069  0.0000919
    494.627 -0.0000104  0.0000909
    493.253  0.0000274  0.0000968
    491.884  0.0000070  0.0000925
    490.522  0.0000276  0.0000863
    489.165 -0.0000304  0.0000848
    487.813  0.0000044  0.0000809
    486.467 -0.0000111  0.0000906
    485.127  0.0000261  0.0000902
    483.792  0.0000295  0.0000994
    482.463  0.0000635  0.0000947
    481.139  0.0000264  0.0000999
    479.821  0.0000803  0.0000960
    478.508  0.0000870  0.0000963
    477.592  0.0000171  0.0001488
    477.070  0.0001764  0.0002018
    476.549  0.0001660  0.0001448
    476.028  0.0000601  0.0001449
    475.509  0.0000159  0.0001586
    474.990  0.0001639  0.0001581
    474.472  0.0002199  0.0001569
    473.955  0.0001601  0.0001830
    473.439  0.0003714  0.0001385
    472.924  0.0002015  0.0001504
    472.409  0.0003602  0.0001528
    471.895  0.0004526  0.0001670
    471.382  0.0003632  0.0001829
    470.870  0.0002234  0.0001589
    470.359  0.0005724  0.0001927
    469.849  0.0004451  0.0002037
    469.339  0.0007301  0.0001965
    468.831  0.0003640  0.0001731
    468.323  0.0006232  0.0001737
    467.816  0.0002617  0.0001597
    467.310  0.0007453  0.0001947
    466.804  0.0006042  0.0001934
    466.300  0.0005285  0.0001671
    465.796  0.0003752  0.0001562
    465.293  0.0002081  0.0001508
    464.791  0.0005060  0.0001793
    464.290  0.0001732  0.0001600
    463.789  0.0000126  0.0001546
    463.289  0.0001796  0.0001395
    462.790 -0.0000305  0.0001340
    462.292  0.0000991  0.0001575
    461.795  0.0002673  0.0001643
    461.299  0.0001217  0.0001603
    460.803  0.0000119  0.0001434
    460.308  0.0000694  0.0001740
    459.814  0.0000152  0.0001592
    459.321  0.0001576  0.0001602
    458.459  0.0000071  0.0000893
    457.233  0.0000310  0.0000957
    456.012  0.0000103  0.0001009
    454.795  0.0000274  0.0000947
    453.584 -0.0000136  0.0000971
    452.377 -0.0000109  0.0000934
    451.175 -0.0000101  0.0001013
    449.978  0.0000460  0.0000905
    448.785  0.0000516  0.0001081
    447.598 -0.0000101  0.0000974
    446.415  0.0000084  0.0001026
    445.236  0.0000299  0.0000942
    444.063  0.0000089  0.0000956
    442.894 -0.0000122  0.0000993
    441.729 -0.0000334  0.0000928
    440.570 -0.0000126  0.0000929
    439.414  0.0000082  0.0001082
    438.264 -0.0000114  0.0000995
    437.117  0.0000304  0.0001017
    435.976 -0.0000325  0.0000905
    434.838  0.0000081  0.0001033
    433.706 -0.0000334  0.0000928
    432.577  0.0000266  0.0001017
    431.453 -0.0000325  0.0000908
    430.334 -0.0000088  0.0000956
    429.218  0.0000468  0.0000979
    428.107  0.0000253  0.0001005
    427.001 -0.0000337  0.0000938
    425.899 -0.0000126  0.0000997
    424.800  0.0000495  0.0001017
    423.707 -0.0000344  0.0000961
    422.617 -0.0000124  0.0000943
    421.532 -0.0000139  0.0001063
    420.450  0.0000899  0.0001120
    419.373 -0.0000131  0.0000961
    418.300 -0.0000361  0.0001004
    417.232  0.0000325  0.0001067
    416.167  0.0000795  0.0001115
    415.106 -0.0000143  0.0001014
    414.050 -0.0000128  0.0001033
    412.997  0.0000077  0.0001041
    411.948 -0.0000349  0.0000974
    410.904  0.0000074  0.0001086
    409.863 -0.0000106  0.0001024
    408.826 -0.0000137  0.0001041
    407.794 -0.0000129  0.0001035
    406.765  0.0000119  0.0001149
    405.740 -0.0000163  0.0001154
    404.719  0.0000085  0.0001242
    403.702  0.0000587  0.0001191
    402.183 -0.0000324  0.0000931
    400.171  0.0000113  0.0000930
    398.175 -0.0000031  0.0000886
    396.193  0.0000488  0.0000982
    394.226  0.0000501  0.0001233
    392.274 -0.0000251  0.0001206
    390.336  0.0000223  0.0000973
    388.413 -0.0000248  0.0000766
    386.503 -0.0000252  0.0000755
    384.608 -0.0000252  0.0000719
    382.727  0.0000118  0.0000794
    380.859 -0.0000123  0.0000785
    379.005  0.0000205  0.0000821
    377.165  0.0000198  0.0000801
    375.338  0.0000074  0.0000777
    373.524 -0.0000064  0.0000731
    371.723  0.0000108  0.0000816
    369.935  0.0000217  0.0000857
    368.161  0.0000100  0.0000832
    366.398  0.0000077  0.0000818
    364.649 -0.0000035  0.0000824
    362.912  0.0000484  0.0000869
    361.833  0.0000560  0.0001786
    361.402  0.0001602  0.0001469
    360.973  0.0000080  0.0001709
    360.544  0.0000529  0.0001674
    360.116  0.0001997  0.0001601
    359.688  0.0001620  0.0001876
    359.262  0.0001053  0.0001682
    358.836  0.0002564  0.0001757
    358.411  0.0002226  0.0001969
    357.987  0.0005518  0.0001943
    357.563  0.0001670  0.0002106
    357.140  0.0002656  0.0001800
    356.718  0.0000642  0.0001868
    356.297  0.0002635  0.0001757
    355.876  0.0001241  0.0002231
    355.457  0.0002450  0.0001665
    355.038  0.0001658  0.0001869
    354.619 -0.0000414  0.0001631
    354.202  0.0000603  0.0002009
    353.785  0.0000084  0.0001829
    353.369  0.0002925  0.0002003
    352.953  0.0002650  0.0001844
    352.539  0.0001209  0.0002121
    352.125  0.0000644  0.0002031
    351.712 -0.0000461  0.0001812
    351.299  0.0000083  0.0002203
    350.271  0.0000099  0.0000981
    348.636  0.0000412  0.0001016
    347.012 -0.0000323  0.0000988
    345.399  0.0000100  0.0000990
    343.798 -0.0000237  0.0001012
    342.207 -0.0000149  0.0001018
    340.628 -0.0000169  0.0001017
    339.060  0.0000176  0.0001026
    337.502 -0.0000058  0.0001083
    335.955 -0.0000054  0.0001002
    334.994  0.0001812  0.0002083
    334.610  0.0000087  0.0002053
    334.228  0.0000091  0.0002031
    333.846  0.0000151  0.0002196
    333.464  0.0001340  0.0002411
    333.083  0.0006153  0.0002568
    332.703  0.0001315  0.0002099
    332.324  0.0002927  0.0002008
    331.945  0.0006191  0.0002441
    331.567  0.0001532  0.0002200
    331.189  0.0001298  0.0002182
    330.812  0.0002524  0.0002308
    330.436  0.0002971  0.0002161
    330.060  0.0001911  0.0002133
    329.685  0.0003253  0.0001851
    329.311  0.0002151  0.0002006
    328.937  0.0001765  0.0001880
    328.564  0.0001889  0.0001810
    328.192  0.0000694  0.0002003
    327.820  0.0001750  0.0002164
    327.449  0.0000650  0.0001916
    327.078  0.0000630  0.0001731
    326.709  0.0001240  0.0002190
    326.339  0.0001215  0.0002067
    325.971  0.0000117  0.0001920
    325.603  0.0000601  0.0001789
    325.235  0.0001318  0.0002213
    324.868 -0.0000432  0.0001702
    324.502  0.0000240  0.0001960
    324.137 -0.0000454  0.0001789
    323.772  0.0000676  0.0001729
    323.407  0.0000697  0.0002065
    323.044 -0.0000445  0.0001748
    322.681 -0.0000419  0.0001654
    322.318  0.0002074  0.0001987
    321.956  0.0000103  0.0001886
    321.595  0.0000515  0.0001660
    320.695 -0.0000151  0.0000921
    319.262  0.0000347  0.0000868
    317.838  0.0000088  0.0000906
    316.425  0.0000397  0.0000962
    315.020  0.0000084  0.0000945
    313.625 -0.0000184  0.0000904
    312.239  0.0000769  0.0000909
    310.863  0.0000131  0.0000527
    309.495 -0.0000071  0.0000556
    307.703  0.0000164  0.0000453
    305.045 -0.0000212  0.0000394
    302.395  0.0000212  0.0000460
    299.779 -0.0000095  0.0000458
    297.197  0.0000445  0.0000466
    294.649 -0.0000161  0.0000470
    292.132  0.0000037  0.0000462
    289.648  0.0000174  0.0000486
    287.196  0.0000172  0.0000480
    284.774  0.0000103  0.0000481
    282.383  0.0000119  0.0000464
    280.022 -0.0000247  0.0000491
    277.691 -0.0000098  0.0000480
    275.388  0.0000103  0.0000467
    273.114  0.0000111  0.0000495
    270.868 -0.0000102  0.0000492
    268.650 -0.0000020  0.0000493
    266.459 -0.0000003  0.0000504
    264.294  0.0000166  0.0000502
    262.156  0.0000122  0.0000519
    260.044  0.0000129  0.0000481
    257.957  0.0000191  0.0000519
    255.895  0.0000214  0.0000491
    253.858 -0.0000077  0.0000512
    251.844  0.0000029  0.0000491
    249.855 -0.0000099  0.0000516
    247.889  0.0000112  0.0000522
    245.947  0.0000124  0.0000533
    244.027  0.0000040  0.0000504
    242.129 -0.0000097  0.0000529
    240.254  0.0000060  0.0000523
    238.400 -0.0000037  0.0000543
    236.568  0.0000114  0.0000567
    234.756 -0.0000113  0.0000575
    232.966  0.0000040  0.0000591
    231.196 -0.0000349  0.0000570
    229.445  0.0000042  0.0000585
    227.715 -0.0000202  0.0000590
    226.004  0.0000141  0.0000607
    224.313 -0.0000117  0.0000539
    222.640 -0.0000184  0.0000547
    220.986  0.0000123  0.0000562
    219.350  0.0000236  0.0000571
    217.733  0.0000202  0.0000538
    216.133  0.0000133  0.0000603
    214.551 -0.0000196  0.0000602
    212.986  0.0000053  0.0000568
    211.438  0.0000069  0.0000570
    209.907  0.0000274  0.0000548
    208.393  0.0000458  0.0000545
    206.895  0.0000135  0.0000582
    205.413  0.0000274  0.0000580
    203.946  0.0000257  0.0000564
    203.038  0.0000129  0.0001148
    202.676 -0.0000208  0.0001241
    202.316 -0.0000194  0.0001249
    201.956  0.0001890  0.0001090
    201.597  0.0000992  0.0001140
    201.239 -0.0000533  0.0001172
    200.349 -0.0000203  0.0000614
    198.937 -0.0000107  0.0000610
    197.539  0.0000218  0.0000621
    196.156  0.0000158  0.0000663
    194.788  0.0000072  0.0000645
    193.434  0.0000039  0.0000659
    192.094  0.0000058  0.0000634
    190.768 -0.0000040  0.0000609
    189.455  0.0000245  0.0000610
    188.156  0.0000223  0.0000604
    186.871 -0.0000137  0.0000632
    185.598 -0.0000246  0.0000613
    184.339  0.0000090  0.0000629
    183.092 -0.0000121  0.0000639
    181.858 -0.0000080  0.0000627
    180.636  0.0000193  0.0000649
    179.427  0.0000139  0.0000591
    178.229  0.0000068  0.0000643
    177.044 -0.0000098  0.0000660
    175.870  0.0000020  0.0000671
    174.708 -0.0000225  0.0000617
    173.558 -0.0000037  0.0000675
    172.419  0.0000327  0.0000660
    171.291  0.0000254  0.0000684
    170.174  0.0000245  0.0000632
    169.068 -0.0000045  0.0000638
    167.972  0.0000212  0.0000679
    166.887  0.0000037  0.0000724
    165.813  0.0000064  0.0000703
    164.749 -0.0000141  0.0000809
    163.696  0.0000181  0.0000719
    162.652  0.0000615  0.0000709
    161.618 -0.0000061  0.0000685
    160.595  0.0000495  0.0000691
    159.580  0.0000364  0.0000692
    158.576  0.0000580  0.0000711
    157.581 -0.0000025  0.0000646
    156.595  0.0000125  0.0000683
    155.618 -0.0000174  0.0000667
    154.651 -0.0000038  0.0000698
    153.692  0.0000097  0.0000704
    152.743  0.0000260  0.0000720
    151.802 -0.0000022  0.0000660
    150.870  0.0000135  0.0000698
    149.946 -0.0000423  0.0000693
    149.031  0.0000165  0.0000725
    148.124  0.0000331  0.0000708
    147.226  0.0000227  0.0000733
    146.336 -0.0000334  0.0000713
    145.453  0.0000064  0.0000729
    144.579 -0.0000149  0.0000719
    143.712 -0.0000142  0.0000791
    142.854  0.0000179  0.0000790
    142.003  0.0000179  0.0000747
    141.159 -0.0000305  0.0000739
    140.323  0.0000228  0.0000777
    139.494  0.0000815  0.0000723
    138.673  0.0000079  0.0000784
    137.859 -0.0000170  0.0000787
    137.052  0.0000214  0.0000735
    136.252  0.0000124  0.0000721
    135.460  0.0000386  0.0000730
    134.674 -0.0000043  0.0000761
    133.895 -0.0000138  0.0000788
    133.122 -0.0000201  0.0000770
    132.356 -0.0000091  0.0000795
    131.597 -0.0000266  0.0000794
    130.845 -0.0000267  0.0000775
    130.099  0.0000185  0.0000774
    129.359  0.0000627  0.0000780
    128.625 -0.0000397  0.0000776
    127.898  0.0000285  0.0000780
    127.177  0.0000283  0.0000833
    126.462 -0.0000275  0.0000794
    125.753  0.0000108  0.0000772
    125.050  0.0000403  0.0000808
    124.352  0.0000537  0.0000808
    123.661 -0.0000054  0.0000808
    122.975  0.0000331  0.0000799
    122.295  0.0000983  0.0001004
    121.621  0.0000168  0.0001134
    120.952  0.0000093  0.0001292
    120.289 -0.0000234  0.0001404
    119.631  0.0000315  0.0001043
    118.979  0.0000402  0.0000794
    118.331  0.0000076  0.0000859
    117.690 -0.0000037  0.0000812
    117.053 -0.0000164  0.0000831
    116.421 -0.0000157  0.0000859
    115.795 -0.0000177  0.0000876
    115.174 -0.0000246  0.0000890
    114.557  0.0000005  0.0000829
    113.946 -0.0000503  0.0000805
    113.339 -0.0000413  0.0000842
    112.737 -0.0000175  0.0000848
    112.140  0.0000338  0.0000865
    111.548  0.0000170  0.0000849
    110.961  0.0000183  0.0000863
    110.378  0.0000443  0.0000883
    109.799 -0.0000183  0.0000901
    109.226 -0.0000146  0.0000880
    108.656  0.0000253  0.0000953
    108.091 -0.0000060  0.0000946
    107.531  0.0000437  0.0000867
    106.975 -0.0000160  0.0000916
    106.423  0.0000427  0.0000883
    105.875  0.0000085  0.0000818
    105.332 -0.0000300  0.0000931
    104.793  0.0000597  0.0000905
    104.258 -0.0000042  0.0000864
    103.727 -0.0000289  0.0000887
    103.200 -0.0000522  0.0000909
    102.677 -0.0000364  0.0000898
    102.158  0.0000462  0.0000930
    101.643  0.0000228  0.0000937
    101.132  0.0000358  0.0000919
    100.625  0.0000481  0.0000965
    100.121  0.0001285  0.0001074
     99.621  0.0001261  0.0001053
     99.125  0.0000954  0.0001022
     98.633 -0.0000188  0.0000957
     98.144  0.0000096  0.0000974
     97.659 -0.0000029  0.0000948
     97.178  0.0000291  0.0000931
     96.700  0.0000298  0.0000959
     96.226  0.0000224  0.0000926
     95.755 -0.0000357  0.0000998
     95.287 -0.0000030  0.0000940
     94.823  0.0000061  0.0000974
     94.363  0.0000445  0.0000900
     93.906  0.0000009  0.0000986
     93.452  0.0000238  0.0001008
     93.001  0.0000364  0.0000985
     92.553  0.0000238  0.0001001
     92.109 -0.0000049  0.0001024
     91.668  0.0000563  0.0001056
     91.230 -0.0000341  0.0001234
     90.796  0.0000470  0.0001597
     90.364  0.0000218  0.0002090
     89.935 -0.0000108  0.0002663
     89.510  0.0000283  0.0002432
     89.087  0.0000140  0.0001506
     88.668  0.0000210  0.0001119
     88.251 -0.0000055  0.0001054
     87.838 -0.0000641  0.0001028
     87.427 -0.0000372  0.0001008
     87.019 -0.0000506  0.0001048
     86.614 -0.0000193  0.0001083
     86.212  0.0000079  0.0001162
     85.812  0.0000257  0.0001251
     85.416  0.0000470  0.0001323
     85.022  0.0000048  0.0001386
     84.631  0.0000190  0.0001217
     84.242 -0.0000282  0.0001062
     83.856  0.0000333  0.0001064
     83.473  0.0000078  0.0001088
     83.093 -0.0000221  0.0001026
     82.715  0.0000539  0.0000990
     82.339  0.0000391  0.0001007
     81.967  0.0000828  0.0001011
     81.596  0.0000172  0.0001070
     81.229  0.0000754  0.0001062
     80.863 -0.0000352  0.0001051
     80.500  0.0000095  0.0001030
     80.140  0.0000250  0.0001030
     79.782  0.0000078  0.0001072
     79.426 -0.0000032  0.0001056
     79.073 -0.0000364  0.0001133
     78.722  0.0000053  0.0001064
     78.374  0.0000197  0.0001114
     78.027 -0.0000055  0.0001116
     77.683  0.0000267  0.0001070
     77.342  0.0000547  0.0001188
     77.002  0.0001207  0.0001172
     76.665  0.0000248  0.0001089
     76.330 -0.0000373  0.0001108
     75.997 -0.0000082  0.0001158
     75.667  0.0000954  0.0001087
     75.338  0.0000239  0.0001087
     75.012  0.0000224  0.0001107
     74.688  0.0000272  0.0001134
     74.365 -0.0000005  0.0001067
     74.045 -0.0000442  0.0001108
     73.727 -0.0000263  0.0001134
     73.411  0.0000588  0.0000956
     73.083  0.0000527  0.0000634
     72.538  0.0000134  0.0000500
     71.923 -0.0000224  0.0000596
     71.316  0.0000073  0.0000574
     70.717  0.0000236  0.0000567
     70.125  0.0000452  0.0000612
     69.541  0.0000523  0.0000563
     68.963 -0.0000103  0.0000588
     68.393  0.0000402  0.0000609
     67.831  0.0000218  0.0000676
     67.275 -0.0000142  0.0000787
     66.725  0.0000527  0.0000738
     66.183  0.0000306  0.0000633
     65.647 -0.0000238  0.0000611
     65.118  0.0000212  0.0000654
     64.595  0.0000029  0.0000635
     64.078 -0.0000432  0.0000642
     63.567  0.0000134  0.0000626
     63.063  0.0000253  0.0000624
     62.564  0.0000371  0.0000620
     62.072  0.0000171  0.0000600
     61.585  0.0000424  0.0000600
     61.104 -0.0000105  0.0000662
     60.628  0.0000393  0.0000613
     60.158  0.0000274  0.0000623
     59.694  0.0000297  0.0000631
     59.235  0.0000538  0.0000601
     58.781  0.0000130  0.0000699
     58.332 -0.0000425  0.0000693
     57.888  0.0000449  0.0000661
     57.450 -0.0000251  0.0000668
     57.016 -0.0000340  0.0000723
     56.588 -0.0000296  0.0000687
     56.164 -0.0000004  0.0000682
     55.745 -0.0000132  0.0000693
     55.330 -0.0000167  0.0000676
     54.920 -0.0000012  0.0000695
     54.515  0.0001278  0.0000660
     54.114  0.0000667  0.0000671
     53.718  0.0000286  0.0000708
     53.326 -0.0000842  0.0000736
     52.938 -0.0000257  0.0000720
     52.554  0.0000391  0.0000673
     52.175  0.0000254  0.0000728
     51.799  0.0000032  0.0000695
     51.428 -0.0000335  0.0000730
     51.061 -0.0000265  0.0000692
     50.697  0.0000219  0.0000703
     50.338 -0.0000274  0.0000715
     49.982  0.0000939  0.0000692
     49.630  0.0000032  0.0000721
     49.282 -0.0000263  0.0000727
     48.937 -0.0000136  0.0000714
     48.596  0.0000082  0.0000766
     48.259  0.0000363  0.0000749
     47.925 -0.0000528  0.0000764
     47.594  0.0000110  0.0000763
     47.267  0.0000192  0.0000750
     46.943  0.0001024  0.0000766
     46.623  0.0000852  0.0000705
     46.306  0.0000344  0.0000774
     45.992  0.0001490  0.0000741
     45.797  0.0002837  0.0001483
     45.720  0.0001368  0.0001508
     45.642  0.0000102  0.0001432
     45.565  0.0000424  0.0001543
     45.488  0.0001578  0.0001355
     45.412  0.0000489  0.0001244
     45.335  0.0001167  0.0001354
     45.259  0.0002607  0.0001248
     45.183  0.0004341  0.0001381
     45.107  0.0004856  0.0001324
     45.031  0.0004173  0.0001194
     44.956  0.0004783  0.0001513
     44.880  0.0008221  0.0001678
     44.805  0.0010342  0.0001902
     44.730  0.0009688  0.0001804
     44.655  0.0011013  0.0001947
     44.581  0.0010689  0.0001962
     44.506  0.0005620  0.0001399
     44.432  0.0007302  0.0001623
     44.358  0.0006092  0.0001621
     44.284  0.0003994  0.0001206
     44.210  0.0003367  0.0001403
     44.137  0.0002835  0.0001417
     44.064  0.0004296  0.0001327
     43.990  0.0002444  0.0001199
     43.917  0.0002401  0.0001509
     43.845  0.0001971  0.0001423
     43.772  0.0002080  0.0001335
     43.700  0.0004796  0.0001573
     43.627  0.0000356  0.0001427
     43.555  0.0001110  0.0001657
     43.483  0.0000599  0.0001486
     43.412  0.0001010  0.0001491
     43.340  0.0000351  0.0001606
     43.269 -0.0000081  0.0001524
     43.198  0.0000778  0.0001662
     43.127  0.0000813  0.0001392
     43.056 -0.0000059  0.0001590
     42.985 -0.0000534  0.0001718
     42.915  0.0002227  0.0001388
     42.845  0.0002830  0.0001496
     42.774 -0.0000073  0.0001580
     42.461 -0.0000026  0.0000569
     41.912  0.0000131  0.0000589
     41.374  0.0000351  0.0000572
     40.846  0.0000086  0.0000590
     40.328 -0.0000048  0.0000566
     39.820  0.0000029  0.0000598
     39.322  0.0000363  0.0000607
     38.833  0.0000166  0.0000605
     38.352  0.0000267  0.0000614
     37.881  0.0000427  0.0000628
     37.418 -0.0000233  0.0000647
     36.964 -0.0000069  0.0000665
     36.518  0.0000711  0.0000633
     36.080  0.0000358  0.0000642
     35.650  0.0000281  0.0000632
     35.228  0.0000442  0.0000663
     34.812  0.0000094  0.0000620
     34.405 -0.0000016  0.0000682
     34.004 -0.0000282  0.0000657
     33.610  0.0000286  0.0000653
     33.224  0.0000247  0.0000680
     32.843 -0.0000343  0.0000710
     32.470  0.0000913  0.0000646
     32.102  0.0000434  0.0000654
     31.741 -0.0000266  0.0000701
     31.386  0.0000092  0.0000688
     31.037 -0.0000064  0.0000711
     30.693 -0.0000051  0.0000704
     30.355  0.0000180  0.0000717
     30.023  0.0000075  0.0000715
     29.696  0.0000085  0.0000730
     29.375  0.0000515  0.0000719
     29.059 -0.0000049  0.0000742
     28.748 -0.0000057  0.0000756
     28.441 -0.0000114  0.0000730
     28.140  0.0000299  0.0000795
     27.843 -0.0000266  0.0001013
     27.551  0.0000073  0.0001099
     27.264 -0.0000710  0.0000828
     26.981 -0.0000587  0.0000762
     26.703 -0.0000187  0.0000767
     26.428 -0.0000609  0.0000781
     26.158  0.0000929  0.0000736
     25.893  0.0000017  0.0000712
     25.654 -0.0000245  0.0000560
     25.398  0.0000906  0.0000552
     25.144  0.0000685  0.0000571
     24.893 -0.0000529  0.0000635
     24.646 -0.0000392  0.0000669
     24.403  0.0000237  0.0000630
     24.164  0.0000447  0.0000612
     23.927  0.0000563  0.0000592
     23.695 -0.0000543  0.0000660
     23.465 -0.0000422  0.0000666
     23.239  0.0000304  0.0000622
     23.017  0.0000216  0.0000583
     22.797  0.0000493  0.0000593
     22.581 -0.0000835  0.0000678
     22.367  0.0000193  0.0000615
     22.157 -0.0001204  0.0000715
     21.949 -0.0000394  0.0000671
     21.745  0.0000452  0.0000614
     21.543 -0.0000273  0.0000670
     21.344 -0.0000077  0.0000683
     21.148  0.0000422  0.0000668
     20.955 -0.0000246  0.0000702
     20.764  0.0000581  0.0000666
     20.576 -0.0000232  0.0000707
     20.390 -0.0000100  0.0000713
     20.207  0.0000344  0.0000702
     20.026  0.0000146  0.0000685
     19.848 -0.0000402  0.0000691
     19.672  0.0000037  0.0000680
     19.498 -0.0000551  0.0000719
     19.327 -0.0000205  0.0000737
     19.158  0.0001142  0.0000645
     18.991 -0.0000523  0.0000763
     18.827 -0.0000088  0.0000790
     18.664 -0.0000219  0.0000754
     18.504 -0.0000859  0.0000815
     18.345 -0.0000019  0.0000772
     18.189  0.0000402  0.0000710
     18.035  0.0000296  0.0000725
     17.882 -0.0000299  0.0000776
     17.732 -0.0000112  0.0000770
     17.583  0.0000342  0.0000754
     17.436  0.0000756  0.0000773
     17.291  0.0000025  0.0000785
     17.148  0.0000793  0.0000744
     17.007 -0.0000372  0.0000821
     16.867 -0.0000639  0.0000788
     16.729  0.0000003  0.0000790
     16.593  0.0000520  0.0000793
     16.459  0.0000390  0.0000774
     16.326 -0.0000010  0.0000796
     16.194 -0.0000406  0.0000847
     16.065 -0.0000376  0.0000816
     15.937 -0.0001652  0.0000893
     15.810 -0.0000009  0.0000797
     15.685 -0.0000669  0.0000816
     15.561  0.0000047  0.0000847
     15.439 -0.0000797  0.0000863
     15.318  0.0000154  0.0000795
     15.199 -0.0000163  0.0000842
     15.081  0.0000269  0.0000823
     14.964 -0.0000400  0.0000868
     14.849  0.0001010  0.0000758
     14.735 -0.0000064  0.0000871
     14.622 -0.0000497  0.0000833
     14.511  0.0001493  0.0000837
     14.401 -0.0000217  0.0000864
     14.292 -0.0000293  0.0000850
     14.184  0.0000385  0.0000869
     14.078 -0.0000435  0.0000912
     13.973  0.0000297  0.0000806
     13.869  0.0001050  0.0000837
     13.766 -0.0000574  0.0000914
     13.664  0.0000309  0.0000867
     13.564 -0.0000702  0.0000938
     13.464  0.0000686  0.0000847
     13.366 -0.0000231  0.0000926
     13.268  0.0000595  0.0000899
     13.172 -0.0000441  0.0000965
     13.077 -0.0000161  0.0000919
     12.983  0.0000644  0.0000912
     12.890 -0.0000568  0.0000978
     12.797 -0.0000123  0.0000932
     12.706 -0.0000427  0.0000949
     12.616  0.0001077  0.0000854
     12.527  0.0000288  0.0000936
     12.438  0.0000748  0.0000886
     12.351  0.0001140  0.0000911
     12.264  0.0001047  0.0000912
     12.179  0.0000708  0.0000943
     12.094 -0.0000072  0.0000964
     12.010 -0.0000057  0.0000952
     11.927  0.0000155  0.0000996
     11.845 -0.0000437  0.0000941
     11.764  0.0000591  0.0000980
     11.684  0.0001097  0.0000958
     11.604 -0.0000808  0.0001004
     11.525  0.0001361  0.0000971
     11.447 -0.0000267  0.0000998
     11.370  0.0000605  0.0000966
     11.294  0.0000278  0.0000979
     11.218 -0.0000134  0.0001057
     11.143  0.0000035  0.0000965
     11.069  0.0000545  0.0000978
     10.996 -0.0001241  0.0001066
     10.923  0.0000579  0.0000983
     10.851 -0.0000160  0.0001042
     10.780 -0.0000596  0.0001088
     10.709 -0.0000044  0.0000964
     10.640  0.0000151  0.0001050
     10.570 -0.0000426  0.0001095
     10.502 -0.0000939  0.0001078
     10.434  0.0000241  0.0001053
     10.367  0.0000501  0.0001014
     10.300  0.0000089  0.0001050
     10.235 -0.0000356  0.0001067
     10.169  0.0000738  0.0001099
     10.105 -0.0000342  0.0001057
     10.041 -0.0000273  0.0001093
      9.977  0.0000113  0.0001141
      9.914 -0.0000912  0.0001126
      9.852  0.0000321  0.0001015
      9.791  0.0000672  0.0001093
      9.729 -0.0001003  0.0001180
      9.669 -0.0000255  0.0001165
      9.609  0.0001113  0.0001129
      9.550  0.0001851  0.0001009
      9.491  0.0001307  0.0001110
      9.433  0.0002903  0.0001055
      9.375  0.0001445  0.0001084
      9.318 -0.0000379  0.0001179
      9.261 -0.0001140  0.0001187
      9.205 -0.0000171  0.0001157
      9.149  0.0000163  0.0001146
      9.094  0.0002439  0.0001096
      9.039 -0.0000357  0.0001208
      8.985  0.0001885  0.0001194
      8.931  0.0001129  0.0001182
      8.878  0.0000002  0.0001141
      8.825 -0.0000080  0.0001243
      8.773  0.0001496  0.0001181
      8.721 -0.0000296  0.0001181
      8.670 -0.0000003  0.0001146
      8.619  0.0000908  0.0001162
      8.569 -0.0000763  0.0001203
      8.519  0.0001831  0.0001201
      8.469  0.0000218  0.0001215
      8.420  0.0000614  0.0001201
      8.371  0.0000216  0.0001198
      8.323  0.0000659  0.0001145
      8.275 -0.0000724  0.0001316
      8.227  0.0000278  0.0001244
      8.180  0.0000280  0.0001238
      8.134  0.0000590  0.0001264
      8.087  0.0000868  0.0001153
      8.042  0.0001125  0.0001208
      7.996 -0.0000181  0.0001289
      7.951  0.0000895  0.0001236
      7.906 -0.0000138  0.0001326
      7.862 -0.0001659  0.0001360
      7.807 -0.0000543  0.0001062
      7.742  0.0001525  0.0001017
      7.678  0.0000587  0.0001055
      7.614  0.0000170  0.0001051
      7.551  0.0001600  0.0000971
      7.489 -0.0000124  0.0001089
      7.428  0.0000017  0.0001069
      7.368  0.0000659  0.0001078
      7.308  0.0002209  0.0001043
      7.249 -0.0000226  0.0001061
      7.191  0.0000712  0.0001035
      7.133  0.0000034  0.0001071
      7.076  0.0000855  0.0001180
      7.020  0.0000968  0.0001100
      6.965 -0.0001670  0.0001171
      6.910  0.0000038  0.0001146
      6.855  0.0001325  0.0001058
      6.802 -0.0000182  0.0001108
      6.749  0.0000749  0.0001093
      6.696 -0.0000025  0.0001192
      6.645 -0.0000160  0.0001189
      6.594 -0.0000149  0.0001168
      6.543  0.0000922  0.0001139
      6.493  0.0000866  0.0001128
      6.444 -0.0000175  0.0001159
      6.395  0.0000987  0.0001127
      6.345  0.0000246  0.0001003
      6.266  0.0000784  0.0000621
      6.172  0.0000384  0.0000645
      6.081  0.0000813  0.0000632
      5.992 -0.0000386  0.0000654
      5.905  0.0000531  0.0000615
      5.820  0.0000185  0.0000660
      5.736  0.0001808  0.0000647
      5.655  0.0000995  0.0000627
      5.575  0.0000339  0.0000656
      5.496  0.0000104  0.0000670
      5.420  0.0001248  0.0000634
      5.345  0.0001541  0.0000634
      5.271  0.0001072  0.0000664
      5.199 -0.0000118  0.0000702
      5.129  0.0000197  0.0000702
      5.060  0.0000190  0.0000736
      4.992  0.0000098  0.0000731
      4.926  0.0000302  0.0000735
      4.861 -0.0000094  0.0000766
      4.797  0.0001197  0.0000656
      4.734 -0.0000328  0.0000781
      4.673  0.0000954  0.0000722
      4.613 -0.0000352  0.0000746
      4.554  0.0000918  0.0000715
      4.496 -0.0000581  0.0000780
      4.439  0.0000199  0.0000791
      4.384  0.0000432  0.0000798
      4.329  0.0000367  0.0000796
      4.276  0.0000392  0.0000808
      4.223 -0.0000282  0.0000831
      4.171 -0.0001096  0.0000814
      4.121  0.0000108  0.0000800
      4.071  0.0001156  0.0000748
      4.022  0.0000190  0.0000839
      3.974 -0.0000477  0.0000883
      3.927 -0.0000861  0.0000880
      3.880  0.0000388  0.0000911
      3.835  0.0000417  0.0000878
      3.790  0.0000125  0.0000872
      3.746  0.0001608  0.0000805
      3.703 -0.0000709  0.0000888
      3.660  0.0000483  0.0000870
      3.619  0.0000589  0.0000860
      3.578  0.0000667  0.0000894
      3.537 -0.0000707  0.0000920
      3.498 -0.0000231  0.0000934
      3.459  0.0000290  0.0000958
      3.421 -0.0000300  0.0000971
      3.383 -0.0000215  0.0000950
      3.346  0.0000201  0.0000887
      3.309 -0.0001100  0.0000994
      3.273  0.0000866  0.0000938
      3.238  0.0000529  0.0000938
      3.203 -0.0001421  0.0001007
      3.169 -0.0000276  0.0000993
      3.136  0.0000293  0.0000962
      3.102  0.0001138  0.0000971
      3.070  0.0000541  0.0000997
      3.038  0.0002269  0.0000968
      3.006 -0.0000136  0.0001042
      2.975 -0.0000282  0.0001012
      2.945  0.0000508  0.0001019
      2.914  0.0001382  0.0000995
      2.885  0.0002122  0.0001029
      2.856  0.0001047  0.0000999
      2.827  0.0000240  0.0001052
      2.771  0.0002246  0.0000598
      2.581  0.0000410  0.0000182
      2.392  0.0000534  0.0000181
      2.224  0.0000252  0.0000198
      2.073  0.0000677  0.0000201
      1.936  0.0000666  0.0000212
      1.813  0.0000103  0.0000232
      1.701 -0.0000204  0.0000231
      1.599 -0.0000103  0.0000247
      1.506  0.0000238  0.0000264
      1.421  0.0001294  0.0000257
      1.343  0.0000868  0.0000264
      1.271  0.0000375  0.0000298
      1.205  0.0001202  0.0000273
      1.144  0.0000743  0.0000320
      1.087  0.0000843  0.0000307
      1.035  0.0000152  0.0000309
      0.986  0.0000478  0.0000339
ENDDATA           1704
ENDSUBENT         1714
SUBENT        13896003   20040518              20050926       0000
BIB                  3         12
REACTION   (42-MO-95(N,A)40-ZR-92,,SIG,,AV)
ERR-ANALYS (DATA-ERR) No information on source of uncertainties
            given.
           Uncertainties in cross section include contributions
           from:
           . number of atoms in Mo sample (0.4%),
           . number of atoms in 6Li sample (2.5%),
           . 6Li(n,t) cross section (2.0%),
           . ratio of counts from 6Li and 95Mo,
           . correction for absorption losses (2.0%),
           . statistics (2.7-16.2%).
STATUS     Data taken from Table III in reference.
ENDBIB              12
NOCOMMON             0          0
DATA                 4         15
EN-MEAN    EN-RSL     DATA       DATA-ERR
KEV        KEV        MICRO-B    MICRO-B
  1.5        0.5       89.6         4.4
  2.5        0.5      104.4         5.1
  3.5        0.5       72.0         4.9
  4.5        0.5       87.0         5.8
  6.25       1.25      30.6         3.5
  8.75       1.25      47.8         3.8
 12.5        2.5       30.1         2.6
 20.0        5.        24.0         1.7
 32.5        7.5       14.4         1.1
 50.        10.        13.6         1.0
 70.        10.        13.1         1.1
150.        50.        10.94        0.78
250.        50.        11.2         1.1
350.        50.         5.62        0.83
450.        50.         4.25        0.85
ENDDATA             17
ENDSUBENT           34
SUBENT        13896004   20230425   20230913   20230911       1505
BIB                  6         14
REACTION  1(42-MO-95(N,0),,EN)
          2(42-MO-95(N,0),,J)
          3(42-MO-95(N,0),,PTY)
          4(42-MO-95(N,A),,WID)
          5(42-MO-95(N,A),,WID/STR)
ANALYSIS   Data fitted using R-matrix code SAMMY.
ASSUMED    (ASSUM1,42-MO-95(N,EL),,WID,,2G)
           (ASSUM2,42-MO-95(N,G),,WID)
ERR-ANALYS (DATA-ERR) No information on source of uncertainties
STATUS     (TABLE,,W.Rapp+,J,PR/C,68,015802,200307)
            Data taken from Table II in reference.
           (SPSDD,14797004) Corrected data published
HISTORY    (20120225A) On. REACTION(#5) corrected, RESULT deleted.
           (20230422A) STATUS updated
ENDBIB              14
NOCOMMON             0          0
DATA                15         54
DATA      1DATA      2DATA      3DATA      4DATA-ERR  4DATA-MAX  4
DATA      5DATA-ERR  5DATA-MAX  5ASSUM1     ASSUM1-ERR ASSUM2
ASSUM2-ERR SPIN J     PARITY
EV         NO-DIM     NO-DIM     MICRO-EV   MICRO-EV   MICRO-EV
MICRO-EV   MICRO-EV   MICRO-EV   MILLI-EV   MILLI-EV   MILLI-EV
MILLI-EV   NO-DIM     NO-DIM
  -9.90                           12.3        1.2
                                   2.72                160.
             2.        1.
  44.69                            0.0349     0.0021
  0.0108     0.0010              200.        10.       150.
 10.         3.        1.
 110.5                                                  11.
                        0.0028     0.16       0.02     310.
 80.         1.       -1.
 117.8                -1.                                7.9
                        0.0030     0.15       0.02     200.
120.         2.
 159.49                                                  0.24
                        0.010     15.         1.       166.
 20.         3.        1.
 218.28     4.                                           2.4
                        0.0097     1.3        0.1      160.
                      -1.
 245.84     2.         1.                                3.9
                        0.0061     0.50       0.05     160.

 263.59     3.         1.                                3.1
                        0.013      1.4        0.2      160.

 330.92     3.                    14.6        3.0
  0.152      0.032                 3.4        0.5      160.
                      -1.
 357.75                            0.382      0.084
  0.146      0.032               320.        60.       145.
 20.         3.        1.
 418.2      2.         1.                               13.
                        0.040      1.00       0.14     160.

 468.68     2.                    18.8        1.7
  0.597      0.055                11.         1.       160.
                      -1.
 554.08                            5.26       0.41
  0.990      0.078               110.        20.       160.
             2.        1.
 595.67     3.         1.                               16.
                        0.041      0.84       0.20     160.

 630.01     4.                                           1.6
                        0.092     20.         3.       160.
                      -1.
 661.78                                                  1.5
                        0.079     18.0        1.5      160.
             3.        1.
 680.19                                                  0.19
                        0.094    830.        50.       145.
 15.         3.        1.
 702.62     2.         1.         14.6        9.9
  0.130      0.088                 2.9        0.3      160.

 708.25     3.         1.          3.4        2.4
  0.132      0.092                13.4        0.8      160.

 745.46     3.                                          10.
                        0.17       5.5        2.0      160.
                      -1.
 769.83                                                  1.6
                        0.12      28.         3.       160.
             3.        1.
 898.27                           18.0        1.0
  4.84       0.24                265.        30.       175.
 20.         2.        1.
 932.13     3.         1.                               16.
                        0.18       3.5        0.3      160.

 956.50     2.         1.                               46.
                        0.21       1.5        0.7      160.

 981.23                           54.5        3.1
  4.92       0.28                 37.         6.       160.
             2.        1.
1011.1      3.                                           3.8
                        0.14      12.6        1.0      160.
                      -1.
1023.8                                                   0.60
                        0.13     110.        20.       160.
             3.        1.
1035.7      3.         1.                                4.0
                        0.15      13.2        1.0      160.

1059.2      2.         1.                                7.5
                        0.20       9.2        0.8      160.

1122.5      3.         1.         74.         31.
  0.91       0.38                  4.0        0.6      160.

1144.6                            45.2        2.3
 12.29       0.62                250.        50.       160.
             2.        1.
1170.5      3.         1.         10.3        5.5
  0.60       0.32                 20.6        1.8      160.

1203.4                                                   0.80
                        0.19     131.         9.       160.
             3.        1.
1296.9      3.         1.                                6.7
                        0.22      11.         1.       160.

1340.7      3.         1.          3.3        1.8
  0.63       0.34                 88.                  160.

1360.6      3.         1.                               28.
                        0.50       6.0        0.8      160.

1386.7      3.         1.         11.5        7.6
  0.39       0.26                 11.6        1.0      160.

1419.3      3.         1.                                0.97
                        0.43     620.        70.       170.
 12.
1437.0      3.         1.                                6.2
                        0.28      15.6        1.4      160.

1495.5      5.         1.          4.77       0.91
  2.40       0.46                360.                  160.

1570.0      3.         1.                                5.0
                        0.18      12.         1.       160.

1576.8      3.         1.                                3.7
                        0.12      10.4        0.8      160.

1589.5      5.         1.                                0.85
                        0.33     215.                  160.

1677.4      3.         1.          2.5        1.8
  0.51       0.37                100.        25.       160.

1704.1      3.         1.          4.0        3.2
  0.44       0.34                 42.8        6.4      160.

1766.1      5.         1.                                1.4
                        0.62     270.                  160.

1788.0      3.         1.                                3.0
                        0.42      62.        10.       160.

1841.7      3.         1.          6.2        3.8
  0.62       0.38                 38.8        5.2      160.

1853.3      3.         1.         13.        10.
  0.26       0.20                  6.4        0.8      160.

1925.1      3.         1.         22.        13.
  2.0        1.2                  36.0        4.6      160.

1950.2      3.         1.         14.7        3.5
  6.0        1.4                 390.       110.       144.
 20.
1961.3      3.         1.                               18.
                        1.3       27.6        2.8      160.

2048.1      3.         1.          7.0        2.6
  2.31       0.84                245.       100.       160.

2112.2      3.         1.         14.9        6.4
  2.11       0.91                 60.         8.       160.

ENDDATA            168
ENDSUBENT          187
ENDENTRY             4
