ENTRY            40087   20111014   20111215   20111212       4154
SUBENT        40087001   20111014   20111215   20111212       4154
BIB                  9         30
INSTITUTE  (4RUSITE)
REFERENCE  (C,70HELSINKI,1,339,197006)
            Preprint IAEA-CN-26/89.
AUTHOR     (F.N.Belyaev,K.G.Ignat'ev,S.I.Sukhoruchkin,
           S.P.Borovlev,V.V.Pavlov,M.B.Polozov,A.N.Soldatov)
TITLE      Measurement of ALPHA values for U-235 and Pu-239.
FACILITY   (CYCLO,4RUSITE)    Cyclotron
SAMPLE     Metallic Pu-239 sample with thickness of 2.2E-3
           atom/barn included 1.8 percent of Pu-240 admixture
METHOD     (TOF)      Time of flight. Flight path 14.56 m.
           Fission and capture effects from metallic foil were
           measured independently by two methods using different
           kinds of detectors.
           ALPHA was determined by experimental counts ratio of
           capture effect to fission effect.
           Background was determined by means of Mn,Na,Ag
           resonance filters.
           For verification and for mastering of method the
           ALPHA value for U-235 was also measured.
HISTORY    (19731129C)       Compiled at the centre
           (20111014A) M.M. F -> ABS in REACTION of Subent 002.
            Upper -> lower case correction.
            Dates were corrected for 4-digits year.
            BIB information was added.
           Data ( were marked as "ALL POINTS ELIMINATED FROM SET",
           a reason was not explained) of
           - Subents 2, 6-8 are restored from the article or
            from trans 4017.
            Subent 009 was added.
CORRECTION Correction on background was introduced
ENDBIB              30
NOCOMMON             0          0
ENDSUBENT           33
SUBENT        40087002   20111014   20111215   20111212       4154
BIB                  5          6
REACTION   (94-PU-239(N,ABS),,ALF,,RES)
COMMENT    In data section alpha values for completely resolved
           resonances are given
ERR-ANALYS (DATA-ERR)         No information available
STATUS     (TABLE) Table 3 of C,70HELSINKI,I,339,1970.
HISTORY    (20111014S) M.M. Data were restored from the article.
ENDBIB               6
NOCOMMON             0          0
DATA                 3          5
EN-RES     DATA       DATA-ERR
EV         NO-DIM     NO-DIM
7.85       0.86       0.03
17.7       1.14       0.05
22.3       0.60       0.04
26.3       0.99       0.06
44.5       9.60       0.60
ENDDATA              7
ENDSUBENT           18
SUBENT        40087003   20111014   20111215   20111212       4154
BIB                  8         17
REACTION   (94-PU-239(N,ABS),,ALF,,AV)
DETECTOR   (SCIN)     In first method the fission effect was
           measured on secondary fast neutron yield from
           metallic foil by counters. Counters were paraffin and
           zinc sulphide covering two photoelectric multipliers.
           Capture gammas and fission gammas were counted
           by NaI crystal.
MONITOR    (94-PU-239(N,ABS),,ETA)
            At 0.03 resonance for normalization
MONIT-REF  (40087009,F.N.Belyaev+,C,70HELSINKI,I,339,1970)
            Value was measured in additional experiment,
           see SUBENT 009.
PART-DET   (N)        Neutrons
           (G)        Gammas
COMMENT    Data were averaged on standard energy interval
ERR-ANALYS (ERR-S)           Statistical errors are given
STATUS     (TABLE) Table 4 of C,70HELSINKI,I,339,1970.
ENDBIB              17
COMMON               3          3
EN-NRM     MONIT      MONIT-ERR
EV         NO-DIM     NO-DIM
 3.0000E-02 1.7280E+00 2.6000E-02
ENDCOMMON            3
DATA                 4         15
EN-MIN     EN-MAX     DATA       ERR-S
KEV        KEV        NO-DIM     NO-DIM
 1.0000E-01 2.0000E-01 8.7000E-01 3.0000E-02
 2.0000E-01 3.0000E-01 1.0900E+00 4.0000E-02
 3.0000E-01 4.0000E-01 1.2400E+00 6.0000E-02
 4.0000E-01 5.0000E-01 4.7000E-01 5.0000E-02
 5.0000E-01 6.0000E-01 7.6000E-01 6.0000E-02
 6.0000E-01 7.0000E-01 1.7100E+00 1.5000E-01
 7.0000E-01 8.0000E-01 9.2000E-01 1.0000E-01
 8.0000E-01 9.0000E-01 8.7000E-01 1.1000E-01
 9.0000E-01 1.0000E+00 7.5000E-01 9.0000E-02
 1.0000E+00 2.0000E+00 1.0600E+00 7.0000E-02
 1.0000E+00 1.0000E+01 8.3000E-01 4.0000E-02
 2.0000E+00 3.0000E+00 1.2300E+00 9.0000E-02
 3.0000E+00 4.0000E+00 9.8000E-01 1.3000E-01
 4.0000E+00 5.0000E+00 8.7000E-01 1.1000E-01
 5.0000E+00 1.0000E+01 6.7000E-01 8.0000E-02
ENDDATA             17
ENDSUBENT           43
SUBENT        40087004   20111014   20111215   20111212       4154
BIB                  7         11
REACTION   (94-PU-239(N,ABS),,ALF,,AV)
DETECTOR   (SCIN)     In second method capture effect and fission
           effect were measured by means of detector with stilbene
           crystal
MONITOR    (94-PU-239(N,ABS),,ETA)
            At thermal energy for normalization
PART-DET   (G)        Gammas
           (N)        Neutrons
COMMENT    Data were averaged on standard energy interval
ERR-ANALYS (ERR-S)          Statistical errors are given
STATUS     (TABLE) Table 4 of C,70HELSINKI,I,339,1970.
ENDBIB              11
COMMON               2          3
EN-NRM     MONIT
EV         NO-DIM
 2.5300E-02 2.1100E+00
ENDCOMMON            3
DATA                 4         15
EN-MIN     EN-MAX     DATA       ERR-S
KEV        KEV        NO-DIM     NO-DIM
 1.0000E-01 2.0000E-01 9.2000E-01 7.0000E-02
 2.0000E-01 3.0000E-01 1.0300E+00 7.0000E-02
 3.0000E-01 4.0000E-01 1.2000E+00 1.0000E-01
 4.0000E-01 5.0000E-01 4.2000E-01 1.0000E-01
 5.0000E-01 6.0000E-01 7.3000E-01 1.0000E-01
 6.0000E-01 7.0000E-01 1.7400E+00 2.4000E-01
 7.0000E-01 8.0000E-01 9.9000E-01 2.0000E-01
 8.0000E-01 9.0000E-01 6.3000E-01 1.7000E-01
 9.0000E-01 1.0000E+00 6.3000E-01 1.7000E-01
 1.0000E+00 2.0000E+00 9.6000E-01 1.0000E-01
 1.0000E+00 1.0000E+01 8.0000E-01 6.0000E-02
 2.0000E+00 3.0000E+00 1.2300E+00 1.7000E-01
 3.0000E+00 4.0000E+00 9.2000E-01 2.0000E-01
 4.0000E+00 5.0000E+00 7.6000E-01 2.0000E-01
 5.0000E+00 1.0000E+01 6.6000E-01 1.4000E-01
ENDDATA             17
ENDSUBENT           37
SUBENT        40087005   20111014   20111215   20111212       4154
BIB                  5         10
REACTION   (94-PU-239(N,ABS),,ALF,,AV)
PART-DET   (N)        Neutrons
           (G)        Gammas
COMMENT    Data were averaged on standard energy interval and
           on measurements by different detectors
ERR-ANALYS (ERR-S)           Statistical errors are given
           Alpha value in interval of energies from 1.0 keV up to
           10.0 keV taking into account statistical errors and
           errors of normalization was equal to 0.82+-0.07
STATUS     (TABLE) Table 4 of C,70HELSINKI,I,339,1970.
ENDBIB              10
NOCOMMON             0          0
DATA                 4         15
EN-MIN     EN-MAX     DATA       ERR-S
KEV        KEV        NO-DIM     NO-DIM
 1.0000E-01 2.0000E-01 8.8000E-01 3.0000E-02
 2.0000E-01 3.0000E-01 1.0700E+00 4.0000E-02
 3.0000E-01 4.0000E-01 1.2300E+00 5.0000E-02
 4.0000E-01 5.0000E-01 4.5000E-01 5.0000E-02
 5.0000E-01 6.0000E-01 7.5000E-01 5.0000E-02
 6.0000E-01 7.0000E-01 1.7200E+00 1.3000E-01
 7.0000E-01 8.0000E-01 9.4000E-01 9.0000E-02
 8.0000E-01 9.0000E-01 7.8000E-01 9.0000E-02
 9.0000E-01 1.0000E+00 7.1000E-01 8.0000E-02
 1.0000E+00 2.0000E+00 1.0200E+00 6.0000E-02
 1.0000E+00 1.0000E+01 8.2000E-01 3.0000E-02
 2.0000E+00 3.0000E+00 1.2300E+00 8.0000E-02
 3.0000E+00 4.0000E+00 9.6000E-01 1.1000E-01
 4.0000E+00 5.0000E+00 8.3000E-01 1.0000E-01
 5.0000E+00 1.0000E+01 6.7000E-01 7.0000E-02
ENDDATA             17
ENDSUBENT           32
SUBENT        40087006   20111014   20111215   20111212       4154
BIB                  5          8
REACTION   (94-PU-239(N,G)94-PU-240,,SIG)
DETECTOR   (NAICR) Sodium-iodide crystal used for gamma detection
ERR-ANALYS      No information available
STATUS     (TABLE) From authors.
HISTORY    (19731129R) Data were received from authors.
           (19850329D) "ALL POINTS ELIMINATED FROM SET"
           (20111014S) M.M. Data were restored from trans 4017,
            a reason to delete data had not given.
ENDBIB               8
NOCOMMON             0          0
DATA                 2         96
EN         DATA
EV         B
 9862.738      1.4799
 8235.562      1.8199
 6980.204      1.3299
 5991.443      2.0499
 5198.805      1.7899
 4553.654      2.2799
 4021.546      2.6499
 3577.535      2.8599
 3203.194      2.9399
 2884.676      3.8899
 2611.408      3.3099
 2375.676      4.6399
 2169.663      5.2299
 1989.689      4.6299
 1831.213      5.6799
 1690.944      4.6699
 1566.195      3.6399
 1454.759      4.4499
 1354.806      3.6299
 1264.811      4.4299
 1183.494      4.3999
 1109.775      4.7500
 1042.735      3.9699
  981.591      4.9299
  925.671      4.6999
  874.398      4.1999
  827.269      4.5799
  783.851      3.6399
  743.763      4.4299
  706.673      5.9399
  672.290      6.3999
  640.357      9.8099
  610.646     12.0599
  582.956     14.8799
  557.108     14.3699
  532.941     13.3699
  510.313      7.3899
  489.097      4.4699
  469.176      3.5799
  450.449      3.1899
  432.820      4.1199
  416.207      5.4099
  400.532      5.8699
  385.726      4.6899
  371.726      3.2399
  358.475      6.5099
  345.920     10.3699
  334.013     13.7599
  322.711     17.4399
  311.972     16.8499
  301.761     14.9199
  292.043     18.4599
  282.787     17.4499
  273.964     14.5599
  265.548     17.1499
  257.514     17.9299
  249.839     18.2999
  242.502     21.2699
  235.483     23.8499
  228.765     22.4299
  222.330     20.0599
  216.163     18.1299
  210.249     15.5999
  204.575     13.7299
  199.127      9.4899
  193.894      4.9399
  188.865      5.9399
  184.028      7.0099
  179.375      8.6499
  174.897      7.7599
  170.584     17.5399
  166.428     18.6699
  162.423     17.6499
  158.561     10.7599
  154.834      7.3299
  151.238     11.6499
  147.765     16.0599
  144.411     19.8599
  141.169     15.0399
  138.036     17.5799
  135.005     15.3999
  132.074     13.3999
  129.237     10.2699
  126.490     10.1699
  123.830     14.4099
  121.253     20.9699
  118.755     25.3699
  116.334     18.6199
  113.987     14.1999
  111.709     13.9699
  109.499     25.7399
  107.354     39.3099
  105.272     38.4899
  103.249     32.8399
  101.285     16.7199
   99.375     11.1899
ENDDATA             98
ENDSUBENT          111
SUBENT        40087007   20111014   20111215   20111212       4154
BIB                  5          8
REACTION   (94-PU-239(N,F),,SIG)
DETECTOR   (NAICR) Sodium-iodide crystal used for gamma detection
ERR-ANALYS  No information available
STATUS     (TABLE) From authors.
HISTORY    (19731129R) Data were received from authors.
           (19850329D) "ALL POINTS ELIMINATED FROM SET"
           (20111014S) M.M. Data were restored from trans 4017,
            a reason to delete data was not given.
ENDBIB               8
NOCOMMON             0          0
DATA                 2         96
EN         DATA
EV         B
 9862.738      2.2799
 8235.562      2.4199
 6980.204      2.6099
 5991.443      2.5599
 5198.805      2.5899
 4553.654      2.5599
 4021.546      2.9099
 3577.535      2.8899
 3203.194      2.9699
 2884.676      3.2699
 2611.408      3.9899
 2375.208      3.3599
 2169.663      3.0599
 1989.689      3.1899
 1831.213      3.1199
 1690.944      3.2899
 1566.195      3.7899
 1454.759      4.4099
 1354.806      4.9099
 1264.811      4.9799
 1183.494      4.9399
 1109.775      5.7199
 1042.735      6.5000
  981.591      6.6599
  925.671      6.1099
  874.398      5.8399
  827.269      5.5899
  783.851      5.8699
  743.763      5.2699
  706.673      4.8699
  672.290      4.8099
  640.357      4.7399
  610.646      5.6899
  582.956      8.5999
  557.108     12.3899
  532.941     14.5299
  510.313     16.0599
  489.097     13.5399
  469.176     11.1899
  450.449      8.6099
  432.820      8.2399
  416.207      8.5899
  400.532      8.5099
  385.726      9.0099
  371.726      8.7699
  358.475      8.3499
  345.920      8.5699
  334.013      8.7099
  322.711      8.8099
  311.972      9.9099
  301.761     12.1299
  292.043     16.6299
  282.787     21.2799
  273.964     24.6799
  265.548     24.1599
  257.514     20.6099
  249.839     15.9099
  242.502     12.5099
  235.483     10.5999
  228.765     10.5299
  222.330     10.0799
  216.163     11.1899
  210.249     15.9199
  204.575     22.8899
  199.127     26.3599
  193.894     26.0099
  188.865     19.8099
  184.028     12.7399
  179.375      9.5099
  174.897      9.0199
  170.584      9.0399
  166.428     10.0899
  162.423     14.4699
  158.561     17.3499
  154.834     17.0499
  151.238     14.2099
  147.765     13.3799
  144.411     12.2599
  141.169     15.5099
  138.036     16.7399
  135.005     22.9799
  132.074     23.9299
  129.237     23.8799
  126.490     17.5299
  123.830     18.7099
  121.253     22.7899
  118.755     26.6999
  116.334     25.8599
  113.987     17.5299
  111.709     12.5899
  109.499     12.6199
  107.354     13.8399
  105.272     17.3399
  103.249     17.5599
  101.285     18.7899
   99.375     24.3199
ENDDATA             98
ENDSUBENT          111
SUBENT        40087008   20111014   20111215   20111212       4154
BIB                  4          7
REACTION   (94-PU-239(N,ABS),,ALF)
ERR-ANALYS            No information available
STATUS     (TABLE) From authors.
HISTORY    (19731129R) Data were received from authors.
           (19850329D) "ALL POINTS ELIMINATED FROM SET"
           (20111014S) M.M. Data were restored from trans 4017,
            a reason to delete data was not given.
ENDBIB               7
NOCOMMON             0          0
DATA                 2         96
EN         DATA
EV         NO-DIM
 9862.738      0.6499
 8235.562      0.7500
 6980.204      0.5099
 5991.443      0.7999
 5198.805      0.6899
 4553.654      0.8899
 4021.546      0.9099
 3577.535      0.9899
 3203.194      0.9899
 2884.676      1.1899
 2611.408      0.8299
 2375.208      1.3799
 2169.663      1.7099
 1989.689      1.4499
 1831.213      1.8199
 1690.944      1.4199
 1566.195      0.9599
 1454.759      1.0099
 1354.806      0.7399
 1264.811      0.8899
 1183.494      0.8899
 1109.775      0.8299
 1042.735      0.6099
  981.591      0.7399
  925.671      0.7699
  874.398      0.7199
  827.269      0.8199
  783.851      0.6199
  743.763      0.8399
  706.673      1.2199
  672.290      1.3299
  640.357      2.0699
  610.646      2.1199
  582.956      1.7299
  557.108      1.1599
  532.941      0.9199
  510.313      0.4599
  489.097      0.3299
  469.176      0.3199
  450.449      0.3699
  432.820      0.5000
  416.207      0.6299
  400.532      0.6899
  385.726      0.5199
  371.726      0.3699
  358.475      0.7799
  345.920      1.2099
  334.013      1.5799
  322.711      1.9799
  311.972      1.6999
  301.761      1.2299
  292.043      1.1099
  282.787      0.8199
  273.964      0.5899
  265.548      0.7099
  257.514      0.8699
  249.839      1.1499
  242.502      1.6999
  235.483      2.2500
  228.765      2.1299
  222.330      1.9899
  216.163      1.6199
  210.249      0.9799
  204.575      0.5999
  199.127      0.3599
  193.894      0.1899
  188.865      0.2999
  184.028      0.5499
  179.375      0.9099
  174.897      0.8599
  170.584      1.9399
  166.428      1.8499
  162.423      1.2219
  158.561      0.6199
  154.834      0.4299
  151.238      0.8199
  147.765      1.1999
  144.411      1.6199
  141.169      0.9699
  138.036      1.0499
  135.005      0.6699
  132.074      0.5599
  129.237      0.4299
  126.490      0.5799
  123.830      0.7699
  121.253      0.9199
  118.755      0.9499
  116.334      0.7199
  113.987      0.8099
  111.709      1.1099
  109.499      2.0399
  107.354      2.8399
  105.272      2.2199
  103.249      1.8699
  101.285      0.8899
   99.375      0.4599
ENDDATA             98
ENDSUBENT          110
SUBENT        40087009   20111014   20111215   20111212       4154
BIB                  5          9
REACTION  1(94-PU-239(N,ABS),,ALF)
          2(94-PU-239(N,ABS),,ETA)
            Obtained in additional measurement.
MONITOR    ((MONIT1)94-PU-239(N,F),,NU)
           ((MONIT2)94-PU-239(N,ABS),,ALF)
           ((MONIT3)94-PU-239(N,ABS),,ETA)
MONIT-REF  (,G.C.Hanna+,J,REA,7,(4),3,1969)
ERR-ANALYS (DATA-ERR) Not specified.
STATUS     (TABLE) Table 2 of C,70HELSINKI,I,339,1970.
ENDBIB               9
COMMON               4          3
EN-NRM     MONIT1     MONIT2     MONIT3
EV         PRT/FIS    NO-DIM     NO-DIM
0.025       2.88       0.36      2.11
ENDCOMMON            3
DATA                 6          1
EN         DATA      1+DATA-ERR 1-DATA-ERR 1DATA      2DATA-ERR  2
EV         NO-DIM     NO-DIM     NO-DIM     NO-DIM     NO-DIM
0.30       0.66       0.03       0.02        1.728      0.026
ENDDATA              3
ENDSUBENT           21
ENDENTRY             9
