ENTRY            M0961   20180402   20180516   20180516       M095
SUBENT        M0961001   20180402   20180516   20180516       M095
BIB                 12         19
TITLE      Absorption of gamma-quanta by manganese niclei in the
            range of giant resonance.
AUTHOR     (B.S.Dolbilkin,A.I.Isakov,V.I.Korin,L.E.Lazareva)
INSTITUTE  (4RUSJIA)
REFERENCE  (J,ZEP,10,(8),365,1969)
           (J,JEL,10,231,1969)
            English translation of ZEP,10,(8),365,1969.
FACILITY   (SYNCH,4RUSLEB) 260 MeV synchrotron of FIAN.
INC-SOURCE (BRST)
SAMPLE     Mn(97%)-Cu(3%) alloy.
DETECTOR   (BPAIR) 9-channel magnetic pair spectrometer.
METHOD     (EXTB,SITA)
ANALYSIS   Photoabsorption cross   section   was   obtained   by
            subtraction of the atomic absorption  cross  section
            from   the  measured  sum  of  atomic   and  nuclear
            absorption cross sections.
ERR-ANALYS (DATA-ERR) Mean-root-squared uncertainties.
HISTORY    (20180402C) Data were compiled at the Russia MSU SINP
            CDFE by V.Varlamov.
ENDBIB              19
NOCOMMON             0          0
ENDSUBENT           22
SUBENT        M0961002   20180402   20180516   20180516       M095
BIB                  2          2
REACTION   (25-MN-55(G,ABS),,SIG)
STATUS     (CURVE) Data from Figure.
ENDBIB               2
NOCOMMON             0          0
DATA                 3         36
EN         DATA       DATA-ERR
MEV        MB         MB
  8.95        0.978     15.419
  9.65       -9.251     16.300
 10.13        4.264     19.216
 10.61       11.454     13.316
 11.40       14.899     16.300
 11.62       25.991     14.978
 12.29       27.753     15.604
 12.83       12.335     18.943
 13.51       27.251     15.600
 14.12       56.828     10.136
 14.61       66.960     13.665
 15.00       91.630     12.335
 15.44      106.167     10.572
 15.88       94.714     14.096
 16.23      107.048     13.214
 16.62       80.176     15.859
 17.06       93.392     12.278
 17.54       78.415     12.273
 18.07       90.749     13.348
 18.51       82.819     12.722
 19.00       78.855     13.216
 19.52       91.630     12.278
 20.01      103.083     11.895
 20.48       71.366     15.859
 20.96       21.595     12.774
 21.56       53.304     12.335
 22.11       24.670     15.859
 22.63        3.022     15.128
 23.33        3.912     15.419
 24.00       69.401     16.740
 24.53       32.159     13.216
 25.00       22.907     12.987
 25.81        3.736     13.348
 26.36       23.789     12.335
 26.97       39.648     13.665
 27.72       -0.485     16.934
ENDDATA             38
ENDSUBENT           45
ENDENTRY             2
