ENTRY            E2402   20131029   20140110   20131210       E081
SUBENT        E2402001   20131029   20140110   20131210       E081
BIB                 10         36
TITLE      Giant monopole resonance in even-A Cd isotopes, the
           asymmetry term in nuclear incompressibility, and the
           'softness' of Sn and Cd nuclei
AUTHOR     (D.Patel, U.Garg, M.Fujiwara, H.Akimune, G.P.A.Berg,
            M.N.Harakeh, M.Itoh, T.Kawabata, K.Kawase, B.K.Nayak,
            T.Ohta, H.Ouchi, J.Piekarewicz, M.Uchida, H.P.Yoshida,
            M.Yosoi)
INSTITUTE  (1USANOT) Department of Physics
           (2JPNOSA) Research Center for Nuclear Physics
           (2JPNKON) Department of Physics
           (2NEDKVI)
           (2JPNTOH) Cyclotron and Radioisotope Center
           (2JPNTOK) Center for Nuclear Studies
           (2JPNOSA) Institute of Scientific and Industrial
                     Research
           (1USAFSU) Department of Physics
           (2JPNTIT) Department of Physics
REFERENCE  (J,PL/B,718,447,2012)
PART-DET   (A)
SAMPLE     - Target enrichment: highly-enriched Cd targets (more
             than 93 %)
           - Chemical-form of target is element.
           - Physical-form of target is solid.
           - Target-thickness is 5 to 6.5 mg/cm**2.
           - Target is self supported.
FACILITY   (CYCLO,2JPNOSA) Ring Cyclotron facility at Research
                           Center for Nuclear Physics
DETECTOR   (MAGSP,MWDC,SCIN) To analyze momentum of scattered
                             alpha particles by the
                             high-resolution magnetic
                             spectrometer, Grand Raiden
STATUS     (TABLE) Plotted in Fig.1 of Phys. Lett. B 718 (2012)
                   447
HISTORY    (20130320C) MA
           (20130320R) Received by e-mail from D.Patel
           (20131008A) MA: REACTION: ,DA/DE -> ,DA/DE,A/RSD
ENDBIB              36
COMMON               2          3
EN         ANG
MEV/A      ADEG
 100.       0.7
ENDCOMMON            3
ENDSUBENT           43
SUBENT        E2402002   20131029   20140110   20131210       E081
BIB                  2          3
REACTION   (48-CD-106(A,INL)48-CD-106,,DA/DE,A/RSD)
EN-SEC     ANG is an average angle
           (E-EXC,48-CD-106)
ENDBIB               3
NOCOMMON             0          0
DATA                 2        302
E-EXC      DATA
MEV        MB/SR/MEV
       5.05       0.01
       5.15      0.078
       5.25      0.059
       5.35      0.029
       5.45      0.049
       5.55      0.157
       5.65      1.147
       5.75      3.489
       5.85      8.928
       5.95     11.897
       6.05     15.337
       6.15      17.64
       6.25     20.972
       6.35     25.421
       6.45     28.038
       6.55     32.232
       6.65     31.762
       6.75     34.359
       6.85     36.917
       6.95     40.033
       7.05     49.804
       7.15      50.97
       7.25     48.157
       7.35     50.578
       7.45     44.776
       7.55     47.991
       7.65     47.275
       7.75      48.52
       7.85     46.089
       7.95     40.729
       8.05     46.991
       8.15     46.864
       8.25     46.628
       8.35     47.942
       8.45       43.1
       8.55     45.364
       8.65     46.952
       8.75     44.306
       8.85     45.413
       8.95     39.866
       9.05     44.149
       9.15     42.679
       9.25     47.491
       9.35     45.178
       9.45      41.16
       9.55     48.216
       9.65     48.657
       9.75     46.893
       9.85     51.283
       9.95     44.531
      10.05     46.785
      10.15     51.597
      10.25     50.705
      10.35     47.932
      10.45     49.755
      10.55     52.704
      10.65     50.686
      10.75     56.115
      10.85     54.831
      10.95     51.156
      11.05      56.86
      11.15     57.399
      11.25     57.585
      11.35     61.113
      11.45     58.604
      11.55     64.445
      11.65     62.024
      11.75     68.786
      11.85     66.807
      11.95     62.642
      12.05     73.912
      12.15     76.891
      12.25     72.226
      12.35     78.782
      12.45     72.157
      12.55     75.793
      12.65     82.428
      12.75     84.672
      12.85     84.633
      12.95     79.488
      13.05     90.581
      13.15     87.984
      13.25     93.962
      13.35     97.216
      13.45     87.592
      13.55     94.746
      13.65    101.587
      13.75    101.479
      13.85     107.81
      13.95     96.687
      14.05    109.211
      14.15    103.978
      14.25    109.182
      14.35    107.947
      14.45    108.496
      14.55     110.75
      14.65    119.442
      14.75    114.121
      14.85    122.088
      14.95    110.916
      15.05    123.372
      15.15    118.688
      15.25    121.089
      15.35    114.934
      15.45    111.769
      15.55    124.068
      15.65    120.491
      15.75    119.883
      15.85    121.932
      15.95     110.26
      16.05    112.994
      16.15    118.139
      16.25    118.943
      16.35    108.417
      16.45    103.096
      16.55    113.357
      16.65    111.544
      16.75    103.713
      16.85    105.056
      16.95     94.158
      17.05      97.51
      17.15     97.892
      17.25     96.001
      17.35     88.073
      17.45     82.222
      17.55     87.798
      17.65     79.752
      17.75     81.752
      17.85      80.86
      17.95     67.875
      18.05     71.638
      18.15     73.373
      18.25      68.09
      18.35      70.08
      18.45     60.554
      18.55     66.228
      18.65     58.281
      18.75      62.23
      18.85     64.014
      18.95     55.331
      19.05     55.252
      19.15     57.467
      19.25     51.185
      19.35     56.458
      19.45     50.294
      19.55     54.919
      19.65     51.107
      19.75     53.773
      19.85     50.499
      19.95     50.607
      20.05     49.108
      20.15      50.95
      20.25      45.59
      20.35     52.352
      20.45     44.551
      20.55     48.794
      20.65     46.119
      20.75     49.392
      20.85     46.677
      20.95     42.424
      21.05     48.343
      21.15     46.736
      21.25     44.316
      21.35     46.658
      21.45     41.562
      21.55     46.687
      21.65     44.492
      21.75     46.628
      21.85     43.375
      21.95     41.964
      22.05     48.049
      22.15     45.835
      22.25      43.63
      22.35     47.285
      22.45     41.189
      22.55     45.443
      22.65     43.002
      22.75     45.276
      22.85     44.051
      22.95      41.64
      23.05     44.227
      23.15     44.894
      23.25     42.552
      23.35     45.982
      23.45     40.523
      23.55     44.933
      23.65     44.247
      23.75     48.196
      23.85     43.492
      23.95      41.16
      24.05     45.011
      24.15     44.796
      24.25     41.738
      24.35      42.62
      24.45     39.004
      24.55     40.719
      24.65     41.415
      24.75     43.845
      24.85     39.719
      24.95     39.043
      25.05     44.218
      25.15     42.885
      25.25     38.063
      25.35     43.492
      25.45      35.75
      25.55     39.925
      25.65     40.131
      25.75     41.777
      25.85     37.407
      25.95     36.887
      26.05     40.837
      26.15     41.777
      26.25     37.612
      26.35     39.837
      26.45     34.555
      26.55     39.112
      26.65     36.348
      26.75     38.347
      26.85     36.534
      26.95     36.142
      27.05     40.915
      27.15     36.828
      27.25     36.152
      27.35       34.8
      27.45      34.78
      27.55     35.878
      27.65     32.399
      27.75     34.251
      27.85     34.133
      27.95     33.585
      28.05      32.83
      28.15     34.829
      28.25     34.202
      28.35     35.084
      28.45     30.017
      28.55      35.26
      28.65     33.055
      28.75     31.527
      28.85     31.184
      28.95     31.507
      29.05     32.624
      29.15     33.114
      29.25     31.791
      29.35     31.546
      29.45     28.881
      29.55     30.537
      29.65     31.448
      29.75     32.252
      29.85     33.888
      29.95     27.999
      30.05     29.763
      30.15     32.017
      30.25     33.173
      30.35     28.557
      30.45      27.91
      30.55     29.763
      30.65     29.968
      30.75     31.115
      30.85     30.664
      30.95     27.538
      31.05     27.959
      31.15     30.909
      31.25     28.998
      31.35     27.803
      31.45     25.539
      31.55     30.409
      31.65     29.625
      31.75     26.617
      31.85     29.704
      31.95     24.912
      32.05     27.763
      32.15      24.99
      32.25     28.038
      32.35     26.431
      32.45     26.293
      32.55     27.881
      32.65     28.616
      32.75      27.91
      32.85     29.478
      32.95     24.539
      33.05     28.655
      33.15     28.273
      33.25     28.067
      33.35     27.783
      33.45     25.921
      33.55     27.156
      33.65     28.038
      33.75     27.332
      33.85     27.479
      33.95     25.402
      34.05     28.155
      34.15     26.538
      34.25     25.578
      34.35     27.362
      34.45     22.128
      34.55     26.431
      34.65     26.725
      34.75     28.155
      34.85     26.519
      34.95      37.71
      35.05       8.31
      35.15      0.147
ENDDATA            304
ENDSUBENT          312
SUBENT        E2402003   20131029   20140110   20131210       E081
BIB                  2          3
REACTION   (48-CD-110(A,INL)48-CD-110,,DA/DE,A/RSD)
EN-SEC     ANG is an average angle
           (E-EXC,48-CD-110)
ENDBIB               3
NOCOMMON             0          0
DATA                 2        302
E-EXC      DATA
MEV        MB/SR/MEV
       5.05       0.06
       5.15      0.045
       5.25      0.015
       5.35      0.106
       5.45      0.015
       5.55      0.347
       5.65      0.136
       5.75       3.79
       5.85      8.818
       5.95     13.817
       6.05     22.877
       6.15     21.638
       6.25     26.984
       6.35      33.28
       6.45     28.086
       6.55     34.715
       6.65       34.7
       6.75     34.745
       6.85     38.701
       6.95     36.376
       7.05     49.302
       7.15     53.726
       7.25     56.519
       7.35      58.86
       7.45     50.555
       7.55     61.759
       7.65     56.716
       7.75     55.447
       7.85     59.736
       7.95     51.174
       8.05     55.885
       8.15      53.65
       8.25     53.152
       8.35     55.659
       8.45     51.264
       8.55     57.682
       8.65     53.771
       8.75     50.087
       8.85     53.832
       8.95     42.809
       9.05     53.046
       9.15     53.258
       9.25     51.823
       9.35     55.749
       9.45     48.743
       9.55     54.541
       9.65     52.699
       9.75     56.489
       9.85     58.482
       9.95     52.352
      10.05     57.833
      10.15     57.048
      10.25     60.898
      10.35     55.009
      10.45     54.889
      10.55     60.445
      10.65     62.997
      10.75     64.447
      10.85     64.809
      10.95     63.828
      11.05     68.584
      11.15     67.195
      11.25      73.25
      11.35     73.311
      11.45     70.985
      11.55     77.297
      11.65     74.821
      11.75      87.52
      11.85     79.773
      11.95     81.978
      12.05     86.161
      12.15     88.093
      12.25     96.293
      12.35     91.597
      12.45     88.335
      12.55     95.613
      12.65      94.42
      12.75    103.737
      12.85    102.182
      12.95     97.546
      13.05    105.413
      13.15     113.25
      13.25    105.096
      13.35     114.79
      13.45    107.014
      13.55    114.111
      13.65    121.329
      13.75    117.297
      13.85    118.248
      13.95    115.168
      14.05     120.83
      14.15    128.984
      14.25    124.515
      14.35     126.04
      14.45    119.728
      14.55    125.994
      14.65    135.976
      14.75    129.664
      14.85    126.115
      14.95    121.631
      15.05    128.199
      15.15    139.222
      15.25     128.32
      15.35    128.214
      15.45     118.55
      15.55    133.197
      15.65    127.791
      15.75    123.141
      15.85    127.535
      15.95    110.985
      16.05    126.825
      16.15    116.149
      16.25    112.873
      16.35    118.475
      16.45     97.622
      16.55    109.868
      16.65    104.492
      16.75    104.235
      16.85    104.945
      16.95     88.682
      17.05     101.11
      17.15     88.773
      17.25     89.679
      17.35     88.773
      17.45     80.226
      17.55     82.325
      17.65     76.119
      17.75     82.597
      17.85      73.22
      17.95     67.391
      18.05     67.029
      18.15     70.728
      18.25     68.841
      18.35      65.73
      18.45     59.705
      18.55     60.204
      18.65     60.098
      18.75     61.653
      18.85     57.909
      18.95     54.677
      19.05     53.816
      19.15     55.583
      19.25       54.3
      19.35     53.877
      19.45     49.166
      19.55     50.932
      19.65      52.82
      19.75     50.464
      19.85     47.746
      19.95     46.387
      20.05     48.124
      20.15     47.852
      20.25     48.139
      20.35     47.354
      20.45     43.699
      20.55     49.845
      20.65     49.875
      20.75     45.451
      20.85     47.157
      20.95     44.288
      21.05     46.961
      21.15     47.188
      21.25     47.293
      21.35     49.498
      21.45     42.174
      21.55     47.157
      21.65     47.927
      21.75     45.315
      21.85     45.979
      21.95     42.159
      22.05     48.109
      22.15     44.636
      22.25     46.402
      22.35     48.365
      22.45     42.627
      22.55     46.161
      22.65     44.666
      22.75     47.006
      22.85     42.733
      22.95     42.295
      23.05     42.778
      23.15      45.27
      23.25     47.006
      23.35     42.522
      23.45      40.06
      23.55      41.57
      23.65     46.674
      23.75     41.887
      23.85     45.209
      23.95     39.849
      24.05     43.775
      24.15      43.76
      24.25     43.186
      24.35      38.55
      24.45     39.653
      24.55      40.03
      24.65      43.02
      24.75     41.102
      24.85     43.397
      24.95      39.26
      25.05     40.423
      25.15     40.362
      25.25     39.894
      25.35      41.48
      25.45     36.225
      25.55     41.918
      25.65     37.418
      25.75     40.755
      25.85     41.495
      25.95     37.524
      26.05     38.656
      26.15      40.06
      26.25     38.596
      26.35     37.403
      26.45     37.176
      26.55     36.557
      26.65     35.123
      26.75     37.493
      26.85     32.525
      26.95     33.839
      27.05     38.037
      27.15     37.357
      27.25     35.923
      27.35     32.133
      27.45     34.186
      27.55     32.586
      27.65     35.515
      27.75     32.782
      27.85     31.499
      27.95     33.069
      28.05     37.629
      28.15     33.371
      28.25     33.824
      28.35     34.081
      28.45     28.766
      28.55     32.042
      28.65     31.197
      28.75     31.121
      28.85     34.368
      28.95      28.66
      29.05     31.363
      29.15     31.665
      29.25     32.571
      29.35     30.638
      29.45     26.954
      29.55     29.309
      29.65     28.766
      29.75     30.517
      29.85     30.547
      29.95     27.316
      30.05     29.234
      30.15      31.65
      30.25     31.363
      30.35     29.249
      30.45     27.422
      30.55     29.143
      30.65     30.185
      30.75      28.66
      30.85     30.064
      30.95     27.256
      31.05     30.729
      31.15     27.784
      31.25     29.249
      31.35      28.01
      31.45     24.281
      31.55     28.554
      31.65     26.636
      31.75     29.505
      31.85     29.234
      31.95     27.089
      32.05     28.162
      32.15      27.89
      32.25     25.957
      32.35     26.712
      32.45     23.284
      32.55     25.987
      32.65     26.803
      32.75     29.626
      32.85     27.542
      32.95     23.118
      33.05      27.12
      33.15     25.534
      33.25     24.507
      33.35     22.997
      33.45     24.069
      33.55     26.772
      33.65     24.205
      33.75     21.185
      33.85     20.717
      33.95     18.467
      34.05     20.294
      34.15     17.727
      34.25     16.701
      34.35     14.224
      34.45     11.295
      34.55      10.54
      34.65      6.266
      34.75      1.238
      34.85       0.03
      34.95      9.347
      35.05      1.163
      35.15      0.408
ENDDATA            304
ENDSUBENT          312
SUBENT        E2402004   20131029   20140110   20131210       E081
BIB                  2          3
REACTION   (48-CD-112(A,INL)48-CD-112,,DA/DE,A/RSD)
EN-SEC     ANG is an average angle
           (E-EXC,48-CD-112)
ENDBIB               3
NOCOMMON             0          0
DATA                 2        302
E-EXC      DATA
MEV        MB/SR/MEV
       5.05      0.034
       5.15         0.
       5.25      0.084
       5.35      0.169
       5.45      0.118
       5.55      0.169
       5.65      2.197
       5.75      6.219
       5.85     12.134
       5.95     16.461
       6.05     22.916
       6.15     27.192
       6.25     28.003
       6.35     29.305
       6.45     28.764
       6.55     39.123
       6.65     39.833
       6.75     44.481
       6.85     43.298
       6.95     48.283
       7.05     54.807
       7.15     57.663
       7.25     57.866
       7.35     63.865
       7.45     55.736
       7.55      59.64
       7.65     58.964
       7.75      57.24
       7.85     61.262
       7.95     55.111
       8.05     57.122
       8.15     54.536
       8.25     56.192
       8.35     56.683
       8.45     52.998
       8.55     58.254
       8.65      53.37
       8.75     55.736
       8.85     55.736
       8.95     51.613
       9.05     58.153
       9.15     54.401
       9.25     57.037
       9.35     55.669
       9.45     54.367
       9.55     56.936
       9.65     59.572
       9.75     59.758
       9.85     57.713
       9.95     57.984
      10.05      57.95
      10.15     60.553
      10.25     63.933
      10.35      58.88
      10.45     60.417
      10.55       68.8
      10.65     70.118
      10.75     67.262
      10.85     74.039
      10.95     68.225
      11.05     76.134
      11.15     78.298
      11.25     77.334
      11.35     82.049
      11.45     76.979
      11.55     84.584
      11.65     85.582
      11.75     87.795
      11.85     90.043
      11.95     84.787
      12.05     95.874
      12.15     94.217
      12.25     96.837
      12.35    103.225
      12.45     95.046
      12.55    102.803
      12.65    101.924
      12.75     110.56
      12.85    110.627
      12.95    104.019
      13.05    109.005
      13.15    113.348
      13.25    119.517
      13.35    120.091
      13.45    110.577
      13.55    113.027
      13.65    127.612
      13.75    125.567
      13.85    122.677
      13.95    124.621
      14.05     125.55
      14.15    130.654
      14.25    135.166
      14.35    131.685
      14.45    125.719
      14.55    133.882
      14.65    137.498
      14.75    131.195
      14.85    135.521
      14.95    117.506
      15.05    132.834
      15.15    132.935
      15.25    128.727
      15.35    131.414
      15.45    116.847
      15.55    128.575
      15.65     124.08
      15.75    121.072
      15.85    124.232
      15.95    110.779
      16.05    122.322
      16.15    111.422
      16.25    115.579
      16.35    112.571
      16.45    100.994
      16.55    110.813
      16.65      101.4
      16.75    101.468
      16.85     99.186
      16.95      89.08
      17.05     96.719
      17.15     86.798
      17.25     88.083
      17.35     86.139
      17.45     76.067
      17.55     80.495
      17.65     76.777
      17.75     79.734
      17.85     74.343
      17.95     65.031
      18.05     67.617
      18.15     72.957
      18.25     66.586
      18.35     60.248
      18.45     58.254
      18.55     59.623
      18.65     58.457
      18.75     60.063
      18.85     56.243
      18.95     56.987
      19.05     52.255
      19.15     57.291
      19.25     55.364
      19.35     48.841
      19.45     48.131
      19.55     55.415
      19.65     52.407
      19.75     50.784
      19.85     49.787
      19.95     45.461
      20.05     50.869
      20.15     48.942
      20.25     46.526
      20.35     45.545
      20.45     42.554
      20.55     49.128
      20.65     44.988
      20.75       45.9
      20.85     47.337
      20.95     43.416
      21.05     46.864
      21.15     46.458
      21.25     45.562
      21.35     49.128
      21.45     43.534
      21.55     46.965
      21.65     48.064
      21.75     47.219
      21.85     48.148
      21.95     41.692
      22.05     45.512
      22.15     47.489
      22.25     46.745
      22.35     44.481
      22.45     40.797
      22.55     44.481
      22.65      42.47
      22.75     49.348
      22.85     47.337
      22.95     39.783
      23.05     46.407
      23.15     43.146
      23.25     46.948
      23.35     45.072
      23.45     40.813
      23.55     42.571
      23.65     42.994
      23.75     47.573
      23.85     45.207
      23.95     41.523
      24.05     45.478
      24.15     39.242
      24.25     43.146
      24.35     43.906
      24.45     38.769
      24.55     43.653
      24.65     39.935
      24.75     42.436
      24.85     41.151
      24.95     37.602
      25.05     39.461
      25.15      40.83
      25.25     41.523
      25.35     41.422
      25.45     35.507
      25.55     36.656
      25.65     40.763
      25.75     41.963
      25.85     39.901
      25.95     34.391
      26.05     39.766
      26.15     41.709
      26.25     41.709
      26.35     37.011
      26.45     36.048
      26.55     35.693
      26.65     39.495
      26.75     38.295
      26.85     37.095
      26.95     31.654
      27.05     33.868
      27.15     37.636
      27.25     37.619
      27.35     34.898
      27.45     31.349
      27.55     33.175
      27.65      32.33
      27.75     35.946
      27.85     33.039
      27.95     33.817
      28.05     31.164
      28.15     33.141
      28.25     35.727
      28.35     31.164
      28.45     32.651
      28.55     32.245
      28.65     34.797
      28.75     33.935
      28.85     30.826
      28.95     29.406
      29.05     29.575
      29.15     31.248
      29.25     32.583
      29.35     29.119
      29.45     28.899
      29.55     32.397
      29.65     31.028
      29.75     30.488
      29.85     27.834
      29.95     28.291
      30.05     28.426
      30.15      32.11
      30.25     31.924
      30.35     29.744
      30.45     25.688
      30.55     28.003
      30.65     28.629
      30.75     28.933
      30.85     27.919
      30.95     30.133
      31.05     26.601
      31.15     29.186
      31.25     28.645
      31.35     26.955
      31.45     24.725
      31.55     28.105
      31.65     29.254
      31.75     28.493
      31.85     26.313
      31.95       27.8
      32.05     26.567
      32.15     27.479
      32.25     29.017
      32.35     28.189
      32.45     28.138
      32.55     25.603
      32.65     29.558
      32.75        29.
      32.85     26.955
      32.95     24.742
      33.05     27.006
      33.15     28.223
      33.25     25.587
      33.35     24.606
      33.45     25.587
      33.55     25.316
      33.65     26.634
      33.75     29.558
      33.85     27.682
      33.95     23.491
      34.05     27.969
      34.15     22.883
      34.25     26.922
      34.35     26.972
      34.45     24.894
      34.55     25.553
      34.65     25.874
      34.75     26.888
      34.85     38.904
      34.95     22.308
      35.05      2.028
      35.15      0.439
ENDDATA            304
ENDSUBENT          312
SUBENT        E2402005   20131029   20140110   20131210       E081
BIB                  2          3
REACTION   (48-CD-114(A,INL)48-CD-114,,DA/DE,A/RSD)
EN-SEC     ANG is an average angle
           (E-EXC,48-CD-114)
ENDBIB               3
NOCOMMON             0          0
DATA                 2        302
E-EXC      DATA
MEV        MB/SR/MEV
       5.05      0.021
       5.15      0.021
       5.25      0.021
       5.35      0.021
       5.45      0.185
       5.55      0.082
       5.65      1.722
       5.75      7.872
       5.85     13.284
       5.95     18.696
       6.05     23.083
       6.15     26.199
       6.25     32.513
       6.35     36.039
       6.45     33.169
       6.55     38.889
       6.65     43.009
       6.75     43.706
       6.85     50.082
       6.95     49.733
       7.05      58.61
       7.15     63.284
       7.25     66.625
       7.35     72.611
       7.45     65.908
       7.55     72.037
       7.65     70.295
       7.75     66.154
       7.85     64.637
       7.95      58.22
       8.05      63.94
       8.15     67.589
       8.25     69.126
       8.35     62.136
       8.45     58.425
       8.55     64.329
       8.65     64.206
       8.75     65.498
       8.85     59.778
       8.95     57.339
       9.05     64.944
       9.15     62.218
       9.25     64.862
       9.35     64.247
       9.45     61.172
       9.55     64.247
       9.65     71.176
       9.75      66.83
       9.85     69.413
       9.95     60.783
      10.05     70.684
      10.15     71.647
      10.25     73.083
      10.35     73.369
      10.45     73.103
      10.55     72.714
      10.65     82.758
      10.75      80.77
      10.85     80.791
      10.95     76.854
      11.05     91.061
      11.15     87.986
      11.25     90.959
      11.35      91.41
      11.45     88.744
      11.55     96.227
      11.65     99.138
      11.75    100.163
      11.85    104.776
      11.95    101.639
      12.05    107.072
      12.15    107.994
      12.25    109.573
      12.35    112.197
      12.45    111.315
      12.55     117.65
      12.65    119.187
      12.75    119.782
      12.85    127.367
      12.95    111.336
      13.05    124.907
      13.15    134.214
      13.25    126.731
      13.35    131.733
      13.45    129.417
      13.55    138.047
      13.65    140.405
      13.75    147.047
      13.85    143.275
      13.95    139.441
      14.05    147.067
      14.15    144.238
      14.25    147.559
      14.35    148.646
      14.45     131.18
      14.55    148.953
      14.65      147.6
      14.75    152.745
      14.85    144.833
      14.95    133.004
      15.05    145.284
      15.15    146.637
      15.25    143.705
      15.35    139.298
      15.45    132.533
      15.55    141.532
      15.65    134.952
      15.75    134.665
      15.85    138.027
      15.95    119.618
      16.05    131.446
      16.15    122.693
      16.25    127.961
      16.35    121.217
      16.45    108.773
      16.55    118.941
      16.65    115.682
      16.75    111.295
      16.85    109.962
      16.95    100.286
      17.05    102.562
      17.15     99.323
      17.25     99.076
      17.35      94.71
      17.45     80.545
      17.55     88.929
      17.65     86.654
      17.75     83.968
      17.85     78.453
      17.95      70.91
      18.05     74.538
      18.15     77.244
      18.25      70.11
      18.35     71.791
      18.45     60.844
      18.55     67.712
      18.65     66.563
      18.75     61.172
      18.85     64.186
      18.95     58.979
      19.05     61.644
      19.15     56.764
      19.25     57.625
      19.35     56.437
      19.45      50.84
      19.55     58.302
      19.65      58.22
      19.75     56.806
      19.85     54.797
      19.95     47.785
      20.05      55.74
      20.15     55.944
      20.25     53.854
      20.35        50.
      20.45     46.679
      20.55     51.947
      20.65     53.054
      20.75      49.59
      20.85     51.783
      20.95     49.159
      21.05     48.708
      21.15     50.697
      21.25     47.745
      21.35     50.266
      21.45     46.187
      21.55     50.533
      21.65     50.963
      21.75     49.056
      21.85     49.385
      21.95      45.51
      22.05     48.278
      22.15     52.521
      22.25     53.095
      22.35     51.824
      22.45      45.08
      22.55     49.754
      22.65     50.184
      22.75     52.419
      22.85     50.574
      22.95     45.633
      23.05     50.123
      23.15      47.13
      23.25     48.319
      23.35     49.262
      23.45     45.859
      23.55     46.658
      23.65     49.877
      23.75     45.777
      23.85     49.364
      23.95     43.337
      24.05     49.549
      24.15     48.093
      24.25     48.257
      24.35     45.408
      24.45     43.481
      24.55     42.927
      24.65     43.931
      24.75     46.289
      24.85     46.063
      24.95      42.64
      25.05     46.699
      25.15     46.699
      25.25      44.67
      25.35     43.173
      25.45     41.902
      25.55     44.957
      25.65     42.579
      25.75     41.636
      25.85     42.907
      25.95     41.246
      26.05     44.034
      26.15     42.681
      26.25     39.852
      26.35     39.975
      26.45     36.839
      26.55     40.385
      26.65     46.084
      26.75     39.565
      26.85     40.467
      26.95     37.125
      27.05     39.524
      27.15     40.201
      27.25     38.028
      27.35     37.064
      27.45     36.613
      27.55     36.593
      27.65     34.563
      27.75      37.31
      27.85     36.203
      27.95     37.925
      28.05      37.72
      28.15     39.422
      28.25     34.686
      28.35     36.121
      28.45      34.03
      28.55     33.681
      28.65     36.408
      28.75     35.813
      28.85     34.174
      28.95     31.652
      29.05     34.993
      29.15     33.989
      29.25     35.527
      29.35     36.531
      29.45     28.557
      29.55     30.812
      29.65     35.199
      29.75     33.559
      29.85     31.919
      29.95     31.345
      30.05     31.263
      30.15     32.513
      30.25     34.112
      30.35      31.98
      30.45     30.586
      30.55     32.882
      30.65     31.017
      30.75     31.406
      30.85     28.597
      30.95     25.933
      31.05     30.668
      31.15     29.582
      31.25     29.438
      31.35     33.333
      31.45     25.707
      31.55     34.091
      31.65     30.976
      31.75     30.607
      31.85     29.684
      31.95     25.256
      32.05     28.844
      32.15      30.34
      32.25       29.5
      32.35     30.156
      32.45     26.056
      32.55     28.721
      32.65     28.208
      32.75     30.094
      32.85     30.094
      32.95     30.217
      33.05     28.597
      33.15     28.516
      33.25     29.028
      33.35     28.926
      33.45     28.392
      33.55     30.586
      33.65     26.302
      33.75     27.491
      33.85     30.586
      33.95     28.167
      34.05     28.803
      34.15     29.766
      34.25     30.689
      34.35     30.094
      34.45     27.019
      34.55     31.755
      34.65     30.012
      34.75     28.065
      34.85     36.982
      34.95     30.689
      35.05      2.952
      35.15      0.266
ENDDATA            304
ENDSUBENT          312
SUBENT        E2402006   20131029   20140110   20131210       E081
BIB                  2          3
REACTION   (48-CD-116(A,INL)48-CD-116,,DA/DE,A/RSD)
EN-SEC     ANG is an average angle
           (E-EXC,48-CD-116)
ENDBIB               3
NOCOMMON             0          0
DATA                 2        302
E-EXC      DATA
MEV        MB/SR/MEV
       5.05         0.
       5.15         0.
       5.25         0.
       5.35      0.015
       5.45      0.293
       5.55      0.092
       5.65      1.848
       5.75      5.529
       5.85     13.922
       5.95     17.186
       6.05     25.318
       6.15     24.994
       6.25     29.953
       6.35     38.947
       6.45     33.156
       6.55     35.697
       6.65     41.241
       6.75     44.521
       6.85     48.079
       6.95      50.05
       7.05     59.721
       7.15     59.968
       7.25     63.032
       7.35     68.884
       7.45      57.95
       7.55     58.797
       7.65     59.367
       7.75     61.492
       7.85     57.658
       7.95     54.901
       8.05     58.643
       8.15     58.628
       8.25     56.549
       8.35      59.69
       8.45     52.791
       8.55     55.948
       8.65     55.117
       8.75     57.735
       8.85     53.484
       8.95     53.654
       9.05     57.134
       9.15     58.335
       9.25     57.411
       9.35     62.262
       9.45     55.378
       9.55     58.813
       9.65     59.721
       9.75     66.513
       9.85     61.662
       9.95     60.507
      10.05      65.45
      10.15     71.271
      10.25     70.024
      10.35     72.981
      10.45     69.115
      10.55     74.521
      10.65     77.493
      10.75     82.036
      10.85      77.97
      10.95     74.983
      11.05     77.755
      11.15     88.504
      11.25     85.424
      11.35     89.228
      11.45     84.808
      11.55     86.748
      11.65     89.335
      11.75     96.989
      11.85     95.357
      11.95     90.537
      12.05     95.003
      12.15    104.089
      12.25    102.595
      12.35    107.615
      12.45     96.727
      12.55    104.812
      12.65     107.23
      12.75     112.79
      12.85    110.449
      12.95    107.461
      13.05     122.63
      13.15    119.319
      13.25    119.596
      13.35    124.571
      13.45    121.321
      13.55    126.834
      13.65    125.726
      13.75    134.288
      13.85    127.312
      13.95     122.63
      14.05     135.52
      14.15    132.455
      14.25    131.146
      14.35    135.859
      14.45    124.663
      14.55    127.189
      14.65    137.322
      14.75    125.371
      14.85    128.328
      14.95    122.291
      15.05    134.996
      15.15    123.985
      15.25    124.001
      15.35    127.373
      15.45    115.223
      15.55    116.486
      15.65    125.017
      15.75    117.856
      15.85    114.884
      15.95    105.228
      16.05    116.948
      16.15    106.768
      16.25    112.143
      16.35    107.338
      16.45     97.082
      16.55     98.375
      16.65     99.268
      16.75     95.942
      16.85     96.897
      16.95     81.558
      17.05     93.955
      17.15     82.298
      17.25     83.406
      17.35     77.447
      17.45     75.044
      17.55     71.163
      17.65     75.167
      17.75     70.455
      17.85     67.437
      17.95     56.857
      18.05     66.574
      18.15     61.307
      18.25     64.742
      18.35     57.103
      18.45     55.147
      18.55     57.072
      18.65     57.596
      18.75     51.975
      18.85     57.889
      18.95     49.265
      19.05     52.976
      19.15     48.803
      19.25      51.96
      19.35     49.819
      19.45     45.076
      19.55     48.525
      19.65     48.033
      19.75     48.094
      19.85      48.88
      19.95     44.337
      20.05     45.291
      20.15     48.017
      20.25     43.767
      20.35     46.785
      20.45     40.949
      20.55     46.046
      20.65      47.54
      20.75     48.726
      20.85     42.997
      20.95     37.869
      21.05     41.518
      21.15     45.168
      21.25     43.597
      21.35     43.813
      21.45     40.271
      21.55     45.661
      21.65     41.303
      21.75     43.182
      21.85     42.458
      21.95     40.425
      22.05     42.104
      22.15     44.121
      22.25     43.228
      22.35     42.874
      22.45     37.807
      22.55     42.088
      22.65     40.918
      22.75     44.737
      22.85     44.029
      22.95     39.162
      23.05     43.151
      23.15     42.827
      23.25     42.904
      23.35     42.381
      23.45     39.424
      23.55     41.103
      23.65     42.042
      23.75     40.487
      23.85     41.703
      23.95     39.316
      24.05     43.905
      24.15      40.44
      24.25     41.565
      24.35     39.239
      24.45     39.054
      24.55     40.117
      24.65      39.07
      24.75     39.239
      24.85     39.347
      24.95     37.684
      25.05     37.792
      25.15     38.515
      25.25     38.007
      25.35     36.714
      25.45      34.25
      25.55     40.086
      25.65     36.252
      25.75     35.928
      25.85     39.301
      25.95     32.771
      26.05     37.499
      26.15     36.975
      26.25     35.743
      26.35     34.357
      26.45     32.432
      26.55     37.237
      26.65     34.819
      26.75     35.666
      26.85     32.355
      26.95     31.277
      27.05     34.388
      27.15     32.586
      27.25     30.769
      27.35     33.002
      27.45     29.198
      27.55     32.155
      27.65     29.491
      27.75     32.432
      27.85     29.676
      27.95     29.737
      28.05     34.265
      28.15     31.508
      28.25     33.356
      28.35     30.846
      28.45     30.215
      28.55     30.215
      28.65     30.353
      28.75     29.414
      28.85     30.153
      28.95     26.442
      29.05     32.956
      29.15     29.214
      29.25     32.078
      29.35      27.72
      29.45     27.735
      29.55     28.336
      29.65     30.153
      29.75     28.659
      29.85     30.138
      29.95     26.041
      30.05     28.228
      30.15     30.554
      30.25      28.49
      30.35      29.06
      30.45     23.778
      30.55     27.859
      30.65     26.858
      30.75     28.552
      30.85     27.427
      30.95     23.993
      31.05     24.101
      31.15     24.886
      31.25     25.687
      31.35      27.92
      31.45     24.702
      31.55     27.905
      31.65     26.411
      31.75     26.565
      31.85      24.64
      31.95     24.625
      32.05     26.611
      32.15      23.87
      32.25     26.072
      32.35     26.149
      32.45     23.716
      32.55     25.995
      32.65     24.748
      32.75     23.901
      32.85     25.549
      32.95      20.99
      33.05     23.731
      33.15     28.197
      33.25     22.761
      33.35     24.763
      33.45     23.439
      33.55     25.995
      33.65     23.624
      33.75     27.181
      33.85     24.732
      33.95     22.484
      34.05     23.192
      34.15     22.946
      34.25     22.684
      34.35     24.871
      34.45     21.298
      34.55     24.378
      34.65     24.009
      34.75     21.514
      34.85     28.906
      34.95     20.821
      35.05      1.971
      35.15      0.185
ENDDATA            304
ENDSUBENT          312
ENDENTRY             6
