ENTRY            E2411   20140325   20140331   20140325       E086
SUBENT        E2411001   20140325   20140331   20140325       E086
BIB                 11         25
TITLE      Fusion probabilities in the reactions 40,48Ca + 238U
           at energies around the Coulomb barrier
AUTHOR     (K.Nishio, S.Mitsuoka, I.Nishinaka, H.Makii,
            Y.Wakabayashi, H.Ikezoe, K.Hirose, T.Ohtsuki,
            Y.Aritomo, S.Hofmann)
INSTITUTE  (2JPNJAE) Advanced Science Research Center
           (2JPNIPC) Nishina Center for Accelerator-Based Science
           (2JPNTOH) Research Center for Electron Photon Science
           (4ZZZDUB) Flerov Laboratory of Nuclear Reactions
           (2GERGSI)
           (2GERFRK) Institut fur Kernphysik
REFERENCE  (J,PR/C,86,034608,2012)
PART-DET   (FF)
INC-SOURCE Beam intensity is 0.5 to 1.0 particle-nA.
SAMPLE     - Target is natural.
           - Chemical-form of target: UO2
           - Physical-form of target is solid.
           - Target-thickness is 0.08 mg/cm2. 238U
           - Backing is nickel.
           - Backing-thickness is 0.09 mg/cm2. foil
FACILITY   (VDGT,2JPNJAE)
DETECTOR   (MWPC) with isobutane gas at a pressure 3 Torr
STATUS     (APRVD) Proofread by K. Nishio (2013.06.28)
HISTORY    (20130423R) Received by e-mail from K.Nishio
           (20130501C) S.Ebata
ENDBIB              25
NOCOMMON             0          0
ENDSUBENT           28
SUBENT        E2411002   20140325   20140331   20140325       E086
BIB                  3         13
REACTION   (92-U-238(20-CA-40,F),,SIG,,MSC)
           The cross sections were obtained by fitting the
           fragment angular distributions as function of the
           center-of-mass angle between 70 and 100 degrees to a
           function given in R.Vandenbosch et al., Nuclear Fisson
            (Academic Press, New York, 1973) and integrating it
           over the angle.
ERR-ANALYS (DATA-ERR) The errors include systematic uncertainties
                      arising from the limited angular range
                      covered as well as statistical
                      uncertainties.
STATUS     (TABLE) Plotted in Fig.1 of Phys. Rev. C 86, 034608
                   (2012)
ENDBIB              13
NOCOMMON             0          0
DATA                 3          9
EN-CM      DATA       DATA-ERR
MEV        MB         MB
      230.0  3.529E+02  5.360E+01
      219.2  3.027E+02  4.630E+01
      210.1  2.078E+02  3.160E+01
      204.6  1.481E+02  2.270E+01
      200.0  8.650E+01  1.310E+01
      195.0  3.970E+01  6.200E+00
      190.0  1.639E+01  2.510E+00
      185.0  2.520E+00  4.300E-01
      180.0  2.950E-01  5.300E-02
ENDDATA             11
ENDSUBENT           29
SUBENT        E2411003   20140325   20140331   20140325       E086
BIB                  3         13
REACTION   (92-U-238(20-CA-48,F),,SIG,,MSC)
           The cross sections were obtained by fitting the
           fragment angular distributions as function of the
           center-of-mass angle between 70 and 100 degrees to a
           function given in R.Vandenbosch et al., Nuclear Fisson
            (Academic Press, New York, 1973) and integrating it
           over the angle.
ERR-ANALYS (DATA-ERR) The errors include systematic uncertainties
                      arising from the limited angular range
                      covered as well as statistical
                      uncertainties.
STATUS     (TABLE) Plotted in Fig.1 of Phys. Rev. C 86, 034608
                   (2012)
ENDBIB              13
NOCOMMON             0          0
DATA                 3          9
EN-CM      DATA       DATA-ERR
MEV        MB         MB
      246.0  2.322E+02  3.600E+01
      240.0  3.184E+02  4.810E+01
      230.0  3.329E+02  5.030E+01
      220.0  3.799E+02  5.740E+01
      210.0  3.419E+02  5.160E+01
      200.0  1.724E+02  2.600E+01
      190.0  1.946E+01  3.020E+00
      185.0  2.217E+00  5.410E-01
      180.0  1.350E-01  5.400E-02
ENDDATA             11
ENDSUBENT           29
SUBENT        E2411004   20140325   20140331   20140325       E086
BIB                  3          8
REACTION   (92-U-238(20-CA-48,F)MASS,PRE,FY,,MSC)
           The data cover the detection angle of fission
           fragments between 65 and 115 degress. The spectra are
           normalized such that the total area of each spectrum
           summed over the mass range is 200%.
ERR-ANALYS (DATA-ERR) No information on source of uncertainties
STATUS     (TABLE) Plotted in Fig.2 of Phys. Rev. C 86, 034608
                   (2012)
ENDBIB               8
COMMON               1          3
EN-CM
MEV
 246.0
ENDCOMMON            3
DATA                 3        144
MASS       DATA       DATA-ERR
NO-DIM     PC/FIS     PC/FIS
         0.      0.000      0.000
         2.      0.000      0.000
         4.      0.000      0.000
         6.      0.000      0.000
         8.      0.000      0.000
        10.      0.000      0.000
        12.      0.000      0.000
        14.      0.000      0.000
        16.      0.000      0.000
        18.      0.000      0.000
        20.      0.000      0.000
        22.      0.000      0.000
        24.      0.000      0.000
        26.      0.000      0.000
        28.      0.000      0.000
        30.      0.000      0.000
        32.      0.000      0.000
        34.      0.000      0.000
        36.      0.000      0.000
        38.      0.000      0.000
        40.      0.000      0.000
        42.      0.000      0.000
        44.      0.000      0.000
        46.      0.000      0.000
        48.      0.000      0.000
        50.      0.000      0.000
        52.      0.000      0.000
        54.      0.512      0.082
        56.      0.577      0.087
        58.      0.184      0.049
        60.      0.131      0.041
        62.      0.131      0.041
        64.      0.276      0.060
        66.      0.236      0.056
        68.      0.407      0.073
        70.      0.472      0.079
        72.      0.499      0.081
        74.      0.800      0.102
        76.      0.708      0.096
        78.      0.892      0.108
        80.      0.787      0.102
        82.      1.063      0.118
        84.      1.220      0.126
        86.      1.010      0.115
        88.      0.853      0.106
        90.      1.141      0.122
        92.      1.469      0.139
        94.      1.102      0.120
        96.      1.023      0.116
        98.      1.364      0.134
       100.      1.168      0.124
       102.      1.391      0.135
       104.      1.194      0.125
       106.      1.194      0.125
       108.      1.299      0.130
       110.      1.417      0.136
       112.      1.561      0.143
       114.      1.601      0.144
       116.      1.194      0.125
       118.      1.456      0.138
       120.      1.666      0.148
       122.      1.863      0.156
       124.      1.535      0.142
       126.      1.679      0.148
       128.      1.496      0.140
       130.      1.679      0.148
       132.      1.824      0.155
       134.      1.456      0.138
       136.      1.627      0.146
       138.      1.640      0.147
       140.      1.574      0.144
       142.      1.627      0.146
       144.      1.627      0.146
       146.      1.574      0.144
       148.      1.640      0.147
       150.      1.627      0.146
       152.      1.456      0.138
       154.      1.824      0.155
       156.      1.679      0.148
       158.      1.496      0.140
       160.      1.679      0.148
       162.      1.535      0.142
       164.      1.863      0.156
       166.      1.666      0.148
       168.      1.456      0.138
       170.      1.194      0.125
       172.      1.601      0.144
       174.      1.561      0.143
       176.      1.417      0.136
       178.      1.299      0.130
       180.      1.194      0.125
       182.      1.194      0.125
       184.      1.391      0.135
       186.      1.168      0.124
       188.      1.364      0.134
       190.      1.023      0.116
       192.      1.102      0.120
       194.      1.469      0.139
       196.      1.141      0.122
       198.      0.853      0.106
       200.      1.010      0.115
       202.      1.220      0.126
       204.      1.063      0.118
       206.      0.787      0.102
       208.      0.892      0.108
       210.      0.708      0.096
       212.      0.800      0.102
       214.      0.499      0.081
       216.      0.472      0.079
       218.      0.407      0.073
       220.      0.236      0.056
       222.      0.276      0.060
       224.      0.131      0.041
       226.      0.131      0.041
       228.      0.184      0.049
       230.      0.577      0.087
       232.      0.512      0.082
       234.      0.000      0.000
       236.      0.000      0.000
       238.      0.000      0.000
       240.      0.000      0.000
       242.      0.000      0.000
       244.      0.000      0.000
       246.      0.000      0.000
       248.      0.000      0.000
       250.      0.000      0.000
       252.      0.000      0.000
       254.      0.000      0.000
       256.      0.000      0.000
       258.      0.000      0.000
       260.      0.000      0.000
       262.      0.000      0.000
       264.      0.000      0.000
       266.      0.000      0.000
       268.      0.000      0.000
       270.      0.000      0.000
       272.      0.000      0.000
       274.      0.000      0.000
       276.      0.000      0.000
       278.      0.000      0.000
       280.      0.000      0.000
       282.      0.000      0.000
       284.      0.000      0.000
       286.      0.000      0.000
ENDDATA            146
ENDSUBENT          163
SUBENT        E2411005   20140325   20140331   20140325       E086
BIB                  3          8
REACTION   (92-U-238(20-CA-48,F)MASS,PRE,FY,,MSC)
           The data cover the detection angle of fission
           fragments between 65 and 115 degress. The spectra are
           normalized such that the total area of each spectrum
           summed over the mass range is 200%.
ERR-ANALYS (DATA-ERR) No information on source of uncertainties
STATUS     (TABLE) Plotted in Fig.2 of Phys. Rev. C 86, 034608
                   (2012)
ENDBIB               8
COMMON               1          3
EN-CM
MEV
 240.0
ENDCOMMON            3
DATA                 3        144
MASS       DATA       DATA-ERR
NO-DIM     PC/FIS     PC/FIS
         0.      0.000      0.000
         2.      0.000      0.000
         4.      0.000      0.000
         6.      0.000      0.000
         8.      0.000      0.000
        10.      0.000      0.000
        12.      0.000      0.000
        14.      0.000      0.000
        16.      0.000      0.000
        18.      0.000      0.000
        20.      0.000      0.000
        22.      0.000      0.000
        24.      0.000      0.000
        26.      0.000      0.000
        28.      0.000      0.000
        30.      0.000      0.000
        32.      0.000      0.000
        34.      0.000      0.000
        36.      0.000      0.000
        38.      0.000      0.000
        40.      0.000      0.000
        42.      0.000      0.000
        44.      0.000      0.000
        46.      0.000      0.000
        48.      0.000      0.000
        50.      0.000      0.000
        52.      0.000      0.000
        54.      0.459      0.040
        56.      0.261      0.030
        58.      0.202      0.027
        60.      0.223      0.028
        62.      0.383      0.037
        64.      0.435      0.039
        66.      0.508      0.042
        68.      0.546      0.043
        70.      0.706      0.049
        72.      0.758      0.051
        74.      0.887      0.056
        76.      0.964      0.058
        78.      0.929      0.057
        80.      1.082      0.061
        82.      1.113      0.062
        84.      1.179      0.064
        86.      1.214      0.065
        88.      1.134      0.063
        90.      1.155      0.063
        92.      1.141      0.063
        94.      1.270      0.066
        96.      1.110      0.062
        98.      1.277      0.067
       100.      1.079      0.061
       102.      1.225      0.065
       104.      1.259      0.066
       106.      1.340      0.068
       108.      1.322      0.068
       110.      1.287      0.067
       112.      1.336      0.068
       114.      1.312      0.067
       116.      1.409      0.070
       118.      1.319      0.068
       120.      1.402      0.070
       122.      1.333      0.068
       124.      1.534      0.073
       126.      1.632      0.075
       128.      1.590      0.074
       130.      1.440      0.071
       132.      1.597      0.074
       134.      1.559      0.074
       136.      1.576      0.074
       138.      1.604      0.075
       140.      1.482      0.072
       142.      1.426      0.070
       144.      1.426      0.070
       146.      1.482      0.072
       148.      1.604      0.075
       150.      1.576      0.074
       152.      1.559      0.074
       154.      1.597      0.074
       156.      1.440      0.071
       158.      1.590      0.074
       160.      1.632      0.075
       162.      1.534      0.073
       164.      1.333      0.068
       166.      1.402      0.070
       168.      1.319      0.068
       170.      1.409      0.070
       172.      1.312      0.067
       174.      1.336      0.068
       176.      1.287      0.067
       178.      1.322      0.068
       180.      1.340      0.068
       182.      1.259      0.066
       184.      1.225      0.065
       186.      1.079      0.061
       188.      1.277      0.067
       190.      1.110      0.062
       192.      1.270      0.066
       194.      1.141      0.063
       196.      1.155      0.063
       198.      1.134      0.063
       200.      1.214      0.065
       202.      1.179      0.064
       204.      1.113      0.062
       206.      1.082      0.061
       208.      0.929      0.057
       210.      0.964      0.058
       212.      0.887      0.056
       214.      0.758      0.051
       216.      0.706      0.049
       218.      0.546      0.043
       220.      0.508      0.042
       222.      0.435      0.039
       224.      0.383      0.037
       226.      0.223      0.028
       228.      0.202      0.027
       230.      0.261      0.030
       232.      0.459      0.040
       234.      0.000      0.000
       236.      0.000      0.000
       238.      0.000      0.000
       240.      0.000      0.000
       242.      0.000      0.000
       244.      0.000      0.000
       246.      0.000      0.000
       248.      0.000      0.000
       250.      0.000      0.000
       252.      0.000      0.000
       254.      0.000      0.000
       256.      0.000      0.000
       258.      0.000      0.000
       260.      0.000      0.000
       262.      0.000      0.000
       264.      0.000      0.000
       266.      0.000      0.000
       268.      0.000      0.000
       270.      0.000      0.000
       272.      0.000      0.000
       274.      0.000      0.000
       276.      0.000      0.000
       278.      0.000      0.000
       280.      0.000      0.000
       282.      0.000      0.000
       284.      0.000      0.000
       286.      0.000      0.000
ENDDATA            146
ENDSUBENT          163
SUBENT        E2411006   20140325   20140331   20140325       E086
BIB                  3          8
REACTION   (92-U-238(20-CA-48,F)MASS,PRE,FY,,MSC)
           The data cover the detection angle of fission
           fragments between 65 and 115 degress. The spectra are
           normalized such that the total area of each spectrum
           summed over the mass range is 200%.
ERR-ANALYS (DATA-ERR) No information on source of uncertainties
STATUS     (TABLE) Plotted in Fig.2 of Phys. Rev. C 86, 034608
                   (2012)
ENDBIB               8
COMMON               1          3
EN-CM
MEV
 230.0
ENDCOMMON            3
DATA                 3        144
MASS       DATA       DATA-ERR
NO-DIM     PC/FIS     PC/FIS
         0.      0.000      0.000
         2.      0.000      0.000
         4.      0.000      0.000
         6.      0.000      0.000
         8.      0.000      0.000
        10.      0.000      0.000
        12.      0.000      0.000
        14.      0.000      0.000
        16.      0.000      0.000
        18.      0.000      0.000
        20.      0.000      0.000
        22.      0.000      0.000
        24.      0.000      0.000
        26.      0.000      0.000
        28.      0.000      0.000
        30.      0.000      0.000
        32.      0.000      0.000
        34.      0.000      0.000
        36.      0.000      0.000
        38.      0.000      0.000
        40.      0.000      0.000
        42.      0.000      0.000
        44.      0.000      0.000
        46.      0.000      0.000
        48.      0.000      0.000
        50.      0.000      0.000
        52.      0.000      0.000
        54.      1.178      0.064
        56.      0.648      0.047
        58.      0.444      0.039
        60.      0.476      0.040
        62.      0.600      0.045
        64.      0.658      0.048
        66.      0.772      0.052
        68.      0.958      0.058
        70.      0.844      0.054
        72.      0.879      0.055
        74.      1.078      0.061
        76.      1.141      0.063
        78.      1.168      0.063
        80.      1.141      0.063
        82.      1.203      0.064
        84.      1.072      0.061
        86.      1.178      0.064
        88.      1.199      0.064
        90.      1.223      0.065
        92.      1.092      0.061
        94.      1.068      0.061
        96.      1.185      0.064
        98.      1.172      0.063
       100.      1.134      0.062
       102.      1.178      0.064
       104.      1.192      0.064
       106.      1.092      0.061
       108.      1.127      0.062
       110.      1.123      0.062
       112.      1.206      0.064
       114.      1.220      0.065
       116.      1.154      0.063
       118.      1.175      0.064
       120.      1.196      0.064
       122.      1.327      0.068
       124.      1.261      0.066
       126.      1.282      0.067
       128.      1.368      0.069
       130.      1.385      0.069
       132.      1.392      0.069
       134.      1.292      0.067
       136.      1.378      0.069
       138.      1.244      0.065
       140.      1.437      0.070
       142.      1.461      0.071
       144.      1.461      0.071
       146.      1.437      0.070
       148.      1.244      0.065
       150.      1.378      0.069
       152.      1.292      0.067
       154.      1.392      0.069
       156.      1.385      0.069
       158.      1.368      0.069
       160.      1.282      0.067
       162.      1.261      0.066
       164.      1.327      0.068
       166.      1.196      0.064
       168.      1.175      0.064
       170.      1.154      0.063
       172.      1.220      0.065
       174.      1.206      0.064
       176.      1.123      0.062
       178.      1.127      0.062
       180.      1.092      0.061
       182.      1.192      0.064
       184.      1.178      0.064
       186.      1.134      0.062
       188.      1.172      0.063
       190.      1.185      0.064
       192.      1.068      0.061
       194.      1.092      0.061
       196.      1.223      0.065
       198.      1.199      0.064
       200.      1.178      0.064
       202.      1.072      0.061
       204.      1.203      0.064
       206.      1.141      0.063
       208.      1.168      0.063
       210.      1.141      0.063
       212.      1.078      0.061
       214.      0.879      0.055
       216.      0.844      0.054
       218.      0.958      0.058
       220.      0.772      0.052
       222.      0.658      0.048
       224.      0.600      0.045
       226.      0.476      0.040
       228.      0.444      0.039
       230.      0.648      0.047
       232.      1.178      0.064
       234.      0.000      0.000
       236.      0.000      0.000
       238.      0.000      0.000
       240.      0.000      0.000
       242.      0.000      0.000
       244.      0.000      0.000
       246.      0.000      0.000
       248.      0.000      0.000
       250.      0.000      0.000
       252.      0.000      0.000
       254.      0.000      0.000
       256.      0.000      0.000
       258.      0.000      0.000
       260.      0.000      0.000
       262.      0.000      0.000
       264.      0.000      0.000
       266.      0.000      0.000
       268.      0.000      0.000
       270.      0.000      0.000
       272.      0.000      0.000
       274.      0.000      0.000
       276.      0.000      0.000
       278.      0.000      0.000
       280.      0.000      0.000
       282.      0.000      0.000
       284.      0.000      0.000
       286.      0.000      0.000
ENDDATA            146
ENDSUBENT          163
SUBENT        E2411007   20140325   20140331   20140325       E086
BIB                  3          8
REACTION   (92-U-238(20-CA-48,F)MASS,PRE,FY,,MSC)
           The data cover the detection angle of fission
           fragments between 65 and 115 degress. The spectra are
           normalized such that the total area of each spectrum
           summed over the mass range is 200%.
ERR-ANALYS (DATA-ERR) No information on source of uncertainties
STATUS     (TABLE) Plotted in Fig.2 of Phys. Rev. C 86, 034608
                   (2012)
ENDBIB               8
COMMON               1          3
EN-CM
MEV
 220.0
ENDCOMMON            3
DATA                 3        144
MASS       DATA       DATA-ERR
NO-DIM     PC/FIS     PC/FIS
         0.      0.000      0.000
         2.      0.000      0.000
         4.      0.000      0.000
         6.      0.000      0.000
         8.      0.000      0.000
        10.      0.000      0.000
        12.      0.000      0.000
        14.      0.000      0.000
        16.      0.000      0.000
        18.      0.000      0.000
        20.      0.000      0.000
        22.      0.000      0.000
        24.      0.000      0.000
        26.      0.000      0.000
        28.      0.000      0.000
        30.      0.000      0.000
        32.      0.000      0.000
        34.      0.000      0.000
        36.      0.000      0.000
        38.      0.000      0.000
        40.      0.000      0.000
        42.      0.000      0.000
        44.      0.000      0.000
        46.      0.000      0.000
        48.      0.000      0.000
        50.      0.000      0.000
        52.      0.000      0.000
        54.      0.998      0.055
        56.      0.958      0.054
        58.      0.834      0.051
        60.      0.888      0.052
        62.      0.885      0.052
        64.      1.080      0.057
        66.      1.074      0.057
        68.      1.168      0.060
        70.      1.381      0.065
        72.      1.266      0.062
        74.      1.488      0.067
        76.      1.369      0.064
        78.      1.256      0.062
        80.      1.314      0.063
        82.      1.305      0.063
        84.      1.190      0.060
        86.      1.302      0.063
        88.      1.333      0.064
        90.      1.162      0.059
        92.      1.080      0.057
        94.      1.153      0.059
        96.      1.141      0.059
        98.      1.074      0.057
       100.      1.065      0.057
       102.      1.080      0.057
       104.      0.964      0.054
       106.      1.083      0.057
       108.      1.040      0.056
       110.      1.080      0.057
       112.      0.934      0.053
       114.      1.047      0.056
       116.      0.931      0.053
       118.      1.004      0.055
       120.      1.135      0.059
       122.      1.062      0.057
       124.      1.053      0.057
       126.      1.053      0.057
       128.      1.071      0.057
       130.      1.031      0.056
       132.      1.083      0.057
       134.      1.177      0.060
       136.      1.107      0.058
       138.      1.056      0.057
       140.      1.110      0.058
       142.      1.135      0.059
       144.      1.135      0.059
       146.      1.110      0.058
       148.      1.056      0.057
       150.      1.107      0.058
       152.      1.177      0.060
       154.      1.083      0.057
       156.      1.031      0.056
       158.      1.071      0.057
       160.      1.053      0.057
       162.      1.053      0.057
       164.      1.062      0.057
       166.      1.135      0.059
       168.      1.004      0.055
       170.      0.931      0.053
       172.      1.047      0.056
       174.      0.934      0.053
       176.      1.080      0.057
       178.      1.040      0.056
       180.      1.083      0.057
       182.      0.964      0.054
       184.      1.080      0.057
       186.      1.065      0.057
       188.      1.074      0.057
       190.      1.141      0.059
       192.      1.153      0.059
       194.      1.080      0.057
       196.      1.162      0.059
       198.      1.333      0.064
       200.      1.302      0.063
       202.      1.190      0.060
       204.      1.305      0.063
       206.      1.314      0.063
       208.      1.256      0.062
       210.      1.369      0.064
       212.      1.488      0.067
       214.      1.266      0.062
       216.      1.381      0.065
       218.      1.168      0.060
       220.      1.074      0.057
       222.      1.080      0.057
       224.      0.885      0.052
       226.      0.888      0.052
       228.      0.834      0.051
       230.      0.958      0.054
       232.      0.998      0.055
       234.      0.000      0.000
       236.      0.000      0.000
       238.      0.000      0.000
       240.      0.000      0.000
       242.      0.000      0.000
       244.      0.000      0.000
       246.      0.000      0.000
       248.      0.000      0.000
       250.      0.000      0.000
       252.      0.000      0.000
       254.      0.000      0.000
       256.      0.000      0.000
       258.      0.000      0.000
       260.      0.000      0.000
       262.      0.000      0.000
       264.      0.000      0.000
       266.      0.000      0.000
       268.      0.000      0.000
       270.      0.000      0.000
       272.      0.000      0.000
       274.      0.000      0.000
       276.      0.000      0.000
       278.      0.000      0.000
       280.      0.000      0.000
       282.      0.000      0.000
       284.      0.000      0.000
       286.      0.000      0.000
ENDDATA            146
ENDSUBENT          163
SUBENT        E2411008   20140325   20140331   20140325       E086
BIB                  3          8
REACTION   (92-U-238(20-CA-48,F)MASS,PRE,FY,,MSC)
           The data cover the detection angle of fission
           fragments between 65 and 115 degress. The spectra are
           normalized such that the total area of each spectrum
           summed over the mass range is 200%.
ERR-ANALYS (DATA-ERR) No information on source of uncertainties
STATUS     (TABLE) Plotted in Fig.2 of Phys. Rev. C 86, 034608
                   (2012)
ENDBIB               8
COMMON               1          3
EN-CM
MEV
 210.0
ENDCOMMON            3
DATA                 3        144
MASS       DATA       DATA-ERR
NO-DIM     PC/FIS     PC/FIS
         0.      0.000      0.000
         2.      0.000      0.000
         4.      0.000      0.000
         6.      0.000      0.000
         8.      0.000      0.000
        10.      0.000      0.000
        12.      0.000      0.000
        14.      0.000      0.000
        16.      0.000      0.000
        18.      0.000      0.000
        20.      0.000      0.000
        22.      0.000      0.000
        24.      0.000      0.000
        26.      0.000      0.000
        28.      0.000      0.000
        30.      0.000      0.000
        32.      0.000      0.000
        34.      0.000      0.000
        36.      0.000      0.000
        38.      0.000      0.000
        40.      0.000      0.000
        42.      0.000      0.000
        44.      0.000      0.000
        46.      0.000      0.000
        48.      0.000      0.000
        50.      0.000      0.000
        52.      0.000      0.000
        54.      0.406      0.036
        56.      0.980      0.056
        58.      1.041      0.058
        60.      1.132      0.060
        62.      1.286      0.064
        64.      1.509      0.070
        66.      1.448      0.068
        68.      1.825      0.077
        70.      1.809      0.076
        72.      1.896      0.078
        74.      1.660      0.073
        76.      1.689      0.074
        78.      1.670      0.074
        80.      1.654      0.073
        82.      1.460      0.069
        84.      1.496      0.069
        86.      1.557      0.071
        88.      1.344      0.066
        90.      1.183      0.062
        92.      1.293      0.064
        94.      1.244      0.063
        96.      1.167      0.061
        98.      1.128      0.060
       100.      0.938      0.055
       102.      1.083      0.059
       104.      0.851      0.052
       106.      0.941      0.055
       108.      0.919      0.054
       110.      0.819      0.051
       112.      0.803      0.051
       114.      0.748      0.049
       116.      0.864      0.053
       118.      0.761      0.050
       120.      0.790      0.051
       122.      0.729      0.048
       124.      0.851      0.052
       126.      0.771      0.050
       128.      0.758      0.049
       130.      0.832      0.052
       132.      0.754      0.049
       134.      0.829      0.052
       136.      0.722      0.048
       138.      0.774      0.050
       140.      0.754      0.049
       142.      0.832      0.052
       144.      0.832      0.052
       146.      0.754      0.049
       148.      0.774      0.050
       150.      0.722      0.048
       152.      0.829      0.052
       154.      0.754      0.049
       156.      0.832      0.052
       158.      0.758      0.049
       160.      0.771      0.050
       162.      0.851      0.052
       164.      0.729      0.048
       166.      0.790      0.051
       168.      0.761      0.050
       170.      0.864      0.053
       172.      0.748      0.049
       174.      0.803      0.051
       176.      0.819      0.051
       178.      0.919      0.054
       180.      0.941      0.055
       182.      0.851      0.052
       184.      1.083      0.059
       186.      0.938      0.055
       188.      1.128      0.060
       190.      1.167      0.061
       192.      1.244      0.063
       194.      1.293      0.064
       196.      1.183      0.062
       198.      1.344      0.066
       200.      1.557      0.071
       202.      1.496      0.069
       204.      1.460      0.069
       206.      1.654      0.073
       208.      1.670      0.074
       210.      1.689      0.074
       212.      1.660      0.073
       214.      1.896      0.078
       216.      1.809      0.076
       218.      1.825      0.077
       220.      1.444      0.068
       222.      1.512      0.070
       224.      1.286      0.064
       226.      1.132      0.060
       228.      1.041      0.058
       230.      0.980      0.056
       232.      0.406      0.036
       234.      0.000      0.000
       236.      0.000      0.000
       238.      0.000      0.000
       240.      0.000      0.000
       242.      0.000      0.000
       244.      0.000      0.000
       246.      0.000      0.000
       248.      0.000      0.000
       250.      0.000      0.000
       252.      0.000      0.000
       254.      0.000      0.000
       256.      0.000      0.000
       258.      0.000      0.000
       260.      0.000      0.000
       262.      0.000      0.000
       264.      0.000      0.000
       266.      0.000      0.000
       268.      0.000      0.000
       270.      0.000      0.000
       272.      0.000      0.000
       274.      0.000      0.000
       276.      0.000      0.000
       278.      0.000      0.000
       280.      0.000      0.000
       282.      0.000      0.000
       284.      0.000      0.000
       286.      0.000      0.000
ENDDATA            146
ENDSUBENT          163
SUBENT        E2411009   20140325   20140331   20140325       E086
BIB                  3          8
REACTION   (92-U-238(20-CA-48,F)MASS,PRE,FY,,MSC)
           The data cover the detection angle of fission
           fragments between 65 and 115 degress. The spectra are
           normalized such that the total area of each spectrum
           summed over the mass range is 200%.
ERR-ANALYS (DATA-ERR) No information on source of uncertainties
STATUS     (TABLE) Plotted in Fig.2 of Phys. Rev. C 86, 034608
                   (2012)
ENDBIB               8
COMMON               1          3
EN-CM
MEV
 200.0
ENDCOMMON            3
DATA                 3        144
MASS       DATA       DATA-ERR
NO-DIM     PC/FIS     PC/FIS
         0.      0.000      0.000
         2.      0.000      0.000
         4.      0.000      0.000
         6.      0.000      0.000
         8.      0.000      0.000
        10.      0.000      0.000
        12.      0.000      0.000
        14.      0.000      0.000
        16.      0.000      0.000
        18.      0.000      0.000
        20.      0.000      0.000
        22.      0.000      0.000
        24.      0.000      0.000
        26.      0.000      0.000
        28.      0.000      0.000
        30.      0.000      0.000
        32.      0.000      0.000
        34.      0.000      0.000
        36.      0.000      0.000
        38.      0.000      0.000
        40.      0.000      0.000
        42.      0.000      0.000
        44.      0.000      0.000
        46.      0.000      0.000
        48.      0.000      0.000
        50.      0.000      0.000
        52.      0.000      0.000
        54.      0.185      0.029
        56.      0.489      0.046
        58.      0.899      0.063
        60.      1.032      0.067
        62.      1.323      0.076
        64.      1.499      0.081
        66.      1.671      0.086
        68.      1.896      0.091
        70.      2.156      0.097
        72.      2.134      0.097
        74.      2.121      0.097
        76.      2.288      0.101
        78.      1.918      0.092
        80.      2.134      0.097
        82.      1.684      0.086
        84.      1.847      0.090
        86.      1.693      0.086
        88.      1.583      0.083
        90.      1.539      0.082
        92.      1.446      0.080
        94.      1.204      0.073
        96.      1.336      0.077
        98.      1.248      0.074
       100.      1.071      0.069
       102.      0.899      0.063
       104.      0.948      0.065
       106.      0.847      0.061
       108.      0.798      0.060
       110.      0.904      0.063
       112.      0.741      0.057
       114.      0.679      0.055
       116.      0.595      0.051
       118.      0.675      0.055
       120.      0.604      0.052
       122.      0.608      0.052
       124.      0.586      0.051
       126.      0.494      0.047
       128.      0.489      0.046
       130.      0.516      0.048
       132.      0.511      0.048
       134.      0.600      0.052
       136.      0.556      0.049
       138.      0.538      0.049
       140.      0.489      0.046
       142.      0.525      0.048
       144.      0.525      0.048
       146.      0.489      0.046
       148.      0.538      0.049
       150.      0.556      0.049
       152.      0.600      0.052
       154.      0.511      0.048
       156.      0.516      0.048
       158.      0.489      0.046
       160.      0.494      0.047
       162.      0.586      0.051
       164.      0.608      0.052
       166.      0.604      0.052
       168.      0.675      0.055
       170.      0.595      0.051
       172.      0.679      0.055
       174.      0.741      0.057
       176.      0.904      0.063
       178.      0.798      0.060
       180.      0.847      0.061
       182.      0.948      0.065
       184.      0.899      0.063
       186.      1.071      0.069
       188.      1.248      0.074
       190.      1.336      0.077
       192.      1.204      0.073
       194.      1.446      0.080
       196.      1.539      0.082
       198.      1.583      0.083
       200.      1.693      0.086
       202.      1.847      0.090
       204.      1.684      0.086
       206.      2.134      0.097
       208.      1.918      0.092
       210.      2.288      0.101
       212.      2.121      0.097
       214.      2.134      0.097
       216.      2.156      0.097
       218.      1.896      0.091
       220.      1.671      0.086
       222.      1.499      0.081
       224.      1.323      0.076
       226.      1.032      0.067
       228.      0.899      0.063
       230.      0.489      0.046
       232.      0.185      0.029
       234.      0.000      0.000
       236.      0.000      0.000
       238.      0.000      0.000
       240.      0.000      0.000
       242.      0.000      0.000
       244.      0.000      0.000
       246.      0.000      0.000
       248.      0.000      0.000
       250.      0.000      0.000
       252.      0.000      0.000
       254.      0.000      0.000
       256.      0.000      0.000
       258.      0.000      0.000
       260.      0.000      0.000
       262.      0.000      0.000
       264.      0.000      0.000
       266.      0.000      0.000
       268.      0.000      0.000
       270.      0.000      0.000
       272.      0.000      0.000
       274.      0.000      0.000
       276.      0.000      0.000
       278.      0.000      0.000
       280.      0.000      0.000
       282.      0.000      0.000
       284.      0.000      0.000
       286.      0.000      0.000
ENDDATA            146
ENDSUBENT          163
SUBENT        E2411010   20140325   20140331   20140325       E086
BIB                  3          8
REACTION   (92-U-238(20-CA-48,F)MASS,PRE,FY,,MSC)
           The data cover the detection angle of fission
           fragments between 65 and 115 degress. The spectra are
           normalized such that the total area of each spectrum
           summed over the mass range is 200%.
ERR-ANALYS (DATA-ERR) No information on source of uncertainties
STATUS     (TABLE) Plotted in Fig.2 of Phys. Rev. C 86, 034608
                   (2012)
ENDBIB               8
COMMON               1          3
EN-CM
MEV
 190.0
ENDCOMMON            3
DATA                 3        144
MASS       DATA       DATA-ERR
NO-DIM     PC/FIS     PC/FIS
         0.      0.000      0.000
         2.      0.000      0.000
         4.      0.000      0.000
         6.      0.000      0.000
         8.      0.000      0.000
        10.      0.000      0.000
        12.      0.000      0.000
        14.      0.000      0.000
        16.      0.000      0.000
        18.      0.000      0.000
        20.      0.000      0.000
        22.      0.000      0.000
        24.      0.000      0.000
        26.      0.000      0.000
        28.      0.000      0.000
        30.      0.000      0.000
        32.      0.000      0.000
        34.      0.000      0.000
        36.      0.000      0.000
        38.      0.000      0.000
        40.      0.000      0.000
        42.      0.000      0.000
        44.      0.000      0.000
        46.      0.000      0.000
        48.      0.000      0.000
        50.      0.000      0.000
        52.      0.000      0.000
        54.      0.284      0.057
        56.      0.569      0.080
        58.      0.922      0.102
        60.      0.979      0.105
        62.      1.604      0.135
        64.      1.718      0.140
        66.      1.889      0.147
        68.      2.185      0.158
        70.      2.082      0.154
        72.      2.412      0.166
        74.      2.754      0.178
        76.      2.685      0.175
        78.      2.333      0.163
        80.      2.572      0.171
        82.      2.424      0.166
        84.      2.344      0.164
        86.      2.105      0.155
        88.      1.764      0.141
        90.      1.855      0.146
        92.      1.457      0.129
        94.      1.536      0.132
        96.      1.263      0.119
        98.      1.195      0.116
       100.      1.024      0.108
       102.      0.990      0.106
       104.      0.808      0.096
       106.      0.569      0.080
       108.      0.762      0.093
       110.      0.512      0.076
       112.      0.387      0.066
       114.      0.512      0.076
       116.      0.489      0.075
       118.      0.262      0.055
       120.      0.273      0.056
       122.      0.353      0.063
       124.      0.239      0.052
       126.      0.216      0.050
       128.      0.193      0.047
       130.      0.239      0.052
       132.      0.341      0.062
       134.      0.193      0.047
       136.      0.182      0.046
       138.      0.148      0.041
       140.      0.148      0.041
       142.      0.228      0.051
       144.      0.228      0.051
       146.      0.148      0.041
       148.      0.148      0.041
       150.      0.182      0.046
       152.      0.193      0.047
       154.      0.341      0.062
       156.      0.239      0.052
       158.      0.193      0.047
       160.      0.216      0.050
       162.      0.239      0.052
       164.      0.353      0.063
       166.      0.273      0.056
       168.      0.262      0.055
       170.      0.489      0.075
       172.      0.512      0.076
       174.      0.387      0.066
       176.      0.512      0.076
       178.      0.762      0.093
       180.      0.569      0.080
       182.      0.808      0.096
       184.      0.990      0.106
       186.      1.024      0.108
       188.      1.195      0.116
       190.      1.263      0.119
       192.      1.536      0.132
       194.      1.457      0.129
       196.      1.855      0.146
       198.      1.764      0.141
       200.      2.105      0.155
       202.      2.344      0.164
       204.      2.424      0.166
       206.      2.572      0.171
       208.      2.333      0.163
       210.      2.685      0.175
       212.      2.754      0.178
       214.      2.412      0.166
       216.      2.082      0.154
       218.      2.185      0.158
       220.      1.889      0.147
       222.      1.718      0.140
       224.      1.604      0.135
       226.      0.979      0.105
       228.      0.922      0.102
       230.      0.569      0.080
       232.      0.284      0.057
       234.      0.000      0.000
       236.      0.000      0.000
       238.      0.000      0.000
       240.      0.000      0.000
       242.      0.000      0.000
       244.      0.000      0.000
       246.      0.000      0.000
       248.      0.000      0.000
       250.      0.000      0.000
       252.      0.000      0.000
       254.      0.000      0.000
       256.      0.000      0.000
       258.      0.000      0.000
       260.      0.000      0.000
       262.      0.000      0.000
       264.      0.000      0.000
       266.      0.000      0.000
       268.      0.000      0.000
       270.      0.000      0.000
       272.      0.000      0.000
       274.      0.000      0.000
       276.      0.000      0.000
       278.      0.000      0.000
       280.      0.000      0.000
       282.      0.000      0.000
       284.      0.000      0.000
       286.      0.000      0.000
ENDDATA            146
ENDSUBENT          163
SUBENT        E2411011   20140325   20140331   20140325       E086
BIB                  3          8
REACTION   (92-U-238(20-CA-48,F)MASS,PRE,FY,,MSC)
           The data cover the detection angle of fission
           fragments between 65 and 115 degress. The spectra are
           normalized such that the total area of each spectrum
           summed over the mass range is 200%.
ERR-ANALYS (DATA-ERR) No information on source of uncertainties
STATUS     (TABLE) Plotted in Fig.2 of Phys. Rev. C 86, 034608
                   (2012)
ENDBIB               8
COMMON               1          3
EN-CM
MEV
 185.0
ENDCOMMON            3
DATA                 3        144
MASS       DATA       DATA-ERR
NO-DIM     PC/FIS     PC/FIS
         0.      0.000      0.000
         2.      0.000      0.000
         4.      0.000      0.000
         6.      0.000      0.000
         8.      0.000      0.000
        10.      0.000      0.000
        12.      0.000      0.000
        14.      0.000      0.000
        16.      0.000      0.000
        18.      0.000      0.000
        20.      0.000      0.000
        22.      0.000      0.000
        24.      0.000      0.000
        26.      0.000      0.000
        28.      0.000      0.000
        30.      0.000      0.000
        32.      0.000      0.000
        34.      0.000      0.000
        36.      0.000      0.000
        38.      0.000      0.000
        40.      0.000      0.000
        42.      0.000      0.000
        44.      0.000      0.000
        46.      0.000      0.000
        48.      0.000      0.000
        50.      0.000      0.000
        52.      0.000      0.000
        54.      0.000      0.000
        56.      0.000      0.000
        58.      0.490      0.347
        60.      0.980      0.490
        62.      1.716      0.649
        64.      2.451      0.775
        66.      1.961      0.694
        68.      1.716      0.649
        70.      1.716      0.649
        72.      2.941      0.848
        74.      3.922      0.980
        76.      1.471      0.600
        78.      3.922      0.980
        80.      3.676      0.949
        82.      3.431      0.917
        84.      1.716      0.649
        86.      2.206      0.735
        88.      2.206      0.735
        90.      1.471      0.600
        92.      1.471      0.600
        94.      0.735      0.425
        96.      1.225      0.548
        98.      1.225      0.548
       100.      0.490      0.347
       102.      0.735      0.425
       104.      1.225      0.548
       106.      0.245      0.245
       108.      0.980      0.490
       110.      1.225      0.548
       112.      0.000      0.000
       114.      0.490      0.347
       116.      0.490      0.347
       118.      0.000      0.000
       120.      0.245      0.245
       122.      0.245      0.245
       124.      0.000      0.000
       126.      0.000      0.000
       128.      0.000      0.000
       130.      0.245      0.245
       132.      0.000      0.000
       134.      0.000      0.000
       136.      0.490      0.347
       138.      0.000      0.000
       140.      0.245      0.245
       142.      0.000      0.000
       144.      0.000      0.000
       146.      0.245      0.245
       148.      0.000      0.000
       150.      0.490      0.347
       152.      0.000      0.000
       154.      0.000      0.000
       156.      0.245      0.245
       158.      0.000      0.000
       160.      0.000      0.000
       162.      0.000      0.000
       164.      0.245      0.245
       166.      0.245      0.245
       168.      0.000      0.000
       170.      0.490      0.347
       172.      0.490      0.347
       174.      0.000      0.000
       176.      1.225      0.548
       178.      0.980      0.490
       180.      0.245      0.245
       182.      1.225      0.548
       184.      0.735      0.425
       186.      0.490      0.347
       188.      1.225      0.548
       190.      1.225      0.548
       192.      0.735      0.425
       194.      1.471      0.600
       196.      1.471      0.600
       198.      2.206      0.735
       200.      2.206      0.735
       202.      1.716      0.649
       204.      3.431      0.917
       206.      3.676      0.949
       208.      3.922      0.980
       210.      1.471      0.600
       212.      3.922      0.980
       214.      2.941      0.848
       216.      1.716      0.649
       218.      1.716      0.649
       220.      1.961      0.694
       222.      2.451      0.775
       224.      1.716      0.649
       226.      0.980      0.490
       228.      0.490      0.347
       230.      0.000      0.000
       232.      0.000      0.000
       234.      0.000      0.000
       236.      0.000      0.000
       238.      0.000      0.000
       240.      0.000      0.000
       242.      0.000      0.000
       244.      0.000      0.000
       246.      0.000      0.000
       248.      0.000      0.000
       250.      0.000      0.000
       252.      0.000      0.000
       254.      0.000      0.000
       256.      0.000      0.000
       258.      0.000      0.000
       260.      0.000      0.000
       262.      0.000      0.000
       264.      0.000      0.000
       266.      0.000      0.000
       268.      0.000      0.000
       270.      0.000      0.000
       272.      0.000      0.000
       274.      0.000      0.000
       276.      0.000      0.000
       278.      0.000      0.000
       280.      0.000      0.000
       282.      0.000      0.000
       284.      0.000      0.000
       286.      0.000      0.000
ENDDATA            146
ENDSUBENT          163
SUBENT        E2411012   20140325   20140331   20140325       E086
BIB                  3          6
REACTION   (92-U-238(20-CA-48,F)MASS,PRE,KE,LF+HF,MSC)
           The data cover the detection angle of fission
           fragments between 65 and 115 degress.
ERR-ANALYS (DATA-ERR) No information on source of uncertainties
STATUS     (TABLE) Plotted in Fig.2 of Phys. Rev. C 86, 034608
                   (2012)
ENDBIB               6
COMMON               1          3
EN-CM
MEV
 246.0
ENDCOMMON            3
DATA                 3        144
MASS       DATA       DATA-ERR
NO-DIM     MEV        MEV
         0.      0.000      0.000
         2.      0.000      0.000
         4.      0.000      0.000
         6.      0.000      0.000
         8.      0.000      0.000
        10.      0.000      0.000
        12.      0.000      0.000
        14.      0.000      0.000
        16.      0.000      0.000
        18.      0.000      0.000
        20.      0.000      0.000
        22.      0.000      0.000
        24.      0.000      0.000
        26.      0.000      0.000
        28.      0.000      0.000
        30.      0.000      0.000
        32.      0.000      0.000
        34.      0.000      0.000
        36.      0.000      0.000
        38.      0.000      0.000
        40.      0.000      0.000
        42.      0.000      0.000
        44.      0.000      0.000
        46.      0.000      0.000
        48.      0.000      0.000
        50.      0.000      0.000
        52.      0.000      0.000
        54.    227.400      4.800
        56.    224.400      4.500
        58.    238.700      8.000
        60.    230.300      9.500
        62.    249.600      9.400
        64.    262.400      6.500
        66.    238.300      7.100
        68.    243.000      5.400
        70.    252.400      5.000
        72.    235.900      4.900
        74.    232.900      3.800
        76.    229.300      4.100
        78.    229.000      3.700
        80.    227.000      3.900
        82.    229.600      3.300
        84.    228.700      3.100
        86.    231.000      3.400
        88.    238.500      3.700
        90.    227.300      3.200
        92.    224.600      2.800
        94.    221.000      3.300
        96.    225.800      3.400
        98.    230.000      2.900
       100.    223.200      3.200
       102.    224.400      2.900
       104.    235.200      3.200
       106.    226.000      3.200
       108.    230.700      3.000
       110.    233.300      2.900
       112.    232.800      2.700
       114.    237.200      2.700
       116.    230.000      3.200
       118.    236.900      2.800
       120.    237.100      2.600
       122.    239.000      2.500
       124.    237.900      2.800
       126.    237.600      2.700
       128.    246.200      2.800
       130.    245.100      2.700
       132.    238.600      2.500
       134.    236.600      2.800
       136.    241.100      2.700
       138.    243.100      2.600
       140.    239.100      2.700
       142.    241.500      2.700
       144.    241.500      2.700
       146.    239.100      2.700
       148.    243.100      2.600
       150.    241.100      2.700
       152.    236.600      2.800
       154.    238.600      2.500
       156.    245.100      2.700
       158.    246.200      2.800
       160.    237.600      2.700
       162.    237.900      2.800
       164.    239.000      2.500
       166.    237.100      2.600
       168.    236.900      2.800
       170.    230.000      3.200
       172.    237.200      2.700
       174.    232.800      2.700
       176.    233.300      2.900
       178.    230.700      3.000
       180.    226.000      3.200
       182.    235.200      3.200
       184.    224.400      2.900
       186.    223.200      3.200
       188.    230.000      2.900
       190.    225.800      3.400
       192.    221.000      3.300
       194.    224.600      2.800
       196.    227.300      3.200
       198.    238.500      3.700
       200.    231.000      3.400
       202.    228.700      3.100
       204.    229.600      3.300
       206.    227.000      3.900
       208.    229.000      3.700
       210.    229.300      4.100
       212.    232.900      3.800
       214.    235.900      4.900
       216.    252.400      5.000
       218.    243.000      5.400
       220.    238.300      7.100
       222.    262.400      6.500
       224.    249.600      9.400
       226.    230.300      9.500
       228.    238.700      8.000
       230.    224.400      4.500
       232.    227.400      4.800
       234.      0.000      0.000
       236.      0.000      0.000
       238.      0.000      0.000
       240.      0.000      0.000
       242.      0.000      0.000
       244.      0.000      0.000
       246.      0.000      0.000
       248.      0.000      0.000
       250.      0.000      0.000
       252.      0.000      0.000
       254.      0.000      0.000
       256.      0.000      0.000
       258.      0.000      0.000
       260.      0.000      0.000
       262.      0.000      0.000
       264.      0.000      0.000
       266.      0.000      0.000
       268.      0.000      0.000
       270.      0.000      0.000
       272.      0.000      0.000
       274.      0.000      0.000
       276.      0.000      0.000
       278.      0.000      0.000
       280.      0.000      0.000
       282.      0.000      0.000
       284.      0.000      0.000
       286.      0.000      0.000
ENDDATA            146
ENDSUBENT          161
SUBENT        E2411013   20140325   20140331   20140325       E086
BIB                  3          6
REACTION   (92-U-238(20-CA-48,F)MASS,PRE,KE,LF+HF,MSC)
           The data cover the detection angle of fission
           fragments between 65 and 115 degress.
ERR-ANALYS (DATA-ERR) No information on source of uncertainties
STATUS     (TABLE) Plotted in Fig.2 of Phys. Rev. C 86, 034608
                   (2012)
ENDBIB               6
COMMON               1          3
EN-CM
MEV
 240.0
ENDCOMMON            3
DATA                 3        144
MASS       DATA       DATA-ERR
NO-DIM     MEV        MEV
         0.      0.000      0.000
         2.      0.000      0.000
         4.      0.000      0.000
         6.      0.000      0.000
         8.      0.000      0.000
        10.      0.000      0.000
        12.      0.000      0.000
        14.      0.000      0.000
        16.      0.000      0.000
        18.      0.000      0.000
        20.      0.000      0.000
        22.      0.000      0.000
        24.      0.000      0.000
        26.      0.000      0.000
        28.      0.000      0.000
        30.      0.000      0.000
        32.      0.000      0.000
        34.      0.000      0.000
        36.      0.000      0.000
        38.      0.000      0.000
        40.      0.000      0.000
        42.      0.000      0.000
        44.      0.000      0.000
        46.      0.000      0.000
        48.      0.000      0.000
        50.      0.000      0.000
        52.      0.000      0.000
        54.    223.500      2.600
        56.    226.400      3.500
        58.    230.800      3.900
        60.    239.800      3.700
        62.    248.300      2.900
        64.    245.900      2.700
        66.    249.000      2.500
        68.    242.600      2.400
        70.    238.500      2.100
        72.    236.700      2.100
        74.    236.600      1.900
        76.    233.800      1.800
        78.    233.400      1.800
        80.    232.800      1.700
        82.    232.500      1.700
        84.    229.400      1.600
        86.    231.400      1.600
        88.    231.700      1.700
        90.    230.000      1.600
        92.    230.300      1.700
        94.    232.900      1.600
        96.    231.200      1.700
        98.    229.600      1.600
       100.    231.500      1.700
       102.    231.400      1.600
       104.    232.400      1.600
       106.    233.100      1.600
       108.    233.100      1.500
       110.    234.700      1.600
       112.    235.300      1.500
       114.    235.300      1.500
       116.    235.300      1.500
       118.    235.500      1.600
       120.    238.400      1.500
       122.    239.100      1.600
       124.    239.200      1.400
       126.    241.800      1.400
       128.    240.200      1.400
       130.    242.600      1.500
       132.    241.300      1.400
       134.    241.000      1.500
       136.    241.200      1.400
       138.    235.700      1.400
       140.    238.900      1.500
       142.    239.800      1.500
       144.    239.800      1.500
       146.    238.900      1.500
       148.    235.700      1.400
       150.    241.200      1.400
       152.    241.000      1.500
       154.    241.300      1.400
       156.    242.600      1.500
       158.    240.200      1.400
       160.    241.800      1.400
       162.    239.200      1.400
       164.    239.100      1.600
       166.    238.400      1.500
       168.    235.500      1.600
       170.    235.300      1.500
       172.    235.300      1.500
       174.    235.300      1.500
       176.    234.700      1.600
       178.    233.100      1.500
       180.    233.100      1.600
       182.    232.400      1.600
       184.    231.400      1.600
       186.    231.500      1.700
       188.    229.600      1.600
       190.    231.200      1.700
       192.    232.900      1.600
       194.    230.300      1.700
       196.    230.000      1.600
       198.    231.700      1.700
       200.    231.400      1.600
       202.    229.400      1.600
       204.    232.500      1.700
       206.    232.800      1.700
       208.    233.400      1.800
       210.    233.800      1.800
       212.    236.600      1.900
       214.    236.700      2.100
       216.    238.500      2.100
       218.    242.600      2.400
       220.    249.000      2.500
       222.    245.900      2.700
       224.    248.300      2.900
       226.    239.800      3.700
       228.    230.800      3.900
       230.    226.400      3.500
       232.    223.500      2.600
       234.      0.000      0.000
       236.      0.000      0.000
       238.      0.000      0.000
       240.      0.000      0.000
       242.      0.000      0.000
       244.      0.000      0.000
       246.      0.000      0.000
       248.      0.000      0.000
       250.      0.000      0.000
       252.      0.000      0.000
       254.      0.000      0.000
       256.      0.000      0.000
       258.      0.000      0.000
       260.      0.000      0.000
       262.      0.000      0.000
       264.      0.000      0.000
       266.      0.000      0.000
       268.      0.000      0.000
       270.      0.000      0.000
       272.      0.000      0.000
       274.      0.000      0.000
       276.      0.000      0.000
       278.      0.000      0.000
       280.      0.000      0.000
       282.      0.000      0.000
       284.      0.000      0.000
       286.      0.000      0.000
ENDDATA            146
ENDSUBENT          161
SUBENT        E2411014   20140325   20140331   20140325       E086
BIB                  3          6
REACTION   (92-U-238(20-CA-48,F)MASS,PRE,KE,LF+HF,MSC)
           The data cover the detection angle of fission
           fragments between 65 and 115 degress.
ERR-ANALYS (DATA-ERR) No information on source of uncertainties
STATUS     (TABLE) Plotted in Fig.2 of Phys. Rev. C 86, 034608
                   (2012)
ENDBIB               6
COMMON               1          3
EN-CM
MEV
 230.0
ENDCOMMON            3
DATA                 3        144
MASS       DATA       DATA-ERR
NO-DIM     MEV        MEV
         0.      0.000      0.000
         2.      0.000      0.000
         4.      0.000      0.000
         6.      0.000      0.000
         8.      0.000      0.000
        10.      0.000      0.000
        12.      0.000      0.000
        14.      0.000      0.000
        16.      0.000      0.000
        18.      0.000      0.000
        20.      0.000      0.000
        22.      0.000      0.000
        24.      0.000      0.000
        26.      0.000      0.000
        28.      0.000      0.000
        30.      0.000      0.000
        32.      0.000      0.000
        34.      0.000      0.000
        36.      0.000      0.000
        38.      0.000      0.000
        40.      0.000      0.000
        42.      0.000      0.000
        44.      0.000      0.000
        46.      0.000      0.000
        48.      0.000      0.000
        50.      0.000      0.000
        52.      0.000      0.000
        54.    218.300      1.700
        56.    220.900      2.100
        58.    234.000      2.700
        60.    233.800      2.600
        62.    240.500      2.200
        64.    238.600      2.200
        66.    237.800      2.000
        68.    235.200      1.800
        70.    234.000      1.900
        72.    234.400      1.900
        74.    230.900      1.700
        76.    229.800      1.700
        78.    226.700      1.600
        80.    229.600      1.600
        82.    228.100      1.600
        84.    227.700      1.700
        86.    226.600      1.600
        88.    232.600      1.600
        90.    228.800      1.600
        92.    228.900      1.700
        94.    231.100      1.700
        96.    229.200      1.600
        98.    228.500      1.700
       100.    230.400      1.600
       102.    231.400      1.700
       104.    231.600      1.600
       106.    233.600      1.700
       108.    235.000      1.600
       110.    230.600      1.600
       112.    234.400      1.600
       114.    233.100      1.600
       116.    236.100      1.600
       118.    235.500      1.700
       120.    235.800      1.600
       122.    240.500      1.500
       124.    236.000      1.600
       126.    240.300      1.600
       128.    238.800      1.600
       130.    241.600      1.400
       132.    240.800      1.500
       134.    239.800      1.500
       136.    239.800      1.500
       138.    238.600      1.600
       140.    237.500      1.500
       142.    238.200      1.500
       144.    238.200      1.500
       146.    237.500      1.500
       148.    238.600      1.600
       150.    239.800      1.500
       152.    239.800      1.500
       154.    240.800      1.500
       156.    241.600      1.400
       158.    238.800      1.600
       160.    240.300      1.600
       162.    236.000      1.600
       164.    240.500      1.500
       166.    235.800      1.600
       168.    235.500      1.700
       170.    236.100      1.600
       172.    233.100      1.600
       174.    234.400      1.600
       176.    230.600      1.600
       178.    235.000      1.600
       180.    233.600      1.700
       182.    231.600      1.600
       184.    231.400      1.700
       186.    230.400      1.600
       188.    228.500      1.700
       190.    229.200      1.600
       192.    231.100      1.700
       194.    228.900      1.700
       196.    228.800      1.600
       198.    232.600      1.600
       200.    226.600      1.600
       202.    227.700      1.700
       204.    228.100      1.600
       206.    229.600      1.600
       208.    226.700      1.600
       210.    229.800      1.700
       212.    230.900      1.700
       214.    234.400      1.900
       216.    234.000      1.900
       218.    235.200      1.800
       220.    237.800      2.000
       222.    238.600      2.200
       224.    240.500      2.200
       226.    233.800      2.600
       228.    234.000      2.700
       230.    220.900      2.100
       232.    218.300      1.700
       234.      0.000      0.000
       236.      0.000      0.000
       238.      0.000      0.000
       240.      0.000      0.000
       242.      0.000      0.000
       244.      0.000      0.000
       246.      0.000      0.000
       248.      0.000      0.000
       250.      0.000      0.000
       252.      0.000      0.000
       254.      0.000      0.000
       256.      0.000      0.000
       258.      0.000      0.000
       260.      0.000      0.000
       262.      0.000      0.000
       264.      0.000      0.000
       266.      0.000      0.000
       268.      0.000      0.000
       270.      0.000      0.000
       272.      0.000      0.000
       274.      0.000      0.000
       276.      0.000      0.000
       278.      0.000      0.000
       280.      0.000      0.000
       282.      0.000      0.000
       284.      0.000      0.000
       286.      0.000      0.000
ENDDATA            146
ENDSUBENT          161
SUBENT        E2411015   20140325   20140331   20140325       E086
BIB                  3          6
REACTION   (92-U-238(20-CA-48,F)MASS,PRE,KE,LF+HF,MSC)
           The data cover the detection angle of fission
           fragments between 65 and 115 degress.
ERR-ANALYS (DATA-ERR) No information on source of uncertainties
STATUS     (TABLE) Plotted in Fig.2 of Phys. Rev. C 86, 034608
                   (2012)
ENDBIB               6
COMMON               1          3
EN-CM
MEV
 220.0
ENDCOMMON            3
DATA                 3        144
MASS       DATA       DATA-ERR
NO-DIM     MEV        MEV
         0.      0.000      0.000
         2.      0.000      0.000
         4.      0.000      0.000
         6.      0.000      0.000
         8.      0.000      0.000
        10.      0.000      0.000
        12.      0.000      0.000
        14.      0.000      0.000
        16.      0.000      0.000
        18.      0.000      0.000
        20.      0.000      0.000
        22.      0.000      0.000
        24.      0.000      0.000
        26.      0.000      0.000
        28.      0.000      0.000
        30.      0.000      0.000
        32.      0.000      0.000
        34.      0.000      0.000
        36.      0.000      0.000
        38.      0.000      0.000
        40.      0.000      0.000
        42.      0.000      0.000
        44.      0.000      0.000
        46.      0.000      0.000
        48.      0.000      0.000
        50.      0.000      0.000
        52.      0.000      0.000
        54.    218.400      1.600
        56.    218.300      1.700
        58.    221.500      1.800
        60.    224.900      1.800
        62.    229.700      1.700
        64.    227.400      1.600
        66.    226.900      1.600
        68.    228.800      1.500
        70.    226.400      1.400
        72.    226.000      1.400
        74.    223.800      1.300
        76.    223.400      1.400
        78.    222.200      1.500
        80.    226.200      1.400
        82.    224.600      1.400
        84.    224.100      1.500
        86.    223.200      1.500
        88.    226.500      1.400
        90.    226.200      1.500
        92.    231.100      1.600
        94.    229.400      1.600
        96.    228.000      1.600
        98.    228.100      1.600
       100.    228.500      1.600
       102.    230.900      1.600
       104.    228.100      1.700
       106.    228.400      1.600
       108.    232.000      1.600
       110.    229.900      1.600
       112.    228.600      1.700
       114.    234.400      1.600
       116.    233.500      1.700
       118.    234.700      1.600
       120.    234.900      1.500
       122.    234.700      1.600
       124.    238.700      1.600
       126.    235.300      1.600
       128.    238.500      1.600
       130.    238.300      1.700
       132.    236.600      1.600
       134.    237.400      1.500
       136.    237.800      1.600
       138.    238.300      1.600
       140.    236.000      1.500
       142.    237.100      1.500
       144.    237.100      1.500
       146.    236.000      1.500
       148.    238.300      1.600
       150.    237.800      1.600
       152.    237.400      1.500
       154.    236.600      1.600
       156.    238.300      1.700
       158.    238.500      1.600
       160.    235.300      1.600
       162.    238.700      1.600
       164.    234.700      1.600
       166.    234.900      1.500
       168.    234.700      1.600
       170.    233.500      1.700
       172.    234.400      1.600
       174.    228.600      1.700
       176.    229.900      1.600
       178.    232.000      1.600
       180.    228.400      1.600
       182.    228.100      1.700
       184.    230.900      1.600
       186.    228.500      1.600
       188.    228.100      1.600
       190.    228.000      1.600
       192.    229.400      1.600
       194.    231.100      1.600
       196.    226.200      1.500
       198.    226.500      1.400
       200.    223.200      1.500
       202.    224.100      1.500
       204.    224.600      1.400
       206.    226.200      1.400
       208.    222.200      1.500
       210.    223.400      1.400
       212.    223.800      1.300
       214.    226.000      1.400
       216.    226.400      1.400
       218.    228.800      1.500
       220.    226.900      1.600
       222.    227.400      1.600
       224.    229.700      1.700
       226.    224.900      1.800
       228.    221.500      1.800
       230.    218.300      1.700
       232.    218.400      1.600
       234.      0.000      0.000
       236.      0.000      0.000
       238.      0.000      0.000
       240.      0.000      0.000
       242.      0.000      0.000
       244.      0.000      0.000
       246.      0.000      0.000
       248.      0.000      0.000
       250.      0.000      0.000
       252.      0.000      0.000
       254.      0.000      0.000
       256.      0.000      0.000
       258.      0.000      0.000
       260.      0.000      0.000
       262.      0.000      0.000
       264.      0.000      0.000
       266.      0.000      0.000
       268.      0.000      0.000
       270.      0.000      0.000
       272.      0.000      0.000
       274.      0.000      0.000
       276.      0.000      0.000
       278.      0.000      0.000
       280.      0.000      0.000
       282.      0.000      0.000
       284.      0.000      0.000
       286.      0.000      0.000
ENDDATA            146
ENDSUBENT          161
SUBENT        E2411016   20140325   20140331   20140325       E086
BIB                  3          6
REACTION   (92-U-238(20-CA-48,F)MASS,PRE,KE,LF+HF,MSC)
           The data cover the detection angle of fission
           fragments between 65 and 115 degress.
ERR-ANALYS (DATA-ERR) No information on source of uncertainties
STATUS     (TABLE) Plotted in Fig.2 of Phys. Rev. C 86, 034608
                   (2012)
ENDBIB               6
COMMON               1          3
EN-CM
MEV
 210.0
ENDCOMMON            3
DATA                 3        144
MASS       DATA       DATA-ERR
NO-DIM     MEV        MEV
         0.      0.000      0.000
         2.      0.000      0.000
         4.      0.000      0.000
         6.      0.000      0.000
         8.      0.000      0.000
        10.      0.000      0.000
        12.      0.000      0.000
        14.      0.000      0.000
        16.      0.000      0.000
        18.      0.000      0.000
        20.      0.000      0.000
        22.      0.000      0.000
        24.      0.000      0.000
        26.      0.000      0.000
        28.      0.000      0.000
        30.      0.000      0.000
        32.      0.000      0.000
        34.      0.000      0.000
        36.      0.000      0.000
        38.      0.000      0.000
        40.      0.000      0.000
        42.      0.000      0.000
        44.      0.000      0.000
        46.      0.000      0.000
        48.      0.000      0.000
        50.      0.000      0.000
        52.      0.000      0.000
        54.    221.200      2.600
        56.    211.500      1.700
        58.    215.500      1.700
        60.    216.600      1.600
        62.    213.900      1.500
        64.    215.500      1.400
        66.    215.700      1.400
        68.    216.800      1.200
        70.    217.800      1.300
        72.    217.300      1.300
        74.    217.100      1.300
        76.    216.300      1.300
        78.    220.200      1.300
        80.    218.800      1.300
        82.    218.600      1.400
        84.    217.900      1.400
        86.    220.400      1.400
        88.    220.700      1.500
        90.    221.200      1.600
        92.    222.200      1.500
        94.    225.300      1.500
        96.    223.100      1.600
        98.    225.300      1.600
       100.    225.700      1.800
       102.    223.200      1.600
       104.    224.300      1.900
       106.    225.400      1.800
       108.    226.800      1.800
       110.    228.700      1.900
       112.    230.300      1.900
       114.    231.600      2.000
       116.    229.800      1.800
       118.    232.300      1.900
       120.    231.300      2.000
       122.    230.400      2.000
       124.    236.600      1.900
       126.    237.500      1.900
       128.    235.700      1.900
       130.    232.100      1.900
       132.    234.800      2.000
       134.    235.300      1.900
       136.    234.500      2.000
       138.    236.500      1.900
       140.    238.600      2.000
       142.    237.300      1.800
       144.    237.300      1.800
       146.    238.600      2.000
       148.    236.500      1.900
       150.    234.500      2.000
       152.    235.300      1.900
       154.    234.800      2.000
       156.    232.100      1.900
       158.    235.700      1.900
       160.    237.500      1.900
       162.    236.600      1.900
       164.    230.400      2.000
       166.    231.300      2.000
       168.    232.300      1.900
       170.    229.800      1.800
       172.    231.600      2.000
       174.    230.300      1.900
       176.    228.700      1.900
       178.    226.800      1.800
       180.    225.400      1.800
       182.    224.300      1.900
       184.    223.200      1.600
       186.    225.700      1.800
       188.    225.300      1.600
       190.    223.100      1.600
       192.    225.300      1.500
       194.    222.200      1.500
       196.    221.200      1.600
       198.    220.700      1.500
       200.    220.400      1.400
       202.    217.900      1.400
       204.    218.600      1.400
       206.    218.800      1.300
       208.    220.200      1.300
       210.    216.300      1.300
       212.    217.100      1.300
       214.    217.300      1.300
       216.    217.800      1.300
       218.    216.800      1.200
       220.    215.700      1.400
       222.    215.500      1.400
       224.    213.900      1.500
       226.    216.600      1.600
       228.    215.500      1.700
       230.    211.500      1.700
       232.    221.200      2.600
       234.      0.000      0.000
       236.      0.000      0.000
       238.      0.000      0.000
       240.      0.000      0.000
       242.      0.000      0.000
       244.      0.000      0.000
       246.      0.000      0.000
       248.      0.000      0.000
       250.      0.000      0.000
       252.      0.000      0.000
       254.      0.000      0.000
       256.      0.000      0.000
       258.      0.000      0.000
       260.      0.000      0.000
       262.      0.000      0.000
       264.      0.000      0.000
       266.      0.000      0.000
       268.      0.000      0.000
       270.      0.000      0.000
       272.      0.000      0.000
       274.      0.000      0.000
       276.      0.000      0.000
       278.      0.000      0.000
       280.      0.000      0.000
       282.      0.000      0.000
       284.      0.000      0.000
       286.      0.000      0.000
ENDDATA            146
ENDSUBENT          161
SUBENT        E2411017   20140325   20140331   20140325       E086
BIB                  3          6
REACTION   (92-U-238(20-CA-48,F)MASS,PRE,KE,LF+HF,MSC)
           The data cover the detection angle of fission
           fragments between 65 and 115 degress.
ERR-ANALYS (DATA-ERR) No information on source of uncertainties
STATUS     (TABLE) Plotted in Fig.2 of Phys. Rev. C 86, 034608
                   (2012)
ENDBIB               6
COMMON               1          3
EN-CM
MEV
 200.0
ENDCOMMON            3
DATA                 3        144
MASS       DATA       DATA-ERR
NO-DIM     MEV        MEV
         0.      0.000      0.000
         2.      0.000      0.000
         4.      0.000      0.000
         6.      0.000      0.000
         8.      0.000      0.000
        10.      0.000      0.000
        12.      0.000      0.000
        14.      0.000      0.000
        16.      0.000      0.000
        18.      0.000      0.000
        20.      0.000      0.000
        22.      0.000      0.000
        24.      0.000      0.000
        26.      0.000      0.000
        28.      0.000      0.000
        30.      0.000      0.000
        32.      0.000      0.000
        34.      0.000      0.000
        36.      0.000      0.000
        38.      0.000      0.000
        40.      0.000      0.000
        42.      0.000      0.000
        44.      0.000      0.000
        46.      0.000      0.000
        48.      0.000      0.000
        50.      0.000      0.000
        52.      0.000      0.000
        54.    220.100      4.700
        56.    213.500      2.900
        58.    206.300      2.100
        60.    206.500      1.900
        62.    208.000      1.700
        64.    204.900      1.600
        66.    209.600      1.500
        68.    209.400      1.400
        70.    210.100      1.300
        72.    212.500      1.400
        74.    210.000      1.300
        76.    213.000      1.300
        78.    210.800      1.500
        80.    213.800      1.400
        82.    214.300      1.500
        84.    216.700      1.500
        86.    216.900      1.500
        88.    217.800      1.600
        90.    217.200      1.600
        92.    217.500      1.600
        94.    218.300      1.800
        96.    223.000      1.800
        98.    221.800      1.800
       100.    224.200      1.900
       102.    222.000      2.100
       104.    220.700      2.000
       106.    221.100      2.200
       108.    223.200      2.200
       110.    223.500      2.100
       112.    223.400      2.300
       114.    224.800      2.400
       116.    226.300      2.600
       118.    227.900      2.400
       120.    227.500      2.600
       122.    223.400      2.600
       124.    228.000      2.600
       126.    232.100      2.900
       128.    236.300      2.900
       130.    230.600      2.800
       132.    230.200      2.800
       134.    234.700      2.500
       136.    232.500      2.600
       138.    232.400      2.800
       140.    230.600      2.800
       142.    235.000      2.800
       144.    235.000      2.800
       146.    230.600      2.800
       148.    232.400      2.800
       150.    232.500      2.600
       152.    234.700      2.500
       154.    230.200      2.800
       156.    230.600      2.800
       158.    236.300      2.900
       160.    232.100      2.900
       162.    228.000      2.600
       164.    223.400      2.600
       166.    227.500      2.600
       168.    227.900      2.400
       170.    226.300      2.600
       172.    224.800      2.400
       174.    223.400      2.300
       176.    223.500      2.100
       178.    223.200      2.200
       180.    221.100      2.200
       182.    220.700      2.000
       184.    222.000      2.100
       186.    224.200      1.900
       188.    221.800      1.800
       190.    223.000      1.800
       192.    218.300      1.800
       194.    217.500      1.600
       196.    217.200      1.600
       198.    217.800      1.600
       200.    216.900      1.500
       202.    216.700      1.500
       204.    214.300      1.500
       206.    213.800      1.400
       208.    210.800      1.500
       210.    213.000      1.300
       212.    210.000      1.300
       214.    212.500      1.400
       216.    210.100      1.300
       218.    209.400      1.400
       220.    209.600      1.500
       222.    204.900      1.600
       224.    208.000      1.700
       226.    206.500      1.900
       228.    206.300      2.100
       230.    213.500      2.900
       232.    220.100      4.700
       234.      0.000      0.000
       236.      0.000      0.000
       238.      0.000      0.000
       240.      0.000      0.000
       242.      0.000      0.000
       244.      0.000      0.000
       246.      0.000      0.000
       248.      0.000      0.000
       250.      0.000      0.000
       252.      0.000      0.000
       254.      0.000      0.000
       256.      0.000      0.000
       258.      0.000      0.000
       260.      0.000      0.000
       262.      0.000      0.000
       264.      0.000      0.000
       266.      0.000      0.000
       268.      0.000      0.000
       270.      0.000      0.000
       272.      0.000      0.000
       274.      0.000      0.000
       276.      0.000      0.000
       278.      0.000      0.000
       280.      0.000      0.000
       282.      0.000      0.000
       284.      0.000      0.000
       286.      0.000      0.000
ENDDATA            146
ENDSUBENT          161
SUBENT        E2411018   20140325   20140331   20140325       E086
BIB                  3          6
REACTION   (92-U-238(20-CA-48,F)MASS,PRE,KE,LF+HF,MSC)
           The data cover the detection angle of fission
           fragments between 65 and 115 degress.
ERR-ANALYS (DATA-ERR) No information on source of uncertainties
STATUS     (TABLE) Plotted in Fig.2 of Phys. Rev. C 86, 034608
                   (2012)
ENDBIB               6
COMMON               1          3
EN-CM
MEV
 190.0
ENDCOMMON            3
DATA                 3        144
MASS       DATA       DATA-ERR
NO-DIM     MEV        MEV
         0.      0.000      0.000
         2.      0.000      0.000
         4.      0.000      0.000
         6.      0.000      0.000
         8.      0.000      0.000
        10.      0.000      0.000
        12.      0.000      0.000
        14.      0.000      0.000
        16.      0.000      0.000
        18.      0.000      0.000
        20.      0.000      0.000
        22.      0.000      0.000
        24.      0.000      0.000
        26.      0.000      0.000
        28.      0.000      0.000
        30.      0.000      0.000
        32.      0.000      0.000
        34.      0.000      0.000
        36.      0.000      0.000
        38.      0.000      0.000
        40.      0.000      0.000
        42.      0.000      0.000
        44.      0.000      0.000
        46.      0.000      0.000
        48.      0.000      0.000
        50.      0.000      0.000
        52.      0.000      0.000
        54.    212.400      6.000
        56.    208.200      4.200
        58.    199.700      3.400
        60.    199.500      3.200
        62.    197.600      2.500
        64.    194.500      2.500
        66.    204.800      2.400
        68.    204.100      2.200
        70.    201.300      2.200
        72.    202.700      2.000
        74.    202.600      1.900
        76.    206.700      2.000
        78.    205.100      2.000
        80.    209.100      2.000
        82.    206.000      2.000
        84.    206.300      2.100
        86.    211.200      2.200
        88.    209.300      2.400
        90.    211.000      2.400
        92.    216.300      2.600
        94.    212.500      2.600
        96.    211.300      2.900
        98.    213.900      2.900
       100.    219.200      3.200
       102.    218.100      3.200
       104.    214.100      3.600
       106.    218.900      4.200
       108.    224.400      3.700
       110.    219.200      4.500
       112.    214.800      5.100
       114.    225.200      4.500
       116.    222.200      4.600
       118.    228.600      6.300
       120.    230.000      6.100
       122.    230.600      5.400
       124.    222.000      6.500
       126.    230.600      6.900
       128.    240.700      7.300
       130.    223.600      6.600
       132.    233.100      5.400
       134.    232.000      7.300
       136.    234.000      7.500
       138.    233.300      8.400
       140.    223.800      8.300
       142.    239.400      6.700
       144.    239.400      6.700
       146.    223.800      8.300
       148.    233.300      8.400
       150.    234.000      7.500
       152.    232.000      7.300
       154.    233.100      5.400
       156.    223.600      6.600
       158.    240.700      7.300
       160.    230.600      6.900
       162.    222.000      6.500
       164.    230.600      5.400
       166.    230.000      6.100
       168.    228.600      6.300
       170.    222.200      4.600
       172.    225.200      4.500
       174.    214.800      5.100
       176.    219.200      4.500
       178.    224.400      3.700
       180.    218.900      4.200
       182.    214.100      3.600
       184.    218.100      3.200
       186.    219.200      3.200
       188.    213.900      2.900
       190.    211.300      2.900
       192.    212.500      2.600
       194.    216.300      2.600
       196.    211.000      2.400
       198.    209.300      2.400
       200.    211.200      2.200
       202.    206.300      2.100
       204.    206.000      2.000
       206.    209.100      2.000
       208.    205.100      2.000
       210.    206.700      2.000
       212.    202.600      1.900
       214.    202.700      2.000
       216.    201.300      2.200
       218.    204.100      2.200
       220.    204.800      2.400
       222.    194.500      2.500
       224.    197.600      2.500
       226.    199.500      3.200
       228.    199.700      3.400
       230.    208.200      4.200
       232.    212.400      6.000
       234.      0.000      0.000
       236.      0.000      0.000
       238.      0.000      0.000
       240.      0.000      0.000
       242.      0.000      0.000
       244.      0.000      0.000
       246.      0.000      0.000
       248.      0.000      0.000
       250.      0.000      0.000
       252.      0.000      0.000
       254.      0.000      0.000
       256.      0.000      0.000
       258.      0.000      0.000
       260.      0.000      0.000
       262.      0.000      0.000
       264.      0.000      0.000
       266.      0.000      0.000
       268.      0.000      0.000
       270.      0.000      0.000
       272.      0.000      0.000
       274.      0.000      0.000
       276.      0.000      0.000
       278.      0.000      0.000
       280.      0.000      0.000
       282.      0.000      0.000
       284.      0.000      0.000
       286.      0.000      0.000
ENDDATA            146
ENDSUBENT          161
SUBENT        E2411019   20140325   20140331   20140325       E086
BIB                  3          6
REACTION   (92-U-238(20-CA-48,F)MASS,PRE,KE,LF+HF,MSC)
           The data cover the detection angle of fission
           fragments between 65 and 115 degress.
ERR-ANALYS (DATA-ERR) No information on source of uncertainties
STATUS     (TABLE) Plotted in Fig.2 of Phys. Rev. C 86, 034608
                   (2012)
ENDBIB               6
COMMON               1          3
EN-CM
MEV
 185.0
ENDCOMMON            3
DATA                 3        144
MASS       DATA       DATA-ERR
NO-DIM     MEV        MEV
         0.      0.000      0.000
         2.      0.000      0.000
         4.      0.000      0.000
         6.      0.000      0.000
         8.      0.000      0.000
        10.      0.000      0.000
        12.      0.000      0.000
        14.      0.000      0.000
        16.      0.000      0.000
        18.      0.000      0.000
        20.      0.000      0.000
        22.      0.000      0.000
        24.      0.000      0.000
        26.      0.000      0.000
        28.      0.000      0.000
        30.      0.000      0.000
        32.      0.000      0.000
        34.      0.000      0.000
        36.      0.000      0.000
        38.      0.000      0.000
        40.      0.000      0.000
        42.      0.000      0.000
        44.      0.000      0.000
        46.      0.000      0.000
        48.      0.000      0.000
        50.      0.000      0.000
        52.      0.000      0.000
        54.    218.000      2.300
        56.    199.500      1.400
        58.    173.000      0.700
        60.    161.100      0.400
        62.    156.100      0.400
        64.    153.300      0.500
        66.    151.700      1.000
        68.    156.500      4.400
        70.    165.400     12.200
        72.    193.200     17.400
        74.    205.200     17.300
        76.    216.100     15.000
        78.    204.500     17.400
        80.    247.400     17.300
        82.    217.900     15.000
        84.    171.000     15.000
        86.    174.900     15.000
        88.    193.100     10.000
        90.    177.900     13.400
        92.    185.200     15.000
        94.    188.900     13.500
        96.    190.200     17.300
        98.    176.500     21.200
       100.    213.400     30.000
       102.    191.000     21.200
       104.    188.800     30.000
       106.    178.400     30.000
       108.    202.700     21.200
       110.    189.000     21.200
       112.    187.500     17.300
       114.    183.700     17.300
       116.    226.300     21.300
       118.    196.200     21.200
       120.    233.600     30.000
       122.    197.600     21.200
       124.    250.800     21.200
       126.      0.000      0.000
       128.    222.100     21.200
       130.    213.800     17.400
       132.      0.000      0.000
       134.      0.000      0.000
       136.      0.000      0.000
       138.      0.000      0.000
       140.    197.300     21.300
       142.    226.100     30.000
       144.    226.100     30.000
       146.    197.300     21.300
       148.      0.000      0.000
       150.      0.000      0.000
       152.      0.000      0.000
       154.      0.000      0.000
       156.    213.800     17.400
       158.    222.100     21.200
       160.      0.000      0.000
       162.    250.800     21.200
       164.    197.600     21.200
       166.    233.600     30.000
       168.    196.200     21.200
       170.    226.300     21.300
       172.    183.700     17.300
       174.    187.500     17.300
       176.    189.000     21.200
       178.    202.700     21.200
       180.    178.400     30.000
       182.    188.800     30.000
       184.    191.000     21.200
       186.    213.400     30.000
       188.    176.500     21.200
       190.    190.200     17.300
       192.    188.900     13.500
       194.    185.200     15.000
       196.    177.900     13.400
       198.    193.100     10.000
       200.    174.900     15.000
       202.    171.000     15.000
       204.    217.900     15.000
       206.    247.400     17.300
       208.    204.500     17.400
       210.    216.100     15.000
       212.    205.200     17.300
       214.    193.200     17.400
       216.    165.400     12.200
       218.    156.500      4.400
       220.    151.700      1.000
       222.    153.300      0.500
       224.    156.100      0.400
       226.    161.100      0.400
       228.    173.000      0.700
       230.    199.500      1.400
       232.    218.000      2.300
       234.      0.000      0.000
       236.      0.000      0.000
       238.      0.000      0.000
       240.      0.000      0.000
       242.      0.000      0.000
       244.      0.000      0.000
       246.      0.000      0.000
       248.      0.000      0.000
       250.      0.000      0.000
       252.      0.000      0.000
       254.      0.000      0.000
       256.      0.000      0.000
       258.      0.000      0.000
       260.      0.000      0.000
       262.      0.000      0.000
       264.      0.000      0.000
       266.      0.000      0.000
       268.      0.000      0.000
       270.      0.000      0.000
       272.      0.000      0.000
       274.      0.000      0.000
       276.      0.000      0.000
       278.      0.000      0.000
       280.      0.000      0.000
       282.      0.000      0.000
       284.      0.000      0.000
       286.      0.000      0.000
ENDDATA            146
ENDSUBENT          161
SUBENT        E2411020   20140325   20140331   20140325       E086
BIB                  3          8
REACTION   (92-U-238(20-CA-40,F)MASS,PRE,FY,,MSC)
           The data cover the detection angle of fission
           fragments between 65 and 115 degress. The spectra are
           normalized such that the total area of each spectrum
           summed over the mass range is 200%.
ERR-ANALYS (DATA-ERR) No information on source of uncertainties
STATUS     (TABLE) Plotted in Fig.3 of Phys. Rev. C 86, 034608
                   (2012)
ENDBIB               8
COMMON               1          3
EN-CM
MEV
 230.0
ENDCOMMON            3
DATA                 3        144
MASS       DATA       DATA-ERR
NO-DIM     PC/FIS     PC/FIS
         0.      0.000      0.000
         2.      0.000      0.000
         4.      0.000      0.000
         6.      0.000      0.000
         8.      0.000      0.000
        10.      0.000      0.000
        12.      0.000      0.000
        14.      0.000      0.000
        16.      0.000      0.000
        18.      0.000      0.000
        20.      0.000      0.000
        22.      0.000      0.000
        24.      0.000      0.000
        26.      0.000      0.000
        28.      0.000      0.000
        30.      0.000      0.000
        32.      0.000      0.000
        34.      0.000      0.000
        36.      0.000      0.000
        38.      0.000      0.000
        40.      0.000      0.000
        42.      0.000      0.000
        44.      0.000      0.000
        46.      0.000      0.000
        48.      0.000      0.000
        50.      0.034      0.014
        52.      0.074      0.021
        54.      0.154      0.030
        56.      0.137      0.028
        58.      0.246      0.038
        60.      0.292      0.041
        62.      0.366      0.046
        64.      0.543      0.055
        66.      0.738      0.065
        68.      0.869      0.070
        70.      0.926      0.073
        72.      0.966      0.074
        74.      1.161      0.081
        76.      1.161      0.081
        78.      1.281      0.086
        80.      1.287      0.086
        82.      1.235      0.084
        84.      1.178      0.082
        86.      1.247      0.085
        88.      1.144      0.081
        90.      1.349      0.088
        92.      1.298      0.086
        94.      1.344      0.087
        96.      1.355      0.088
        98.      1.321      0.087
       100.      1.275      0.085
       102.      1.281      0.086
       104.      1.298      0.086
       106.      1.412      0.090
       108.      1.470      0.091
       110.      1.355      0.088
       112.      1.395      0.089
       114.      1.235      0.084
       116.      1.401      0.090
       118.      1.550      0.094
       120.      1.492      0.093
       122.      1.407      0.090
       124.      1.573      0.095
       126.      1.349      0.088
       128.      1.481      0.092
       130.      1.412      0.090
       132.      1.378      0.089
       134.      1.515      0.093
       136.      1.464      0.091
       138.      1.550      0.094
       140.      1.550      0.094
       142.      1.464      0.091
       144.      1.515      0.093
       146.      1.378      0.089
       148.      1.412      0.090
       150.      1.481      0.092
       152.      1.349      0.088
       154.      1.573      0.095
       156.      1.407      0.090
       158.      1.492      0.093
       160.      1.550      0.094
       162.      1.401      0.090
       164.      1.235      0.084
       166.      1.395      0.089
       168.      1.355      0.088
       170.      1.470      0.091
       172.      1.412      0.090
       174.      1.298      0.086
       176.      1.281      0.086
       178.      1.275      0.085
       180.      1.321      0.087
       182.      1.355      0.088
       184.      1.344      0.087
       186.      1.298      0.086
       188.      1.349      0.088
       190.      1.144      0.081
       192.      1.247      0.085
       194.      1.178      0.082
       196.      1.235      0.084
       198.      1.287      0.086
       200.      1.281      0.086
       202.      1.161      0.081
       204.      1.161      0.081
       206.      0.966      0.074
       208.      0.926      0.073
       210.      0.869      0.070
       212.      0.738      0.065
       214.      0.543      0.055
       216.      0.366      0.046
       218.      0.292      0.041
       220.      0.246      0.038
       222.      0.137      0.028
       224.      0.154      0.030
       226.      0.074      0.021
       228.      0.034      0.014
       230.      0.000      0.000
       232.      0.000      0.000
       234.      0.000      0.000
       236.      0.000      0.000
       238.      0.000      0.000
       240.      0.000      0.000
       242.      0.000      0.000
       244.      0.000      0.000
       246.      0.000      0.000
       248.      0.000      0.000
       250.      0.000      0.000
       252.      0.000      0.000
       254.      0.000      0.000
       256.      0.000      0.000
       258.      0.000      0.000
       260.      0.000      0.000
       262.      0.000      0.000
       264.      0.000      0.000
       266.      0.000      0.000
       268.      0.000      0.000
       270.      0.000      0.000
       272.      0.000      0.000
       274.      0.000      0.000
       276.      0.000      0.000
       278.      0.000      0.000
       280.      0.000      0.000
       282.      0.000      0.000
       284.      0.000      0.000
       286.      0.000      0.000
ENDDATA            146
ENDSUBENT          163
SUBENT        E2411021   20140325   20140331   20140325       E086
BIB                  3          8
REACTION   (92-U-238(20-CA-40,F)MASS,PRE,FY,,MSC)
           The data cover the detection angle of fission
           fragments between 65 and 115 degress. The spectra are
           normalized such that the total area of each spectrum
           summed over the mass range is 200%.
ERR-ANALYS (DATA-ERR) No information on source of uncertainties
STATUS     (TABLE) Plotted in Fig.3 of Phys. Rev. C 86, 034608
                   (2012)
ENDBIB               8
COMMON               1          3
EN-CM
MEV
 219.2
ENDCOMMON            3
DATA                 3        144
MASS       DATA       DATA-ERR
NO-DIM     PC/FIS     PC/FIS
         0.      0.000      0.000
         2.      0.000      0.000
         4.      0.000      0.000
         6.      0.000      0.000
         8.      0.000      0.000
        10.      0.000      0.000
        12.      0.000      0.000
        14.      0.000      0.000
        16.      0.000      0.000
        18.      0.000      0.000
        20.      0.000      0.000
        22.      0.000      0.000
        24.      0.000      0.000
        26.      0.000      0.000
        28.      0.000      0.000
        30.      0.000      0.000
        32.      0.000      0.000
        34.      0.000      0.000
        36.      0.000      0.000
        38.      0.000      0.000
        40.      0.000      0.000
        42.      0.000      0.000
        44.      0.000      0.000
        46.      0.000      0.000
        48.      0.000      0.000
        50.      0.014      0.010
        52.      0.149      0.032
        54.      0.210      0.038
        56.      0.359      0.049
        58.      0.461      0.056
        60.      0.799      0.074
        62.      0.860      0.077
        64.      0.779      0.072
        66.      1.145      0.088
        68.      1.111      0.087
        70.      1.294      0.093
        72.      1.368      0.096
        74.      1.402      0.098
        76.      1.612      0.104
        78.      1.551      0.102
        80.      1.470      0.100
        82.      1.477      0.100
        84.      1.348      0.096
        86.      1.368      0.096
        88.      1.335      0.095
        90.      1.362      0.096
        92.      1.341      0.096
        94.      1.382      0.097
        96.      1.368      0.096
        98.      1.280      0.093
       100.      1.274      0.093
       102.      1.219      0.091
       104.      1.260      0.092
       106.      1.125      0.087
       108.      1.064      0.085
       110.      1.158      0.089
       112.      1.131      0.087
       114.      1.165      0.089
       116.      1.077      0.085
       118.      1.145      0.088
       120.      1.246      0.092
       122.      1.185      0.089
       124.      1.097      0.086
       126.      0.975      0.081
       128.      1.253      0.092
       130.      0.975      0.081
       132.      1.172      0.089
       134.      1.179      0.089
       136.      1.192      0.090
       138.      1.260      0.092
       140.      1.260      0.092
       142.      1.192      0.090
       144.      1.179      0.089
       146.      1.172      0.089
       148.      0.975      0.081
       150.      1.253      0.092
       152.      0.975      0.081
       154.      1.097      0.086
       156.      1.185      0.089
       158.      1.246      0.092
       160.      1.145      0.088
       162.      1.077      0.085
       164.      1.165      0.089
       166.      1.131      0.087
       168.      1.158      0.089
       170.      1.064      0.085
       172.      1.125      0.087
       174.      1.260      0.092
       176.      1.219      0.091
       178.      1.274      0.093
       180.      1.280      0.093
       182.      1.368      0.096
       184.      1.382      0.097
       186.      1.341      0.096
       188.      1.362      0.096
       190.      1.335      0.095
       192.      1.368      0.096
       194.      1.348      0.096
       196.      1.477      0.100
       198.      1.470      0.100
       200.      1.551      0.102
       202.      1.612      0.104
       204.      1.402      0.098
       206.      1.368      0.096
       208.      1.294      0.093
       210.      1.111      0.087
       212.      1.145      0.088
       214.      0.779      0.072
       216.      0.860      0.077
       218.      0.799      0.074
       220.      0.461      0.056
       222.      0.359      0.049
       224.      0.210      0.038
       226.      0.149      0.032
       228.      0.014      0.010
       230.      0.000      0.000
       232.      0.000      0.000
       234.      0.000      0.000
       236.      0.000      0.000
       238.      0.000      0.000
       240.      0.000      0.000
       242.      0.000      0.000
       244.      0.000      0.000
       246.      0.000      0.000
       248.      0.000      0.000
       250.      0.000      0.000
       252.      0.000      0.000
       254.      0.000      0.000
       256.      0.000      0.000
       258.      0.000      0.000
       260.      0.000      0.000
       262.      0.000      0.000
       264.      0.000      0.000
       266.      0.000      0.000
       268.      0.000      0.000
       270.      0.000      0.000
       272.      0.000      0.000
       274.      0.000      0.000
       276.      0.000      0.000
       278.      0.000      0.000
       280.      0.000      0.000
       282.      0.000      0.000
       284.      0.000      0.000
       286.      0.000      0.000
ENDDATA            146
ENDSUBENT          163
SUBENT        E2411022   20140325   20140331   20140325       E086
BIB                  3          8
REACTION   (92-U-238(20-CA-40,F)MASS,PRE,FY,,MSC)
           The data cover the detection angle of fission
           fragments between 65 and 115 degress. The spectra are
           normalized such that the total area of each spectrum
           summed over the mass range is 200%.
ERR-ANALYS (DATA-ERR) No information on source of uncertainties
STATUS     (TABLE) Plotted in Fig.3 of Phys. Rev. C 86, 034608
                   (2012)
ENDBIB               8
COMMON               1          3
EN-CM
MEV
 210.1
ENDCOMMON            3
DATA                 3        144
MASS       DATA       DATA-ERR
NO-DIM     PC/FIS     PC/FIS
         0.      0.000      0.000
         2.      0.000      0.000
         4.      0.000      0.000
         6.      0.000      0.000
         8.      0.000      0.000
        10.      0.000      0.000
        12.      0.000      0.000
        14.      0.000      0.000
        16.      0.000      0.000
        18.      0.000      0.000
        20.      0.000      0.000
        22.      0.000      0.000
        24.      0.000      0.000
        26.      0.000      0.000
        28.      0.000      0.000
        30.      0.000      0.000
        32.      0.000      0.000
        34.      0.000      0.000
        36.      0.000      0.000
        38.      0.000      0.000
        40.      0.000      0.000
        42.      0.000      0.000
        44.      0.000      0.000
        46.      0.000      0.000
        48.      0.000      0.000
        50.      0.022      0.015
        52.      0.195      0.046
        54.      0.346      0.061
        56.      0.498      0.073
        58.      0.833      0.095
        60.      0.822      0.094
        62.      0.963      0.102
        64.      1.103      0.109
        66.      1.190      0.114
        68.      1.471      0.127
        70.      1.514      0.128
        72.      1.395      0.123
        74.      1.720      0.136
        76.      1.785      0.138
        78.      1.676      0.134
        80.      1.395      0.123
        82.      1.601      0.132
        84.      1.503      0.128
        86.      1.525      0.129
        88.      1.352      0.121
        90.      1.244      0.116
        92.      1.352      0.121
        94.      1.374      0.122
        96.      1.363      0.121
        98.      1.255      0.117
       100.      1.244      0.116
       102.      1.557      0.130
       104.      1.114      0.109
       106.      1.222      0.115
       108.      0.952      0.101
       110.      0.963      0.102
       112.      0.963      0.102
       114.      0.941      0.101
       116.      1.136      0.110
       118.      0.876      0.097
       120.      1.082      0.108
       122.      0.887      0.098
       124.      0.854      0.096
       126.      0.919      0.100
       128.      0.854      0.096
       130.      0.984      0.103
       132.      0.984      0.103
       134.      1.017      0.105
       136.      1.017      0.105
       138.      0.941      0.101
       140.      0.941      0.101
       142.      1.017      0.105
       144.      1.017      0.105
       146.      0.984      0.103
       148.      0.984      0.103
       150.      0.854      0.096
       152.      0.919      0.100
       154.      0.854      0.096
       156.      0.887      0.098
       158.      1.082      0.108
       160.      0.876      0.097
       162.      1.136      0.110
       164.      0.941      0.101
       166.      0.963      0.102
       168.      0.963      0.102
       170.      0.952      0.101
       172.      1.222      0.115
       174.      1.114      0.109
       176.      1.557      0.130
       178.      1.244      0.116
       180.      1.255      0.117
       182.      1.363      0.121
       184.      1.374      0.122
       186.      1.352      0.121
       188.      1.244      0.116
       190.      1.352      0.121
       192.      1.525      0.129
       194.      1.503      0.128
       196.      1.601      0.132
       198.      1.395      0.123
       200.      1.676      0.134
       202.      1.785      0.138
       204.      1.720      0.136
       206.      1.395      0.123
       208.      1.514      0.128
       210.      1.471      0.127
       212.      1.190      0.114
       214.      1.103      0.109
       216.      0.963      0.102
       218.      0.822      0.094
       220.      0.833      0.095
       222.      0.498      0.073
       224.      0.346      0.061
       226.      0.195      0.046
       228.      0.022      0.015
       230.      0.000      0.000
       232.      0.000      0.000
       234.      0.000      0.000
       236.      0.000      0.000
       238.      0.000      0.000
       240.      0.000      0.000
       242.      0.000      0.000
       244.      0.000      0.000
       246.      0.000      0.000
       248.      0.000      0.000
       250.      0.000      0.000
       252.      0.000      0.000
       254.      0.000      0.000
       256.      0.000      0.000
       258.      0.000      0.000
       260.      0.000      0.000
       262.      0.000      0.000
       264.      0.000      0.000
       266.      0.000      0.000
       268.      0.000      0.000
       270.      0.000      0.000
       272.      0.000      0.000
       274.      0.000      0.000
       276.      0.000      0.000
       278.      0.000      0.000
       280.      0.000      0.000
       282.      0.000      0.000
       284.      0.000      0.000
       286.      0.000      0.000
ENDDATA            146
ENDSUBENT          163
SUBENT        E2411023   20140325   20140331   20140325       E086
BIB                  3          8
REACTION   (92-U-238(20-CA-40,F)MASS,PRE,FY,,MSC)
           The data cover the detection angle of fission
           fragments between 65 and 115 degress. The spectra are
           normalized such that the total area of each spectrum
           summed over the mass range is 200%.
ERR-ANALYS (DATA-ERR) No information on source of uncertainties
STATUS     (TABLE) Plotted in Fig.3 of Phys. Rev. C 86, 034608
                   (2012)
ENDBIB               8
COMMON               1          3
EN-CM
MEV
 200.0
ENDCOMMON            3
DATA                 3        144
MASS       DATA       DATA-ERR
NO-DIM     PC/FIS     PC/FIS
         0.      0.000      0.000
         2.      0.000      0.000
         4.      0.000      0.000
         6.      0.000      0.000
         8.      0.000      0.000
        10.      0.000      0.000
        12.      0.000      0.000
        14.      0.000      0.000
        16.      0.000      0.000
        18.      0.000      0.000
        20.      0.000      0.000
        22.      0.000      0.000
        24.      0.000      0.000
        26.      0.000      0.000
        28.      0.000      0.000
        30.      0.000      0.000
        32.      0.000      0.000
        34.      0.000      0.000
        36.      0.000      0.000
        38.      0.000      0.000
        40.      0.000      0.000
        42.      0.000      0.000
        44.      0.000      0.000
        46.      0.000      0.000
        48.      0.000      0.000
        50.      0.081      0.018
        52.      0.288      0.034
        54.      0.463      0.043
        56.      0.605      0.050
        58.      0.800      0.057
        60.      0.947      0.062
        62.      1.142      0.068
        64.      1.426      0.076
        66.      1.592      0.080
        68.      1.714      0.083
        70.      1.722      0.084
        72.      1.857      0.087
        74.      1.751      0.084
        76.      1.804      0.086
        78.      1.702      0.083
        80.      1.836      0.087
        82.      1.735      0.084
        84.      1.446      0.077
        86.      1.483      0.078
        88.      1.389      0.075
        90.      1.475      0.078
        92.      1.532      0.079
        94.      1.316      0.073
        96.      1.219      0.070
        98.      1.186      0.069
       100.      1.166      0.069
       102.      1.113      0.067
       104.      1.032      0.065
       106.      1.040      0.065
       108.      1.093      0.067
       110.      0.987      0.063
       112.      0.865      0.059
       114.      0.861      0.059
       116.      0.918      0.061
       118.      0.877      0.060
       120.      0.784      0.056
       122.      0.739      0.055
       124.      0.821      0.058
       126.      0.776      0.056
       128.      0.687      0.053
       130.      0.808      0.057
       132.      0.788      0.056
       134.      0.756      0.055
       136.      0.687      0.053
       138.      0.691      0.053
       140.      0.691      0.053
       142.      0.687      0.053
       144.      0.756      0.055
       146.      0.788      0.056
       148.      0.808      0.057
       150.      0.687      0.053
       152.      0.776      0.056
       154.      0.821      0.058
       156.      0.739      0.055
       158.      0.784      0.056
       160.      0.877      0.060
       162.      0.918      0.061
       164.      0.861      0.059
       166.      0.865      0.059
       168.      0.987      0.063
       170.      1.093      0.067
       172.      1.040      0.065
       174.      1.032      0.065
       176.      1.113      0.067
       178.      1.166      0.069
       180.      1.186      0.069
       182.      1.219      0.070
       184.      1.316      0.073
       186.      1.532      0.079
       188.      1.475      0.078
       190.      1.389      0.075
       192.      1.483      0.078
       194.      1.446      0.077
       196.      1.735      0.084
       198.      1.836      0.087
       200.      1.702      0.083
       202.      1.804      0.086
       204.      1.751      0.084
       206.      1.857      0.087
       208.      1.722      0.084
       210.      1.714      0.083
       212.      1.592      0.080
       214.      1.426      0.076
       216.      1.142      0.068
       218.      0.947      0.062
       220.      0.800      0.057
       222.      0.605      0.050
       224.      0.463      0.043
       226.      0.288      0.034
       228.      0.081      0.018
       230.      0.000      0.000
       232.      0.000      0.000
       234.      0.000      0.000
       236.      0.000      0.000
       238.      0.000      0.000
       240.      0.000      0.000
       242.      0.000      0.000
       244.      0.000      0.000
       246.      0.000      0.000
       248.      0.000      0.000
       250.      0.000      0.000
       252.      0.000      0.000
       254.      0.000      0.000
       256.      0.000      0.000
       258.      0.000      0.000
       260.      0.000      0.000
       262.      0.000      0.000
       264.      0.000      0.000
       266.      0.000      0.000
       268.      0.000      0.000
       270.      0.000      0.000
       272.      0.000      0.000
       274.      0.000      0.000
       276.      0.000      0.000
       278.      0.000      0.000
       280.      0.000      0.000
       282.      0.000      0.000
       284.      0.000      0.000
       286.      0.000      0.000
ENDDATA            146
ENDSUBENT          163
SUBENT        E2411024   20140325   20140331   20140325       E086
BIB                  3          8
REACTION   (92-U-238(20-CA-40,F)MASS,PRE,FY,,MSC)
           The data cover the detection angle of fission
           fragments between 65 and 115 degress. The spectra are
           normalized such that the total area of each spectrum
           summed over the mass range is 200%.
ERR-ANALYS (DATA-ERR) No information on source of uncertainties
STATUS     (TABLE) Plotted in Fig.3 of Phys. Rev. C 86, 034608
                   (2012)
ENDBIB               8
COMMON               1          3
EN-CM
MEV
 190.0
ENDCOMMON            3
DATA                 3        144
MASS       DATA       DATA-ERR
NO-DIM     PC/FIS     PC/FIS
         0.      0.000      0.000
         2.      0.000      0.000
         4.      0.000      0.000
         6.      0.000      0.000
         8.      0.000      0.000
        10.      0.000      0.000
        12.      0.000      0.000
        14.      0.000      0.000
        16.      0.000      0.000
        18.      0.000      0.000
        20.      0.000      0.000
        22.      0.000      0.000
        24.      0.000      0.000
        26.      0.000      0.000
        28.      0.000      0.000
        30.      0.000      0.000
        32.      0.000      0.000
        34.      0.000      0.000
        36.      0.000      0.000
        38.      0.000      0.000
        40.      0.000      0.000
        42.      0.000      0.000
        44.      0.000      0.000
        46.      0.000      0.000
        48.      0.000      0.000
        50.      0.025      0.025
        52.      0.150      0.061
        54.      0.274      0.083
        56.      0.723      0.134
        58.      0.723      0.134
        60.      0.947      0.154
        62.      1.072      0.164
        64.      1.296      0.180
        66.      1.994      0.223
        68.      1.869      0.216
        70.      2.193      0.234
        72.      1.720      0.207
        74.      2.044      0.226
        76.      1.869      0.216
        78.      1.969      0.222
        80.      1.770      0.210
        82.      1.944      0.220
        84.      1.894      0.217
        86.      1.844      0.214
        88.      1.471      0.191
        90.      1.670      0.204
        92.      1.246      0.176
        94.      1.371      0.185
        96.      1.421      0.188
        98.      1.496      0.193
       100.      1.271      0.178
       102.      1.072      0.164
       104.      0.997      0.158
       106.      1.122      0.167
       108.      0.823      0.143
       110.      1.022      0.160
       112.      0.872      0.148
       114.      0.648      0.127
       116.      0.897      0.150
       118.      0.773      0.139
       120.      0.723      0.134
       122.      0.399      0.100
       124.      0.499      0.111
       126.      0.748      0.137
       128.      0.573      0.120
       130.      0.324      0.090
       132.      0.698      0.132
       134.      0.499      0.111
       136.      0.548      0.117
       138.      0.499      0.111
       140.      0.499      0.111
       142.      0.548      0.117
       144.      0.499      0.111
       146.      0.698      0.132
       148.      0.324      0.090
       150.      0.573      0.120
       152.      0.748      0.137
       154.      0.499      0.111
       156.      0.399      0.100
       158.      0.723      0.134
       160.      0.773      0.139
       162.      0.897      0.150
       164.      0.648      0.127
       166.      0.872      0.148
       168.      1.022      0.160
       170.      0.823      0.143
       172.      1.122      0.167
       174.      0.997      0.158
       176.      1.072      0.164
       178.      1.271      0.178
       180.      1.496      0.193
       182.      1.421      0.188
       184.      1.371      0.185
       186.      1.246      0.176
       188.      1.670      0.204
       190.      1.471      0.191
       192.      1.844      0.214
       194.      1.894      0.217
       196.      1.944      0.220
       198.      1.770      0.210
       200.      1.969      0.222
       202.      1.869      0.216
       204.      2.044      0.226
       206.      1.720      0.207
       208.      2.193      0.234
       210.      1.869      0.216
       212.      1.994      0.223
       214.      1.296      0.180
       216.      1.072      0.164
       218.      0.947      0.154
       220.      0.723      0.134
       222.      0.723      0.134
       224.      0.274      0.083
       226.      0.150      0.061
       228.      0.025      0.025
       230.      0.000      0.000
       232.      0.000      0.000
       234.      0.000      0.000
       236.      0.000      0.000
       238.      0.000      0.000
       240.      0.000      0.000
       242.      0.000      0.000
       244.      0.000      0.000
       246.      0.000      0.000
       248.      0.000      0.000
       250.      0.000      0.000
       252.      0.000      0.000
       254.      0.000      0.000
       256.      0.000      0.000
       258.      0.000      0.000
       260.      0.000      0.000
       262.      0.000      0.000
       264.      0.000      0.000
       266.      0.000      0.000
       268.      0.000      0.000
       270.      0.000      0.000
       272.      0.000      0.000
       274.      0.000      0.000
       276.      0.000      0.000
       278.      0.000      0.000
       280.      0.000      0.000
       282.      0.000      0.000
       284.      0.000      0.000
       286.      0.000      0.000
ENDDATA            146
ENDSUBENT          163
SUBENT        E2411025   20140325   20140331   20140325       E086
BIB                  3          8
REACTION   (92-U-238(20-CA-40,F)MASS,PRE,FY,,MSC)
           The data cover the detection angle of fission
           fragments between 65 and 115 degress. The spectra are
           normalized such that the total area of each spectrum
           summed over the mass range is 200%.
ERR-ANALYS (DATA-ERR) No information on source of uncertainties
STATUS     (TABLE) Plotted in Fig.3 of Phys. Rev. C 86, 034608
                   (2012)
ENDBIB               8
COMMON               1          3
EN-CM
MEV
 185.0
ENDCOMMON            3
DATA                 3        144
MASS       DATA       DATA-ERR
NO-DIM     PC/FIS     PC/FIS
         0.      0.000      0.000
         2.      0.000      0.000
         4.      0.000      0.000
         6.      0.000      0.000
         8.      0.000      0.000
        10.      0.000      0.000
        12.      0.000      0.000
        14.      0.000      0.000
        16.      0.000      0.000
        18.      0.000      0.000
        20.      0.000      0.000
        22.      0.000      0.000
        24.      0.000      0.000
        26.      0.000      0.000
        28.      0.000      0.000
        30.      0.000      0.000
        32.      0.000      0.000
        34.      0.000      0.000
        36.      0.000      0.000
        38.      0.000      0.000
        40.      0.000      0.000
        42.      0.000      0.000
        44.      0.000      0.000
        46.      0.000      0.000
        48.      0.000      0.000
        50.      0.000      0.000
        52.      0.215      0.108
        54.      0.376      0.142
        56.      0.914      0.222
        58.      1.129      0.246
        60.      1.183      0.252
        62.      1.344      0.269
        64.      1.398      0.274
        66.      1.398      0.274
        68.      1.882      0.318
        70.      2.366      0.356
        72.      1.398      0.274
        74.      2.151      0.340
        76.      2.097      0.335
        78.      2.097      0.335
        80.      1.774      0.309
        82.      2.043      0.331
        84.      1.882      0.318
        86.      1.989      0.327
        88.      1.828      0.313
        90.      1.452      0.280
        92.      1.344      0.269
        94.      1.344      0.269
        96.      1.559      0.290
        98.      1.022      0.234
       100.      0.968      0.228
       102.      1.344      0.269
       104.      1.022      0.234
       106.      0.753      0.201
       108.      0.914      0.222
       110.      0.914      0.222
       112.      0.538      0.170
       114.      0.538      0.170
       116.      0.914      0.222
       118.      0.806      0.208
       120.      0.269      0.120
       122.      0.376      0.142
       124.      0.484      0.161
       126.      0.430      0.152
       128.      0.645      0.186
       130.      0.484      0.161
       132.      0.591      0.178
       134.      0.430      0.152
       136.      0.645      0.186
       138.      0.753      0.201
       140.      0.753      0.201
       142.      0.645      0.186
       144.      0.430      0.152
       146.      0.591      0.178
       148.      0.484      0.161
       150.      0.645      0.186
       152.      0.430      0.152
       154.      0.484      0.161
       156.      0.376      0.142
       158.      0.269      0.120
       160.      0.806      0.208
       162.      0.914      0.222
       164.      0.538      0.170
       166.      0.538      0.170
       168.      0.914      0.222
       170.      0.914      0.222
       172.      0.753      0.201
       174.      1.022      0.234
       176.      1.344      0.269
       178.      0.968      0.228
       180.      1.022      0.234
       182.      1.559      0.290
       184.      1.344      0.269
       186.      1.344      0.269
       188.      1.452      0.280
       190.      1.828      0.313
       192.      1.989      0.327
       194.      1.882      0.318
       196.      2.043      0.331
       198.      1.774      0.309
       200.      2.097      0.335
       202.      2.097      0.335
       204.      2.151      0.340
       206.      1.398      0.274
       208.      2.366      0.356
       210.      1.882      0.318
       212.      1.398      0.274
       214.      1.398      0.274
       216.      1.344      0.269
       218.      1.183      0.252
       220.      1.129      0.246
       222.      0.914      0.222
       224.      0.376      0.142
       226.      0.215      0.108
       228.      0.000      0.000
       230.      0.000      0.000
       232.      0.000      0.000
       234.      0.000      0.000
       236.      0.000      0.000
       238.      0.000      0.000
       240.      0.000      0.000
       242.      0.000      0.000
       244.      0.000      0.000
       246.      0.000      0.000
       248.      0.000      0.000
       250.      0.000      0.000
       252.      0.000      0.000
       254.      0.000      0.000
       256.      0.000      0.000
       258.      0.000      0.000
       260.      0.000      0.000
       262.      0.000      0.000
       264.      0.000      0.000
       266.      0.000      0.000
       268.      0.000      0.000
       270.      0.000      0.000
       272.      0.000      0.000
       274.      0.000      0.000
       276.      0.000      0.000
       278.      0.000      0.000
       280.      0.000      0.000
       282.      0.000      0.000
       284.      0.000      0.000
       286.      0.000      0.000
ENDDATA            146
ENDSUBENT          163
SUBENT        E2411026   20140325   20140331   20140325       E086
BIB                  3          8
REACTION   (92-U-238(20-CA-40,F)MASS,PRE,FY,,MSC)
           The data cover the detection angle of fission
           fragments between 65 and 115 degress. The spectra are
           normalized such that the total area of each spectrum
           summed over the mass range is 200%.
ERR-ANALYS (DATA-ERR) No information on source of uncertainties
STATUS     (TABLE) Plotted in Fig.3 of Phys. Rev. C 86, 034608
                   (2012)
ENDBIB               8
COMMON               1          3
EN-CM
MEV
 180.0
ENDCOMMON            3
DATA                 3        144
MASS       DATA       DATA-ERR
NO-DIM     PC/FIS     PC/FIS
         0.      0.000      0.000
         2.      0.000      0.000
         4.      0.000      0.000
         6.      0.000      0.000
         8.      0.000      0.000
        10.      0.000      0.000
        12.      0.000      0.000
        14.      0.000      0.000
        16.      0.000      0.000
        18.      0.000      0.000
        20.      0.000      0.000
        22.      0.000      0.000
        24.      0.000      0.000
        26.      0.000      0.000
        28.      0.000      0.000
        30.      0.000      0.000
        32.      0.000      0.000
        34.      0.000      0.000
        36.      0.000      0.000
        38.      0.000      0.000
        40.      0.000      0.000
        42.      0.000      0.000
        44.      0.000      0.000
        46.      0.000      0.000
        48.      0.000      0.000
        50.      0.237      0.118
        52.      0.769      0.214
        54.      0.592      0.187
        56.      1.183      0.264
        58.      0.888      0.229
        60.      0.888      0.229
        62.      1.538      0.302
        64.      1.834      0.330
        66.      1.657      0.313
        68.      1.775      0.324
        70.      2.426      0.379
        72.      1.953      0.340
        74.      2.071      0.350
        76.      1.953      0.340
        78.      2.071      0.350
        80.      1.598      0.308
        82.      1.775      0.324
        84.      2.189      0.360
        86.      1.420      0.290
        88.      2.012      0.345
        90.      1.124      0.258
        92.      1.893      0.335
        94.      1.302      0.278
        96.      1.361      0.284
        98.      1.361      0.284
       100.      1.124      0.258
       102.      0.888      0.229
       104.      0.888      0.229
       106.      1.183      0.264
       108.      0.710      0.205
       110.      0.769      0.214
       112.      0.651      0.196
       114.      0.473      0.167
       116.      0.533      0.178
       118.      0.296      0.132
       120.      0.414      0.157
       122.      0.592      0.187
       124.      0.592      0.187
       126.      0.414      0.157
       128.      0.414      0.157
       130.      0.828      0.221
       132.      0.178      0.102
       134.      0.414      0.157
       136.      0.473      0.167
       138.      0.296      0.132
       140.      0.296      0.132
       142.      0.473      0.167
       144.      0.414      0.157
       146.      0.178      0.102
       148.      0.828      0.221
       150.      0.414      0.157
       152.      0.414      0.157
       154.      0.592      0.187
       156.      0.592      0.187
       158.      0.414      0.157
       160.      0.296      0.132
       162.      0.533      0.178
       164.      0.473      0.167
       166.      0.651      0.196
       168.      0.769      0.214
       170.      0.710      0.205
       172.      1.183      0.264
       174.      0.888      0.229
       176.      0.888      0.229
       178.      1.124      0.258
       180.      1.361      0.284
       182.      1.361      0.284
       184.      1.302      0.278
       186.      1.893      0.335
       188.      1.124      0.258
       190.      2.012      0.345
       192.      1.420      0.290
       194.      2.189      0.360
       196.      1.775      0.324
       198.      1.598      0.308
       200.      2.071      0.350
       202.      1.953      0.340
       204.      2.071      0.350
       206.      1.953      0.340
       208.      2.426      0.379
       210.      1.775      0.324
       212.      1.657      0.313
       214.      1.834      0.330
       216.      1.538      0.302
       218.      0.888      0.229
       220.      0.888      0.229
       222.      1.183      0.264
       224.      0.592      0.187
       226.      0.769      0.214
       228.      0.237      0.118
       230.      0.000      0.000
       232.      0.000      0.000
       234.      0.000      0.000
       236.      0.000      0.000
       238.      0.000      0.000
       240.      0.000      0.000
       242.      0.000      0.000
       244.      0.000      0.000
       246.      0.000      0.000
       248.      0.000      0.000
       250.      0.000      0.000
       252.      0.000      0.000
       254.      0.000      0.000
       256.      0.000      0.000
       258.      0.000      0.000
       260.      0.000      0.000
       262.      0.000      0.000
       264.      0.000      0.000
       266.      0.000      0.000
       268.      0.000      0.000
       270.      0.000      0.000
       272.      0.000      0.000
       274.      0.000      0.000
       276.      0.000      0.000
       278.      0.000      0.000
       280.      0.000      0.000
       282.      0.000      0.000
       284.      0.000      0.000
       286.      0.000      0.000
ENDDATA            146
ENDSUBENT          163
SUBENT        E2411027   20140325   20140331   20140325       E086
BIB                  3          6
REACTION   (92-U-238(20-CA-40,F)MASS,PRE,KE,LF+HF,MSC)
           The data cover the detection angle of fission
           fragments between 65 and 115 degress.
ERR-ANALYS (DATA-ERR) No information on source of uncertainties
STATUS     (TABLE) Plotted in Fig.3 of Phys. Rev. C 86, 034608
                   (2012)
ENDBIB               6
COMMON               1          3
EN-CM
MEV
 230.0
ENDCOMMON            3
DATA                 3        144
MASS       DATA       DATA-ERR
NO-DIM     MEV        MEV
         0.      0.000      0.000
         2.      0.000      0.000
         4.      0.000      0.000
         6.      0.000      0.000
         8.      0.000      0.000
        10.      0.000      0.000
        12.      0.000      0.000
        14.      0.000      0.000
        16.      0.000      0.000
        18.      0.000      0.000
        20.      0.000      0.000
        22.      0.000      0.000
        24.      0.000      0.000
        26.      0.000      0.000
        28.      0.000      0.000
        30.      0.000      0.000
        32.      0.000      0.000
        34.      0.000      0.000
        36.      0.000      0.000
        38.      0.000      0.000
        40.      0.000      0.000
        42.      0.000      0.000
        44.      0.000      0.000
        46.      0.000      0.000
        48.      0.000      0.000
        50.    225.900     12.200
        52.    223.100      8.300
        54.    224.800      5.800
        56.    221.800      6.100
        58.    230.700      4.500
        60.    224.500      4.200
        62.    222.100      3.700
        64.    226.400      3.000
        66.    226.800      2.700
        68.    219.800      2.400
        70.    221.800      2.300
        72.    220.900      2.300
        74.    214.900      2.100
        76.    218.700      2.100
        78.    217.700      2.000
        80.    220.700      2.000
        82.    216.800      2.000
        84.    218.400      2.100
        86.    218.400      2.000
        88.    220.400      2.100
        90.    216.300      1.900
        92.    215.900      2.000
        94.    218.200      2.000
        96.    221.800      2.000
        98.    220.700      2.000
       100.    219.800      2.100
       102.    223.200      2.000
       104.    224.700      2.000
       106.    226.100      1.900
       108.    226.500      1.900
       110.    230.300      2.000
       112.    232.300      1.900
       114.    233.800      2.000
       116.    230.300      1.900
       118.    232.300      1.800
       120.    240.900      1.800
       122.    229.900      1.900
       124.    236.300      1.800
       126.    239.200      2.000
       128.    241.000      1.900
       130.    241.900      1.900
       132.    242.300      1.900
       134.    240.200      1.800
       136.    242.900      1.900
       138.    239.300      1.800
       140.    239.300      1.800
       142.    242.900      1.900
       144.    240.200      1.800
       146.    242.300      1.900
       148.    241.900      1.900
       150.    241.000      1.900
       152.    239.200      2.000
       154.    236.300      1.800
       156.    229.900      1.900
       158.    240.900      1.800
       160.    232.300      1.800
       162.    230.300      1.900
       164.    233.800      2.000
       166.    232.300      1.900
       168.    230.300      2.000
       170.    226.500      1.900
       172.    226.100      1.900
       174.    224.700      2.000
       176.    223.200      2.000
       178.    219.800      2.100
       180.    220.700      2.000
       182.    221.800      2.000
       184.    218.200      2.000
       186.    215.900      2.000
       188.    216.300      1.900
       190.    220.400      2.100
       192.    218.400      2.000
       194.    218.400      2.100
       196.    216.800      2.000
       198.    220.700      2.000
       200.    217.700      2.000
       202.    218.700      2.100
       204.    214.900      2.100
       206.    220.900      2.300
       208.    221.800      2.300
       210.    219.800      2.400
       212.    226.800      2.700
       214.    226.400      3.000
       216.    222.100      3.700
       218.    224.500      4.200
       220.    230.700      4.500
       222.    221.800      6.100
       224.    224.800      5.800
       226.    223.100      8.300
       228.    225.900     12.200
       230.      0.000      0.000
       232.      0.000      0.000
       234.      0.000      0.000
       236.      0.000      0.000
       238.      0.000      0.000
       240.      0.000      0.000
       242.      0.000      0.000
       244.      0.000      0.000
       246.      0.000      0.000
       248.      0.000      0.000
       250.      0.000      0.000
       252.      0.000      0.000
       254.      0.000      0.000
       256.      0.000      0.000
       258.      0.000      0.000
       260.      0.000      0.000
       262.      0.000      0.000
       264.      0.000      0.000
       266.      0.000      0.000
       268.      0.000      0.000
       270.      0.000      0.000
       272.      0.000      0.000
       274.      0.000      0.000
       276.      0.000      0.000
       278.      0.000      0.000
       280.      0.000      0.000
       282.      0.000      0.000
       284.      0.000      0.000
       286.      0.000      0.000
ENDDATA            146
ENDSUBENT          161
SUBENT        E2411028   20140325   20140331   20140325       E086
BIB                  3          6
REACTION   (92-U-238(20-CA-40,F)MASS,PRE,KE,LF+HF,MSC)
           The data cover the detection angle of fission
           fragments between 65 and 115 degress.
ERR-ANALYS (DATA-ERR) No information on source of uncertainties
STATUS     (TABLE) Plotted in Fig.3 of Phys. Rev. C 86, 034608
                   (2012)
ENDBIB               6
COMMON               1          3
EN-CM
MEV
 219.2
ENDCOMMON            3
DATA                 3        144
MASS       DATA       DATA-ERR
NO-DIM     MEV        MEV
         0.      0.000      0.000
         2.      0.000      0.000
         4.      0.000      0.000
         6.      0.000      0.000
         8.      0.000      0.000
        10.      0.000      0.000
        12.      0.000      0.000
        14.      0.000      0.000
        16.      0.000      0.000
        18.      0.000      0.000
        20.      0.000      0.000
        22.      0.000      0.000
        24.      0.000      0.000
        26.      0.000      0.000
        28.      0.000      0.000
        30.      0.000      0.000
        32.      0.000      0.000
        34.      0.000      0.000
        36.      0.000      0.000
        38.      0.000      0.000
        40.      0.000      0.000
        42.      0.000      0.000
        44.      0.000      0.000
        46.      0.000      0.000
        48.      0.000      0.000
        50.    212.600     21.200
        52.    233.900      6.400
        54.    246.700      5.400
        56.    239.300      4.100
        58.    228.100      3.600
        60.    231.300      2.800
        62.    224.600      2.700
        64.    223.500      2.800
        66.    221.500      2.300
        68.    222.300      2.300
        70.    220.400      2.200
        72.    217.700      2.100
        74.    216.800      2.100
        76.    216.000      1.900
        78.    223.800      2.000
        80.    216.800      2.100
        82.    217.700      2.100
        84.    218.700      2.200
        86.    216.700      2.100
        88.    221.900      2.100
        90.    220.700      2.100
        92.    218.000      2.100
        94.    220.800      2.100
        96.    220.100      2.100
        98.    222.100      2.100
       100.    218.200      2.100
       102.    221.200      2.200
       104.    223.800      2.200
       106.    219.500      2.300
       108.    224.700      2.400
       110.    226.900      2.300
       112.    228.300      2.300
       114.    226.400      2.300
       116.    232.400      2.400
       118.    231.600      2.300
       120.    236.700      2.200
       122.    236.800      2.200
       124.    236.800      2.400
       126.    238.200      2.500
       128.    236.900      2.200
       130.    237.700      2.500
       132.    236.900      2.300
       134.    238.400      2.300
       136.    240.300      2.200
       138.    239.700      2.200
       140.    239.700      2.200
       142.    240.300      2.200
       144.    238.400      2.300
       146.    236.900      2.300
       148.    237.700      2.500
       150.    236.900      2.200
       152.    238.200      2.500
       154.    236.800      2.400
       156.    236.800      2.200
       158.    236.700      2.200
       160.    231.600      2.300
       162.    232.400      2.400
       164.    226.400      2.300
       166.    228.300      2.300
       168.    226.900      2.300
       170.    224.700      2.400
       172.    219.500      2.300
       174.    223.800      2.200
       176.    221.200      2.200
       178.    218.200      2.100
       180.    222.100      2.100
       182.    220.100      2.100
       184.    220.800      2.100
       186.    218.000      2.100
       188.    220.700      2.100
       190.    221.900      2.100
       192.    216.700      2.100
       194.    218.700      2.200
       196.    217.700      2.100
       198.    216.800      2.100
       200.    223.800      2.000
       202.    216.000      1.900
       204.    216.800      2.100
       206.    217.700      2.100
       208.    220.400      2.200
       210.    222.300      2.300
       212.    221.500      2.300
       214.    223.500      2.800
       216.    224.600      2.700
       218.    231.300      2.800
       220.    228.100      3.600
       222.    239.300      4.100
       224.    246.700      5.400
       226.    233.900      6.400
       228.    212.600     21.200
       230.      0.000      0.000
       232.      0.000      0.000
       234.      0.000      0.000
       236.      0.000      0.000
       238.      0.000      0.000
       240.      0.000      0.000
       242.      0.000      0.000
       244.      0.000      0.000
       246.      0.000      0.000
       248.      0.000      0.000
       250.      0.000      0.000
       252.      0.000      0.000
       254.      0.000      0.000
       256.      0.000      0.000
       258.      0.000      0.000
       260.      0.000      0.000
       262.      0.000      0.000
       264.      0.000      0.000
       266.      0.000      0.000
       268.      0.000      0.000
       270.      0.000      0.000
       272.      0.000      0.000
       274.      0.000      0.000
       276.      0.000      0.000
       278.      0.000      0.000
       280.      0.000      0.000
       282.      0.000      0.000
       284.      0.000      0.000
       286.      0.000      0.000
ENDDATA            146
ENDSUBENT          161
SUBENT        E2411029   20140325   20140331   20140325       E086
BIB                  3          6
REACTION   (92-U-238(20-CA-40,F)MASS,PRE,KE,LF+HF,MSC)
           The data cover the detection angle of fission
           fragments between 65 and 115 degress.
ERR-ANALYS (DATA-ERR) No information on source of uncertainties
STATUS     (TABLE) Plotted in Fig.3 of Phys. Rev. C 86, 034608
                   (2012)
ENDBIB               6
COMMON               1          3
EN-CM
MEV
 210.1
ENDCOMMON            3
DATA                 3        144
MASS       DATA       DATA-ERR
NO-DIM     MEV        MEV
         0.      0.000      0.000
         2.      0.000      0.000
         4.      0.000      0.000
         6.      0.000      0.000
         8.      0.000      0.000
        10.      0.000      0.000
        12.      0.000      0.000
        14.      0.000      0.000
        16.      0.000      0.000
        18.      0.000      0.000
        20.      0.000      0.000
        22.      0.000      0.000
        24.      0.000      0.000
        26.      0.000      0.000
        28.      0.000      0.000
        30.      0.000      0.000
        32.      0.000      0.000
        34.      0.000      0.000
        36.      0.000      0.000
        38.      0.000      0.000
        40.      0.000      0.000
        42.      0.000      0.000
        44.      0.000      0.000
        46.      0.000      0.000
        48.      0.000      0.000
        50.    224.900     21.200
        52.    221.000      7.100
        54.    218.800      5.300
        56.    228.600      4.400
        58.    217.600      3.400
        60.    216.600      3.500
        62.    222.100      3.200
        64.    216.800      2.900
        66.    216.500      2.900
        68.    214.200      2.600
        70.    220.500      2.600
        72.    215.700      2.700
        74.    212.900      2.400
        76.    212.300      2.300
        78.    216.200      2.400
        80.    210.900      2.600
        82.    218.100      2.500
        84.    218.000      2.600
        86.    218.500      2.600
        88.    217.200      2.700
        90.    219.700      2.800
        92.    217.500      2.700
        94.    220.300      2.700
        96.    215.200      2.700
        98.    222.000      2.800
       100.    223.300      2.800
       102.    216.800      2.500
       104.    217.700      2.900
       106.    219.800      2.800
       108.    219.400      3.200
       110.    216.400      3.200
       112.    226.300      3.100
       114.    221.100      3.200
       116.    227.100      2.900
       118.    225.900      3.300
       120.    236.000      3.000
       122.    230.300      3.300
       124.    237.400      3.400
       126.    232.400      3.300
       128.    232.400      3.400
       130.    238.700      3.100
       132.    235.200      3.100
       134.    239.300      3.100
       136.    237.900      3.100
       138.    239.100      3.200
       140.    239.100      3.200
       142.    237.900      3.100
       144.    239.300      3.100
       146.    235.200      3.100
       148.    238.700      3.100
       150.    232.400      3.400
       152.    232.400      3.300
       154.    237.400      3.400
       156.    230.300      3.300
       158.    236.000      3.000
       160.    225.900      3.300
       162.    227.100      2.900
       164.    221.100      3.200
       166.    226.300      3.100
       168.    216.400      3.200
       170.    219.400      3.200
       172.    219.800      2.800
       174.    217.700      2.900
       176.    216.800      2.500
       178.    223.300      2.800
       180.    222.000      2.800
       182.    215.200      2.700
       184.    220.300      2.700
       186.    217.500      2.700
       188.    219.700      2.800
       190.    217.200      2.700
       192.    218.500      2.600
       194.    218.000      2.600
       196.    218.100      2.500
       198.    210.900      2.600
       200.    216.200      2.400
       202.    212.300      2.300
       204.    212.900      2.400
       206.    215.700      2.700
       208.    220.500      2.600
       210.    214.200      2.600
       212.    216.500      2.900
       214.    216.800      2.900
       216.    222.100      3.200
       218.    216.600      3.500
       220.    217.600      3.400
       222.    228.600      4.400
       224.    218.800      5.300
       226.    221.000      7.100
       228.    224.900     21.200
       230.      0.000      0.000
       232.      0.000      0.000
       234.      0.000      0.000
       236.      0.000      0.000
       238.      0.000      0.000
       240.      0.000      0.000
       242.      0.000      0.000
       244.      0.000      0.000
       246.      0.000      0.000
       248.      0.000      0.000
       250.      0.000      0.000
       252.      0.000      0.000
       254.      0.000      0.000
       256.      0.000      0.000
       258.      0.000      0.000
       260.      0.000      0.000
       262.      0.000      0.000
       264.      0.000      0.000
       266.      0.000      0.000
       268.      0.000      0.000
       270.      0.000      0.000
       272.      0.000      0.000
       274.      0.000      0.000
       276.      0.000      0.000
       278.      0.000      0.000
       280.      0.000      0.000
       282.      0.000      0.000
       284.      0.000      0.000
       286.      0.000      0.000
ENDDATA            146
ENDSUBENT          161
SUBENT        E2411030   20140325   20140331   20140325       E086
BIB                  3          6
REACTION   (92-U-238(20-CA-40,F)MASS,PRE,KE,LF+HF,MSC)
           The data cover the detection angle of fission
           fragments between 65 and 115 degress.
ERR-ANALYS (DATA-ERR) No information on source of uncertainties
STATUS     (TABLE) Plotted in Fig.3 of Phys. Rev. C 86, 034608
                   (2012)
ENDBIB               6
COMMON               1          3
EN-CM
MEV
 200.0
ENDCOMMON            3
DATA                 3        144
MASS       DATA       DATA-ERR
NO-DIM     MEV        MEV
         0.      0.000      0.000
         2.      0.000      0.000
         4.      0.000      0.000
         6.      0.000      0.000
         8.      0.000      0.000
        10.      0.000      0.000
        12.      0.000      0.000
        14.      0.000      0.000
        16.      0.000      0.000
        18.      0.000      0.000
        20.      0.000      0.000
        22.      0.000      0.000
        24.      0.000      0.000
        26.      0.000      0.000
        28.      0.000      0.000
        30.      0.000      0.000
        32.      0.000      0.000
        34.      0.000      0.000
        36.      0.000      0.000
        38.      0.000      0.000
        40.      0.000      0.000
        42.      0.000      0.000
        44.      0.000      0.000
        46.      0.000      0.000
        48.      0.000      0.000
        50.    220.100      6.700
        52.    217.800      3.600
        54.    213.200      2.800
        56.    217.000      2.500
        58.    209.600      2.100
        60.    210.900      1.900
        62.    207.200      1.800
        64.    210.500      1.600
        66.    205.200      1.500
        68.    205.800      1.500
        70.    206.600      1.500
        72.    207.600      1.400
        74.    207.400      1.500
        76.    209.500      1.400
        78.    211.300      1.400
        80.    210.300      1.400
        82.    211.300      1.400
        84.    211.500      1.600
        86.    209.700      1.600
        88.    210.800      1.600
        90.    213.300      1.500
        92.    213.300      1.500
        94.    207.800      1.700
        96.    214.100      1.700
        98.    212.900      1.800
       100.    213.200      1.800
       102.    216.100      1.800
       104.    216.300      1.900
       106.    218.400      1.900
       108.    219.000      1.800
       110.    220.500      1.900
       112.    222.400      2.100
       114.    219.300      2.100
       116.    224.200      2.000
       118.    226.500      2.000
       120.    228.200      2.200
       122.    226.600      2.200
       124.    223.700      2.100
       126.    230.800      2.200
       128.    227.800      2.300
       130.    231.900      2.100
       132.    231.700      2.200
       134.    231.600      2.200
       136.    234.200      2.300
       138.    235.200      2.300
       140.    235.200      2.300
       142.    234.200      2.300
       144.    231.600      2.200
       146.    231.700      2.200
       148.    231.900      2.100
       150.    227.800      2.300
       152.    230.800      2.200
       154.    223.700      2.100
       156.    226.600      2.200
       158.    228.200      2.200
       160.    226.500      2.000
       162.    224.200      2.000
       164.    219.300      2.100
       166.    222.400      2.100
       168.    220.500      1.900
       170.    219.000      1.800
       172.    218.400      1.900
       174.    216.300      1.900
       176.    216.100      1.800
       178.    213.200      1.800
       180.    212.900      1.800
       182.    214.100      1.700
       184.    207.800      1.700
       186.    213.300      1.500
       188.    213.300      1.500
       190.    210.800      1.600
       192.    209.700      1.600
       194.    211.500      1.600
       196.    211.300      1.400
       198.    210.300      1.400
       200.    211.300      1.400
       202.    209.500      1.400
       204.    207.400      1.500
       206.    207.600      1.400
       208.    206.600      1.500
       210.    205.800      1.500
       212.    205.200      1.500
       214.    210.500      1.600
       216.    207.200      1.800
       218.    210.900      1.900
       220.    209.600      2.100
       222.    217.000      2.500
       224.    213.200      2.800
       226.    217.800      3.600
       228.    220.100      6.700
       230.      0.000      0.000
       232.      0.000      0.000
       234.      0.000      0.000
       236.      0.000      0.000
       238.      0.000      0.000
       240.      0.000      0.000
       242.      0.000      0.000
       244.      0.000      0.000
       246.      0.000      0.000
       248.      0.000      0.000
       250.      0.000      0.000
       252.      0.000      0.000
       254.      0.000      0.000
       256.      0.000      0.000
       258.      0.000      0.000
       260.      0.000      0.000
       262.      0.000      0.000
       264.      0.000      0.000
       266.      0.000      0.000
       268.      0.000      0.000
       270.      0.000      0.000
       272.      0.000      0.000
       274.      0.000      0.000
       276.      0.000      0.000
       278.      0.000      0.000
       280.      0.000      0.000
       282.      0.000      0.000
       284.      0.000      0.000
       286.      0.000      0.000
ENDDATA            146
ENDSUBENT          161
SUBENT        E2411031   20140325   20140331   20140325       E086
BIB                  3          6
REACTION   (92-U-238(20-CA-40,F)MASS,PRE,KE,LF+HF,MSC)
           The data cover the detection angle of fission
           fragments between 65 and 115 degress.
ERR-ANALYS (DATA-ERR) No information on source of uncertainties
STATUS     (TABLE) Plotted in Fig.3 of Phys. Rev. C 86, 034608
                   (2012)
ENDBIB               6
COMMON               1          3
EN-CM
MEV
 190.0
ENDCOMMON            3
DATA                 3        144
MASS       DATA       DATA-ERR
NO-DIM     MEV        MEV
         0.      0.000      0.000
         2.      0.000      0.000
         4.      0.000      0.000
         6.      0.000      0.000
         8.      0.000      0.000
        10.      0.000      0.000
        12.      0.000      0.000
        14.      0.000      0.000
        16.      0.000      0.000
        18.      0.000      0.000
        20.      0.000      0.000
        22.      0.000      0.000
        24.      0.000      0.000
        26.      0.000      0.000
        28.      0.000      0.000
        30.      0.000      0.000
        32.      0.000      0.000
        34.      0.000      0.000
        36.      0.000      0.000
        38.      0.000      0.000
        40.      0.000      0.000
        42.      0.000      0.000
        44.      0.000      0.000
        46.      0.000      0.000
        48.      0.000      0.000
        50.    225.900     30.000
        52.    210.600     12.300
        54.    222.200      9.100
        56.    217.900      5.600
        58.    212.000      5.500
        60.    203.600      4.800
        62.    205.600      4.600
        64.    204.800      4.200
        66.    204.600      3.300
        68.    204.200      3.500
        70.    208.300      3.200
        72.    209.000      3.600
        74.    206.600      3.300
        76.    204.200      3.500
        78.    200.600      3.300
        80.    215.900      3.600
        82.    213.900      3.400
        84.    206.200      3.400
        86.    209.000      3.500
        88.    217.100      3.900
        90.    205.800      3.700
        92.    212.300      4.200
        94.    209.200      4.000
        96.    217.400      4.000
        98.    205.900      3.900
       100.    213.500      4.200
       102.    203.500      4.500
       104.    211.100      4.700
       106.    209.100      4.500
       108.    211.500      5.200
       110.    215.900      4.600
       112.    215.200      5.100
       114.    210.800      5.900
       116.    214.200      5.000
       118.    221.800      5.400
       120.    216.800      5.500
       122.    235.800      7.500
       124.    224.100      6.700
       126.    221.700      5.500
       128.    221.700      6.300
       130.    231.600      8.300
       132.    231.800      5.700
       134.    234.500      6.700
       136.    219.800      6.300
       138.    222.800      6.800
       140.    222.800      6.800
       142.    219.800      6.300
       144.    234.500      6.700
       146.    231.800      5.700
       148.    231.600      8.300
       150.    221.700      6.300
       152.    221.700      5.500
       154.    224.100      6.700
       156.    235.800      7.500
       158.    216.800      5.500
       160.    221.800      5.400
       162.    214.200      5.000
       164.    210.800      5.900
       166.    215.200      5.100
       168.    215.900      4.600
       170.    211.500      5.200
       172.    209.100      4.500
       174.    211.100      4.700
       176.    203.500      4.500
       178.    213.500      4.200
       180.    205.900      3.900
       182.    217.400      4.000
       184.    209.200      4.000
       186.    212.300      4.200
       188.    205.800      3.700
       190.    217.100      3.900
       192.    209.000      3.500
       194.    206.200      3.400
       196.    213.900      3.400
       198.    215.900      3.600
       200.    200.600      3.300
       202.    204.200      3.500
       204.    206.600      3.300
       206.    209.000      3.600
       208.    208.300      3.200
       210.    204.200      3.500
       212.    204.600      3.300
       214.    204.800      4.200
       216.    205.600      4.600
       218.    203.600      4.800
       220.    212.000      5.500
       222.    217.900      5.600
       224.    222.200      9.100
       226.    210.600     12.300
       228.    225.900     30.000
       230.      0.000      0.000
       232.      0.000      0.000
       234.      0.000      0.000
       236.      0.000      0.000
       238.      0.000      0.000
       240.      0.000      0.000
       242.      0.000      0.000
       244.      0.000      0.000
       246.      0.000      0.000
       248.      0.000      0.000
       250.      0.000      0.000
       252.      0.000      0.000
       254.      0.000      0.000
       256.      0.000      0.000
       258.      0.000      0.000
       260.      0.000      0.000
       262.      0.000      0.000
       264.      0.000      0.000
       266.      0.000      0.000
       268.      0.000      0.000
       270.      0.000      0.000
       272.      0.000      0.000
       274.      0.000      0.000
       276.      0.000      0.000
       278.      0.000      0.000
       280.      0.000      0.000
       282.      0.000      0.000
       284.      0.000      0.000
       286.      0.000      0.000
ENDDATA            146
ENDSUBENT          161
SUBENT        E2411032   20140325   20140331   20140325       E086
BIB                  3          6
REACTION   (92-U-238(20-CA-40,F)MASS,PRE,KE,LF+HF,MSC)
           The data cover the detection angle of fission
           fragments between 65 and 115 degress.
ERR-ANALYS (DATA-ERR) No information on source of uncertainties
STATUS     (TABLE) Plotted in Fig.3 of Phys. Rev. C 86, 034608
                   (2012)
ENDBIB               6
COMMON               1          3
EN-CM
MEV
 185.0
ENDCOMMON            3
DATA                 3        144
MASS       DATA       DATA-ERR
NO-DIM     MEV        MEV
         0.      0.000      0.000
         2.      0.000      0.000
         4.      0.000      0.000
         6.      0.000      0.000
         8.      0.000      0.000
        10.      0.000      0.000
        12.      0.000      0.000
        14.      0.000      0.000
        16.      0.000      0.000
        18.      0.000      0.000
        20.      0.000      0.000
        22.      0.000      0.000
        24.      0.000      0.000
        26.      0.000      0.000
        28.      0.000      0.000
        30.      0.000      0.000
        32.      0.000      0.000
        34.      0.000      0.000
        36.      0.000      0.000
        38.      0.000      0.000
        40.      0.000      0.000
        42.      0.000      0.000
        44.      0.000      0.000
        46.      0.000      0.000
        48.      0.000      0.000
        50.      0.000      0.000
        52.    227.800     15.000
        54.    215.700     11.300
        56.    212.800      7.300
        58.    206.000      6.500
        60.    216.300      6.400
        62.    215.300      6.000
        64.    216.800      5.900
        66.    211.500      5.900
        68.    202.800      5.100
        70.    207.900      4.500
        72.    209.600      5.900
        74.    204.900      4.700
        76.    205.100      4.800
        78.    203.200      4.800
        80.    202.100      5.200
        82.    203.400      4.900
        84.    202.400      5.000
        86.    210.300      4.900
        88.    209.200      5.200
        90.    208.500      5.800
        92.    215.600      6.000
        94.    199.600      6.000
        96.    209.700      5.600
        98.    202.400      6.900
       100.    206.900      7.100
       102.    211.100      6.000
       104.    216.500      6.900
       106.    220.000      8.100
       108.    210.000      7.200
       110.    214.000      7.200
       112.    215.200      9.500
       114.    209.100      9.400
       116.    220.800      7.300
       118.    208.200      7.700
       120.    223.600     13.400
       122.    223.300     11.300
       124.    216.800     10.000
       126.    230.700     10.600
       128.    225.600      8.700
       130.    223.400     10.000
       132.    234.200      9.100
       134.    224.100     10.600
       136.    235.300      8.700
       138.    237.800      8.000
       140.    237.800      8.000
       142.    235.300      8.700
       144.    224.100     10.600
       146.    234.200      9.100
       148.    223.400     10.000
       150.    225.600      8.700
       152.    230.700     10.600
       154.    216.800     10.000
       156.    223.300     11.300
       158.    223.600     13.400
       160.    208.200      7.700
       162.    220.800      7.300
       164.    209.100      9.400
       166.    215.200      9.500
       168.    214.000      7.200
       170.    210.000      7.200
       172.    220.000      8.100
       174.    216.500      6.900
       176.    211.100      6.000
       178.    206.900      7.100
       180.    202.400      6.900
       182.    209.700      5.600
       184.    199.600      6.000
       186.    215.600      6.000
       188.    208.500      5.800
       190.    209.200      5.200
       192.    210.300      4.900
       194.    202.400      5.000
       196.    203.400      4.900
       198.    202.100      5.200
       200.    203.200      4.800
       202.    205.100      4.800
       204.    204.900      4.700
       206.    209.600      5.900
       208.    207.900      4.500
       210.    202.800      5.100
       212.    211.500      5.900
       214.    216.800      5.900
       216.    215.300      6.000
       218.    216.300      6.400
       220.    206.000      6.500
       222.    212.800      7.300
       224.    215.700     11.300
       226.    227.800     15.000
       228.      0.000      0.000
       230.      0.000      0.000
       232.      0.000      0.000
       234.      0.000      0.000
       236.      0.000      0.000
       238.      0.000      0.000
       240.      0.000      0.000
       242.      0.000      0.000
       244.      0.000      0.000
       246.      0.000      0.000
       248.      0.000      0.000
       250.      0.000      0.000
       252.      0.000      0.000
       254.      0.000      0.000
       256.      0.000      0.000
       258.      0.000      0.000
       260.      0.000      0.000
       262.      0.000      0.000
       264.      0.000      0.000
       266.      0.000      0.000
       268.      0.000      0.000
       270.      0.000      0.000
       272.      0.000      0.000
       274.      0.000      0.000
       276.      0.000      0.000
       278.      0.000      0.000
       280.      0.000      0.000
       282.      0.000      0.000
       284.      0.000      0.000
       286.      0.000      0.000
ENDDATA            146
ENDSUBENT          161
SUBENT        E2411033   20140325   20140331   20140325       E086
BIB                  3          6
REACTION   (92-U-238(20-CA-40,F)MASS,PRE,KE,LF+HF,MSC)
           The data cover the detection angle of fission
           fragments between 65 and 115 degress.
ERR-ANALYS (DATA-ERR) No information on source of uncertainties
STATUS     (TABLE) Plotted in Fig.3 of Phys. Rev. C 86, 034608
                   (2012)
ENDBIB               6
COMMON               1          3
EN-CM
MEV
 180.0
ENDCOMMON            3
DATA                 3        144
MASS       DATA       DATA-ERR
NO-DIM     MEV        MEV
         0.      0.000      0.000
         2.      0.000      0.000
         4.      0.000      0.000
         6.      0.000      0.000
         8.      0.000      0.000
        10.      0.000      0.000
        12.      0.000      0.000
        14.      0.000      0.000
        16.      0.000      0.000
        18.      0.000      0.000
        20.      0.000      0.000
        22.      0.000      0.000
        24.      0.000      0.000
        26.      0.000      0.000
        28.      0.000      0.000
        30.      0.000      0.000
        32.      0.000      0.000
        34.      0.000      0.000
        36.      0.000      0.000
        38.      0.000      0.000
        40.      0.000      0.000
        42.      0.000      0.000
        44.      0.000      0.000
        46.      0.000      0.000
        48.      0.000      0.000
        50.    219.900     15.000
        52.    224.500      8.300
        54.    209.100      9.500
        56.    215.900      6.700
        58.    219.500      7.800
        60.    220.800      7.700
        62.    198.300      5.900
        64.    205.400      5.400
        66.    212.900      5.700
        68.    207.000      5.500
        70.    202.800      4.700
        72.    205.200      5.300
        74.    199.600      5.100
        76.    199.900      5.200
        78.    207.600      5.100
        80.    201.800      5.800
        82.    203.900      5.400
        84.    198.700      4.900
        86.    204.000      6.100
        88.    208.200      5.100
        90.    203.800      6.900
        92.    209.100      5.400
        94.    202.400      6.400
        96.    206.900      6.200
        98.    213.800      6.300
       100.    203.200      6.900
       102.    196.500      7.800
       104.    201.700      7.800
       106.    212.600      6.700
       108.    218.500      8.600
       110.    213.100      8.400
       112.    221.800      9.000
       114.    204.600     10.600
       116.    207.700     10.000
       118.    237.100     13.400
       120.    212.100     11.300
       122.    226.600      9.400
       124.    230.600      9.500
       126.    226.500     11.400
       128.    224.200     11.300
       130.    219.500      8.000
       132.    211.800     17.300
       134.    219.000     11.300
       136.    223.600     10.600
       138.    217.000     13.400
       140.    217.000     13.400
       142.    223.600     10.600
       144.    219.000     11.300
       146.    211.800     17.300
       148.    219.500      8.000
       150.    224.200     11.300
       152.    226.500     11.400
       154.    230.600      9.500
       156.    226.600      9.400
       158.    212.100     11.300
       160.    237.100     13.400
       162.    207.700     10.000
       164.    204.600     10.600
       166.    221.800      9.000
       168.    213.100      8.400
       170.    218.500      8.600
       172.    212.600      6.700
       174.    201.700      7.800
       176.    196.500      7.800
       178.    203.200      6.900
       180.    213.800      6.300
       182.    206.900      6.200
       184.    202.400      6.400
       186.    209.100      5.400
       188.    203.800      6.900
       190.    208.200      5.100
       192.    204.000      6.100
       194.    198.700      4.900
       196.    203.900      5.400
       198.    201.800      5.800
       200.    207.600      5.100
       202.    199.900      5.200
       204.    199.600      5.100
       206.    205.200      5.300
       208.    202.800      4.700
       210.    207.000      5.500
       212.    212.900      5.700
       214.    205.400      5.400
       216.    198.300      5.900
       218.    220.800      7.700
       220.    219.500      7.800
       222.    215.900      6.700
       224.    209.100      9.500
       226.    224.500      8.300
       228.    219.900     15.000
       230.      0.000      0.000
       232.      0.000      0.000
       234.      0.000      0.000
       236.      0.000      0.000
       238.      0.000      0.000
       240.      0.000      0.000
       242.      0.000      0.000
       244.      0.000      0.000
       246.      0.000      0.000
       248.      0.000      0.000
       250.      0.000      0.000
       252.      0.000      0.000
       254.      0.000      0.000
       256.      0.000      0.000
       258.      0.000      0.000
       260.      0.000      0.000
       262.      0.000      0.000
       264.      0.000      0.000
       266.      0.000      0.000
       268.      0.000      0.000
       270.      0.000      0.000
       272.      0.000      0.000
       274.      0.000      0.000
       276.      0.000      0.000
       278.      0.000      0.000
       280.      0.000      0.000
       282.      0.000      0.000
       284.      0.000      0.000
       286.      0.000      0.000
ENDDATA            146
ENDSUBENT          161
ENDENTRY            33
