ENTRY            E2441   20140325   20140604   20140325       E089
SUBENT        E2441001   20140325   20140604   20140325       E089
BIB                 10         33
TITLE      Testing the mutually enhanced magicity effect in
           nuclear incompressibility via the giant monopole
           resonance in the 204,206,208Pb isotopes
AUTHOR     (D.Patel, U.Garg, M.Fujiwara, T.Adachi, H.Akimune,
            G.P.A.Berg, M.N.Harakeh, M.Itoh, C.Iwamoto, A.Long,
            J.T.Matta, T.Murakami, A.Okamoto, K.Sault, R.Talwar,
            M.Uchida, M.Yosoi)
INSTITUTE  (1USANOT) Department of Physics
           (1USANOT) Joint Institute for Nuclear Astrophysics
           (2JPNOSA) Research Center for Nuclear Physics
           (2NEDKVI)
           (2JPNKON) Department of Physics
           (2FR GAN)
           (2JPNTOH) Cyclotron and Radioisotope Center
           (2JPNKTO) Division of Physics and Astronomy
           (2JPNTIT) Department of Physics
REFERENCE  (J,PL/B,726,178,2013)
PART-DET   (A)
SAMPLE     - Chemical-form of target is element.
           - Physical-form of target is solid.
           - Target-thickness is 4.92 to 5.82 mg/cm2.
           - Target is self supported.
FACILITY   (CYCLO,2JPNOSA) ring cyclotron facility at Research
                           Center for Nuclear Physics
DETECTOR   (MAGSP,MWDC,SCIN) Momentum of scattered alpha
                             particles was analyzed by the
                             high-resolution magnetic
                             spectrometer, Grand Raiden.
STATUS     (TABLE) Plotted in Fig.1 of Phys. Lett. B 726 (2013)
                   178
HISTORY    (20131008C) MA
           (20131008R) Received by e-mail from D.Patel
           (20140325A) MA: SF5(REACTION) corrected: INC -> ICL
ENDBIB              33
COMMON               2          3
EN         ANG
MEV/A      ADEG
 100.       0.7
ENDCOMMON            3
ENDSUBENT           40
SUBENT        E2441002   20140325   20140604   20140325       E089
BIB                  3          4
REACTION   (82-PB-208(A,INL)82-PB-208,ICL,DA/DE,A/RSD)
EN-SEC     ANG is an average angle
           (E-EXC,82-PB-208)
SAMPLE     (82-PB-208,ENR=0.997)
ENDBIB               4
NOCOMMON             0          0
DATA                 2        200
E-EXC      DATA
MEV        MB/SR/MEV
     0.2000     0.0000
     0.4000     0.0000
     0.6000     0.0000
     0.8000     0.0000
     1.0000     0.0000
     1.2000     0.0000
     1.4000     0.0000
     1.6000     0.0000
     1.8000     0.0000
     2.0000     0.0000
     2.2000     0.0000
     2.4000     0.0000
     2.6000     0.0000
     2.8000     0.0000
     3.0000     0.0000
     3.2000     0.0000
     3.4000     0.0000
     3.6000     0.0000
     3.8000     0.0000
     4.0000     0.0000
     4.2000     0.0000
     4.4000     0.0000
     4.6000     0.0000
     4.8000     0.0000
     5.0000     0.0000
     5.2000     0.0000
     5.4000     0.0000
     5.6000     0.0000
     5.8000     0.0000
     6.0000     0.0000
     6.2000     0.0000
     6.4000     0.0000
     6.6000    -0.0160
     6.8000     0.0320
     7.0000     0.1135
     7.2000     0.2760
     7.4000     7.8320
     7.6000    24.5535
     7.8000    32.6465
     8.0000    38.5285
     8.2000    46.4910
     8.4000    50.3910
     8.6000    55.5910
     8.8000    72.0200
     9.0000    87.8310
     9.2000    92.4300
     9.4000   102.5860
     9.6000    98.6535
     9.8000   105.6570
    10.0000   124.2310
    10.2000   122.8335
    10.4000   125.1900
    10.6000   131.2020
    10.8000   145.3075
    11.0000   155.3015
    11.2000   165.3435
    11.4000   168.1545
    11.6000   152.9450
    11.8000   158.1125
    12.0000   165.7175
    12.2000   163.6375
    12.4000   172.1195
    12.6000   171.1610
    12.8000   179.4650
    13.0000   196.0395
    13.2000   202.3285
    13.4000   202.5885
    13.6000   200.4435
    13.8000   203.9375
    14.0000   209.9010
    14.2000   195.7145
    14.4000   179.5460
    14.6000   164.1740
    14.8000   140.4000
    15.0000   135.3625
    15.2000   116.2525
    15.4000   102.7810
    15.6000    97.4670
    15.8000    81.7860
    16.0000    83.1510
    16.2000    79.9495
    16.4000    76.0335
    16.6000    72.0525
    16.8000    70.9640
    17.0000    72.0690
    17.2000    67.7295
    17.4000    68.6730
    17.6000    71.4190
    17.8000    64.2360
    18.0000    65.0485
    18.2000    67.3235
    18.4000    64.3175
    18.6000    67.3725
    18.8000    62.6110
    19.0000    62.1075
    19.2000    67.6810
    19.4000    62.8385
    19.6000    64.5285
    19.8000    65.9910
    20.0000    64.1550
    20.2000    63.4075
    20.4000    67.4860
    20.6000    67.0145
    20.8000    66.2185
    21.0000    59.4585
    21.2000    67.5835
    21.4000    65.3575
    21.6000    64.1545
    21.8000    65.3410
    22.0000    55.8835
    22.2000    63.8785
    22.4000    61.9125
    22.6000    61.1160
    22.8000    59.1500
    23.0000    56.2575
    23.2000    55.4775
    23.4000    57.0695
    23.6000    51.2360
    23.8000    53.9010
    24.0000    49.8385
    24.2000    48.0185
    24.4000    49.7575
    24.6000    50.1960
    24.8000    49.2860
    25.0000    43.3550
    25.2000    43.2575
    25.4000    45.6135
    25.6000    44.8500
    25.8000    43.2575
    26.0000    44.7035
    26.2000    38.5285
    26.4000    44.2645
    26.6000    41.3400
    26.8000    36.5460
    27.0000    40.8200
    27.2000    38.0575
    27.4000    41.4375
    27.6000    43.4685
    27.8000    41.7460
    28.0000    36.8875
    28.2000    39.0160
    28.4000    38.9835
    28.6000    38.6910
    28.8000    36.6435
    29.0000    34.6450
    29.2000    36.7085
    29.4000    35.2625
    29.6000    36.9035
    29.8000    37.0825
    30.0000    36.4485
    30.2000    33.3610
    30.4000    35.3440
    30.6000    35.9770
    30.8000    33.7185
    31.0000    35.3595
    31.2000    29.7370
    31.4000    32.9875
    31.6000    33.8485
    31.8000    29.7050
    32.0000    32.0940
    32.2000    32.3700
    32.4000    31.1025
    32.6000    28.9570
    32.8000    29.5585
    33.0000    29.3310
    33.2000    30.1435
    33.4000    29.8995
    33.6000    27.6250
    33.8000    29.5420
    34.0000    34.0595
    34.2000    25.8210
    34.4000    26.2765
    34.6000    24.4885
    34.8000    26.7635
    35.0000    26.6495
    35.2000    26.7635
    35.4000    24.5375
    35.6000    27.7545
    35.8000    21.5310
    36.0000     8.0110
    36.2000     0.0650
    36.4000     0.0490
    36.6000    -0.0650
    36.8000    -0.0160
    37.0000    -0.0160
    37.2000     0.0000
    37.4000     0.0000
    37.6000     0.0000
    37.8000     0.0000
    38.0000     0.0000
    38.2000     0.0000
    38.4000     0.0000
    38.6000     0.0000
    38.8000     0.0000
    39.0000     0.0000
    39.2000     0.0000
    39.4000     0.0000
    39.6000     0.0000
    39.8000     0.0000
    40.0000     0.0000
ENDDATA            202
ENDSUBENT          211
SUBENT        E2441003   20140325   20140604   20140325       E089
BIB                  3          4
REACTION   (82-PB-206(A,INL)82-PB-206,ICL,DA/DE,A/RSD)
EN-SEC     ANG is an average angle
           (E-EXC,82-PB-206)
SAMPLE     (82-PB-206,ENR=0.9976)
ENDBIB               4
NOCOMMON             0          0
DATA                 2        200
E-EXC      DATA
MEV        MB/SR/MEV
     0.2000     0.0000
     0.4000     0.0000
     0.6000     0.0000
     0.8000     0.0000
     1.0000     0.0000
     1.2000     0.0000
     1.4000     0.0000
     1.6000     0.0000
     1.8000     0.0000
     2.0000     0.0000
     2.2000     0.0000
     2.4000     0.0000
     2.6000     0.0000
     2.8000     0.0000
     3.0000     0.0000
     3.2000     0.0000
     3.4000     0.0000
     3.6000     0.0000
     3.8000     0.0000
     4.0000     0.0000
     4.2000     0.0000
     4.4000     0.0000
     4.6000     0.0000
     4.8000     0.0000
     5.0000     0.0000
     5.2000     0.0000
     5.4000     0.0000
     5.6000     0.0000
     5.8000     0.0000
     6.0000     0.0000
     6.2000     0.0000
     6.4000     0.0000
     6.6000     0.0145
     6.8000    -0.0145
     7.0000     0.0285
     7.2000     0.0430
     7.4000     0.0430
     7.6000     3.7060
     7.8000    14.8250
     8.0000    20.7860
     8.2000    28.3850
     8.4000    34.0020
     8.6000    38.4985
     8.8000    49.7030
     9.0000    65.8925
     9.2000    67.2140
     9.4000    73.1900
     9.6000    74.1525
     9.8000    87.2100
    10.0000    97.8835
    10.2000    98.6875
    10.4000   111.6445
    10.6000   107.7520
    10.8000   120.1630
    11.0000   128.8110
    11.2000   129.4145
    11.4000   131.7415
    11.6000   130.8075
    11.8000   133.0345
    12.0000   146.5805
    12.2000   143.1185
    12.4000   149.3100
    12.6000   146.2070
    12.8000   154.4815
    13.0000   171.9920
    13.2000   177.9105
    13.4000   182.1480
    13.6000   182.3640
    13.8000   180.5395
    14.0000   188.0665
    14.2000   175.1235
    14.4000   156.6650
    14.6000   145.6180
    14.8000   118.4965
    15.0000   117.0025
    15.2000   104.4480
    15.4000    93.1570
    15.6000    82.9865
    15.8000    73.7070
    16.0000    73.0030
    16.2000    68.5930
    16.4000    62.4730
    16.6000    63.8095
    16.8000    61.1805
    17.0000    59.3560
    17.2000    63.1770
    17.4000    62.0855
    17.6000    59.0255
    17.8000    55.1185
    18.0000    60.2040
    18.2000    59.2555
    18.4000    63.4075
    18.6000    61.9705
    18.8000    57.4315
    19.0000    59.4565
    19.2000    62.1720
    19.4000    61.4535
    19.6000    59.9740
    19.8000    58.3505
    20.0000    54.6730
    20.2000    59.8735
    20.4000    58.9540
    20.6000    62.6600
    20.8000    59.9165
    21.0000    55.5925
    21.2000    61.5680
    21.4000    61.7695
    21.6000    61.4965
    21.8000    61.6975
    22.0000    54.1990
    22.2000    58.1350
    22.4000    57.1585
    22.6000    57.7760
    22.8000    56.0520
    23.0000    54.4580
    23.2000    53.4375
    23.4000    52.1020
    23.6000    49.5020
    23.8000    51.8865
    24.0000    47.7780
    24.2000    46.0110
    24.4000    45.4505
    24.6000    48.9130
    24.8000    45.1060
    25.0000    44.0575
    25.2000    43.8280
    25.4000    43.0665
    25.6000    42.9085
    25.8000    39.6905
    26.0000    41.3425
    26.2000    38.1965
    26.4000    37.9525
    26.6000    39.5900
    26.8000    40.8255
    27.0000    38.1825
    27.2000    36.2430
    27.4000    38.7570
    27.6000    37.2055
    27.8000    35.4095
    28.0000    37.8520
    28.2000    38.9005
    28.4000    37.7515
    28.6000    36.5735
    28.8000    36.5735
    29.0000    34.8925
    29.2000    35.4385
    29.4000    30.4680
    29.6000    32.1920
    29.8000    31.0860
    30.0000    33.3700
    30.2000    36.0275
    30.4000    33.4130
    30.6000    32.6660
    30.8000    31.0860
    31.0000    29.4485
    31.2000    31.1865
    31.4000    30.1665
    31.6000    32.1490
    31.8000    28.8160
    32.0000    28.5145
    32.2000    31.8185
    32.4000    27.2360
    32.6000    29.7210
    32.8000    30.6980
    33.0000    29.9220
    33.2000    30.4680
    33.4000    28.4140
    33.6000    25.3540
    33.8000    27.7965
    34.0000    29.3765
    34.2000    25.6130
    34.4000    29.7930
    34.6000    25.7710
    34.8000    27.2935
    35.0000    24.2340
    35.2000    30.0370
    35.4000    24.8080
    35.6000    26.1300
    35.8000    19.5510
    36.0000     3.9075
    36.2000    -0.0145
    36.4000     0.0145
    36.6000     0.0285
    36.8000     0.0000
    37.0000    -0.0145
    37.2000     0.0000
    37.4000     0.0000
    37.6000     0.0000
    37.8000     0.0000
    38.0000     0.0000
    38.2000     0.0000
    38.4000     0.0000
    38.6000     0.0000
    38.8000     0.0000
    39.0000     0.0000
    39.2000     0.0000
    39.4000     0.0000
    39.6000     0.0000
    39.8000     0.0000
    40.0000     0.0000
ENDDATA            202
ENDSUBENT          211
SUBENT        E2441004   20140325   20140604   20140325       E089
BIB                  3          4
REACTION   (82-PB-204(A,INL)82-PB-204,ICL,DA/DE,A/RSD)
EN-SEC     ANG is an average angle
           (E-EXC,82-PB-204)
SAMPLE     (82-PB-204,ENR=0.9994)
ENDBIB               4
NOCOMMON             0          0
DATA                 2        200
E-EXC      DATA
MEV        MB/SR/MEV
     0.2000     0.0000
     0.4000     0.0000
     0.6000     0.0000
     0.8000     0.0000
     1.0000     0.0000
     1.2000     0.0000
     1.4000     0.0000
     1.6000     0.0000
     1.8000     0.0000
     2.0000     0.0000
     2.2000     0.0000
     2.4000     0.0000
     2.6000     0.0000
     2.8000     0.0000
     3.0000     0.0000
     3.2000     0.0000
     3.4000     0.0000
     3.6000     0.0000
     3.8000     0.0000
     4.0000     0.0000
     4.2000     0.0000
     4.4000     0.0000
     4.6000     0.0000
     4.8000     0.0000
     5.0000     0.0000
     5.2000     0.0000
     5.4000     0.0000
     5.6000     0.0000
     5.8000     0.0000
     6.0000     0.0000
     6.2000     0.0000
     6.4000    -0.0170
     6.6000    -0.0170
     6.8000     0.1355
     7.0000     0.2370
     7.2000     4.1650
     7.4000    11.6645
     7.6000    16.3035
     7.8000    30.1185
     8.0000    39.0915
     8.2000    44.1030
     8.4000    51.9925
     8.6000    50.6205
     8.8000    62.4545
     9.0000    73.6285
     9.2000    81.8055
     9.4000    88.2395
     9.6000    86.1735
     9.8000    94.8415
    10.0000   101.9695
    10.2000   113.2280
    10.4000   120.7280
    10.6000   126.3315
    10.8000   130.0735
    11.0000   142.3645
    11.2000   148.1375
    11.4000   155.2990
    11.6000   150.7275
    11.8000   156.4500
    12.0000   166.4895
    12.2000   169.1985
    12.4000   169.8245
    12.6000   176.6645
    12.8000   176.6810
    13.0000   205.5980
    13.2000   212.9115
    13.4000   213.3350
    13.6000   220.7840
    13.8000   220.3775
    14.0000   219.7175
    14.2000   211.3880
    14.4000   199.6385
    14.6000   179.2545
    14.8000   148.7470
    15.0000   145.4460
    15.2000   128.9730
    15.4000   115.8350
    15.6000   106.3710
    15.8000    87.9855
    16.0000    90.2710
    16.2000    85.2425
    16.4000    76.2700
    16.6000    80.8575
    16.8000    74.1875
    17.0000    71.9355
    17.2000    73.2225
    17.4000    70.0220
    17.6000    69.3620
    17.8000    69.4805
    18.0000    66.9580
    18.2000    67.6350
    18.4000    68.6175
    18.6000    69.3625
    18.8000    69.1760
    19.0000    65.0960
    19.2000    67.0260
    19.4000    70.8525
    19.6000    70.1240
    19.8000    71.0045
    20.0000    63.4875
    20.2000    67.7875
    20.4000    69.3115
    20.6000    69.8530
    20.8000    69.5480
    21.0000    68.0420
    21.2000    70.7675
    21.4000    69.2775
    21.6000    70.0390
    21.8000    68.5495
    22.0000    62.6410
    22.2000    68.1265
    22.4000    68.1090
    22.6000    61.5405
    22.8000    61.4730
    23.0000    53.3125
    23.2000    60.5420
    23.4000    59.7460
    23.6000    59.7460
    23.8000    58.7470
    24.0000    51.9580
    24.2000    54.0915
    24.4000    54.7685
    24.6000    54.5820
    24.8000    53.7020
    25.0000    49.3000
    25.2000    46.3205
    25.4000    51.9750
    25.6000    46.6760
    25.8000    47.6580
    26.0000    50.5530
    26.2000    40.2765
    26.4000    43.0700
    26.6000    42.8495
    26.8000    46.2865
    27.0000    45.6430
    27.2000    39.6165
    27.4000    42.9515
    27.6000    44.9155
    27.8000    43.8825
    28.0000    43.5440
    28.2000    41.1400
    28.4000    40.6660
    28.6000    42.6300
    28.8000    40.4455
    29.0000    39.8020
    29.2000    41.4615
    29.4000    37.5340
    29.6000    37.5340
    29.8000    41.7830
    30.0000    43.1715
    30.2000    39.9890
    30.4000    35.0620
    30.6000    38.3295
    30.8000    39.0915
    31.0000    38.8205
    31.2000    34.4525
    31.4000    35.8240
    31.6000    33.5720
    31.8000    31.8620
    32.0000    36.0100
    32.2000    37.4155
    32.4000    34.4020
    32.6000    33.2505
    32.8000    39.0070
    33.0000    33.3690
    33.2000    36.3150
    33.4000    31.9980
    33.6000    30.2200
    33.8000    33.5555
    34.0000    33.0135
    34.2000    30.9310
    34.4000    34.7915
    34.6000    32.7935
    34.8000    28.2900
    35.0000    29.4240
    35.2000    35.2145
    35.4000    31.3710
    35.6000    27.4100
    35.8000    14.4750
    36.0000     1.7265
    36.2000     0.0170
    36.4000     0.0340
    36.6000     0.0340
    36.8000     0.0000
    37.0000     0.0000
    37.2000     0.0000
    37.4000     0.0000
    37.6000     0.0000
    37.8000     0.0000
    38.0000     0.0000
    38.2000     0.0000
    38.4000     0.0000
    38.6000     0.0000
    38.8000     0.0000
    39.0000     0.0000
    39.2000     0.0000
    39.4000     0.0000
    39.6000     0.0000
    39.8000     0.0000
    40.0000     0.0000
ENDDATA            202
ENDSUBENT          211
ENDENTRY             4
