ENTRY            D0307   20060213   20060601                  D045
SUBENT        D0307001   20060213   20060601                  D045
BIB                  5          7
TITLE      Energy Dependence of the Optical Model Parameters for
           alpha-Particles Scattered from 40Ca and 58Ni
AUTHOR     (H.H.Chang,B.W.Ridley,T.H.Braid,T.W.Conlon,E.F.Gibson,
           N.S.P.King)
INSTITUTE  (2UK HAR,1USACLU,1USAANL,1USACFN,1USADAV)
REFERENCE  (J,NP/A,270,413,1976)
HISTORY    (20060213C) SD
ENDBIB               7
NOCOMMON             0          0
ENDSUBENT           10
SUBENT        D0307002   20060213   20060601                  D045
BIB                  6         11
REACTION   (28-NI-58(A,EL)28-NI-58,,DA,,RTH)
FACILITY   (SYNCY,2UK HAR)
SAMPLE     Approximate target thicknesses were 0.5 mg/cm2 for 58Ni
DETECTOR   (SILI) a 3 mm thick Si(Li) detecter.
ERR-ANALYS (DATA-ERR) Error in normalization. Absolute cross
           sections accurate to within 10 % were obtained by
           comparing cross sections to optical model calculations
           at small angles.
           (ANG-ERR-D)  Digitizing error
           (ERR-DIG)    Digitizing error
STATUS     (CURVE)Curve from fig.5 digitized by compiler
ENDBIB              11
COMMON               3          3
DATA-ERR   ANG-ERR-D  ERR-DIG
PER-CENT   ADEG       PER-CENT
  10.0       0.5        0.1
ENDCOMMON            3
DATA                 3         83
EN         ANG-CM     DATA-CM
MEV        ADEG       NO-DIM
 24.700     8.7727     1.0032
 24.700     10.793     1.0392
 24.700     12.833     1.1190
 24.700     15.178     1.1363
 24.700     17.139     1.0480
 24.700     19.414    0.92942
 24.700     21.326    0.77819
 24.700     23.650    0.76022
 24.700     25.945    0.70078
 24.700     27.896    0.63398
 24.700     30.073    0.46331
 24.700     32.279    0.35883
 24.700     34.534    0.30614
 24.700     36.545    0.31105
 24.700     38.565    0.32221
 24.700     40.556    0.31495
 24.700     42.409    0.23480
 24.700     44.556    0.16192
 24.700     46.418    0.12307
 24.700     48.723    0.11566
 24.700     50.803    0.13456
 24.700     52.892    0.15961
 24.700     55.246    0.16525
 24.700     57.079    0.11852
 24.700     59.206    0.78626E-01
 24.700     61.323    0.51162E-01
 24.700     63.275    0.46284E-01
 24.700     65.364    0.54900E-01
 24.700     67.847    0.73095E-01
 24.700     69.798    0.66127E-01
 24.700     71.759    0.60992E-01
 24.700     73.513    0.37470E-01
 24.700     75.826    0.18585E-01
 24.700     77.834    0.97747E-02
 24.700     79.857    0.19561E-01
 24.700     81.791    0.32889E-01
 24.700     83.979    0.47340E-01
 24.700     85.930    0.42827E-01
 24.700     88.225    0.39478E-01
 24.700     90.029    0.26717E-01
 24.700     92.077    0.15183E-01
 24.700     94.192    0.51139E-02
 24.700     96.032    0.19357E-02
 24.700     97.820    0.47033E-02
 24.700     99.500    0.92371E-02
 24.700     101.96    0.22857E-01
 24.700     103.75    0.28748E-01
 24.700     106.08    0.28633E-01
 24.700     108.10    0.15354E-01
 24.700     110.00    0.12609E-01
 24.700     112.18    0.92148E-02
 24.700     113.52    0.48520E-02
 39.500     8.6797    0.89612
 39.500     10.710    0.94601
 39.500     13.145    0.59445
 39.500     14.991    0.43594
 39.500     17.668    0.44241
 39.500     19.306    0.41652
 39.500     21.369    0.24254
 39.500     23.688    0.12108
 39.500     25.796    0.14901
 39.500     27.676    0.22657
 39.500     29.991    0.21720
 39.500     32.232    0.93012E-01
 39.500     34.135    0.20360E-01
 39.500     36.069    0.66693E-01
 39.500     38.409    0.13004
 39.500     40.096    0.13474
 39.500     42.680    0.58787E-01
 39.500     44.290    0.52253E-01
 39.500     46.700    0.16143E-01
 39.500     48.722    0.62839E-01
 39.500     50.868    0.83499E-01
 39.500     52.950    0.50523E-01
 39.500     54.901    0.12172E-01
 39.500     57.210    0.59612E-02
 39.500     59.358    0.29773E-01
 39.500     61.335    0.54837E-01
 39.500     63.326    0.53616E-01
 39.500     65.477    0.37101E-01
 39.500     67.592    0.12383E-01
 39.500     69.496    0.10188E-01
 39.500     71.541    0.21461E-01
ENDDATA             85
ENDSUBENT          105
SUBENT        D0307003   20060213   20060601                  D045
BIB                  6         11
REACTION   (28-NI-58(A,EL)28-NI-58,,DA,,RTH)
FACILITY   (SYNCY,2UK HAR)
SAMPLE     Approximate target thicknesses was 0.5 mg/cm2 for 58Ni.
DETECTOR   (SILI) a 3 mm thick Si(Li) detecter.
ERR-ANALYS (DATA-ERR) Error in normalization. Absolute cross
           sections accurate to within 10 % were obtained by
           comparing cross sections to optical model calculations
           at small angles.
           (ANG-ERR-D)  Digitizing error
           (ERR-DIG)    Digitizing error
STATUS     (CURVE)Curve from fig.5 digitized by Dr. A.Ingemarsson
ENDBIB              11
COMMON               3          3
DATA-ERR   ANG-ERR-D  ERR-DIG
PER-CENT   ADEG       PER-CENT
  10.0       0.5        0.1
ENDCOMMON            3
DATA                 3        219
EN         ANG-CM     DATA-CM
MEV        ADEG       NO-DIM
   52.4      8.677E+00  7.741E-01
   52.4      9.613E+00  5.360E-01
   52.4      1.055E+01  4.616E-01
   52.4      1.195E+01  3.068E-01
   52.4      1.382E+01  3.424E-01
   52.4      1.546E+01  4.260E-01
   52.4      1.709E+01  3.032E-01
   52.4      1.780E+01  2.187E-01
   52.4      1.897E+01  9.925E-02
   52.4      2.013E+01  6.688E-02
   52.4      2.107E+01  9.932E-02
   52.4      2.224E+01  1.558E-01
   52.4      2.411E+01  2.221E-01
   52.4      2.551E+01  1.739E-01
   52.4      2.645E+01  1.036E-01
   52.4      2.762E+01  4.049E-02
   52.4      2.879E+01  1.362E-02
   52.4      2.995E+01  2.693E-02
   52.4      3.066E+01  6.802E-02
   52.4      3.182E+01  1.158E-01
   52.4      3.323E+01  1.421E-01
   52.4      3.416E+01  1.240E-01
   52.4      3.510E+01  9.319E-02
   52.4      3.603E+01  4.913E-02
   52.4      3.697E+01  1.384E-02
   52.4      3.767E+01  2.355E-03
   52.4      3.907E+01  1.895E-02
   52.4      4.024E+01  5.412E-02
   52.4      4.094E+01  8.372E-02
   52.4      4.281E+01  1.028E-01
   52.4      4.445E+01  7.723E-02
   52.4      4.562E+01  4.996E-02
   52.4      4.632E+01  2.330E-02
   52.4      4.843E+01  1.636E-02
   52.4      5.076E+01  4.366E-02
   52.4      5.287E+01  6.142E-02
   52.4      5.497E+01  4.943E-02
   52.4      5.708E+01  2.370E-02
   52.4      5.871E+01  1.200E-02
   52.4      6.129E+01  1.376E-02
   52.4      6.316E+01  3.248E-02
   52.4      6.526E+01  2.760E-02
   52.4      6.690E+01  1.397E-02
   52.4      6.923E+01  1.140E-02
   52.4      7.111E+01  1.498E-02
   52.4      7.344E+01  2.195E-02
   52.4      7.555E+01  2.320E-02
   52.4      7.672E+01  1.892E-02
   52.4      7.976E+01  1.972E-02
   52.4      8.093E+01  1.565E-02
   52.4      8.350E+01  2.085E-02
   52.4      9.075E+01  1.447E-02
   52.4      9.332E+01  1.118E-02
   58.9      8.073E+00  5.648E-01
   58.9      1.049E+01  2.708E-01
   58.9      1.209E+01  3.590E-01
   58.9      1.372E+01  3.842E-01
   58.9      1.538E+01  3.146E-01
   58.9      1.662E+01  1.612E-01
   58.9      1.762E+01  8.711E-02
   58.9      1.905E+01  6.581E-02
   58.9      1.946E+01  1.124E-01
   58.9      2.081E+01  1.847E-01
   58.9      2.243E+01  2.320E-01
   58.9      2.387E+01  1.575E-01
   58.9      2.491E+01  5.547E-02
   58.9      2.598E+01  1.455E-02
   58.9      2.689E+01  1.803E-02
   58.9      2.818E+01  5.556E-02
   58.9      2.927E+01  1.225E-01
   58.9      3.065E+01  1.623E-01
   58.9      3.278E+01  1.211E-01
   58.9      3.357E+01  5.006E-02
   58.9      3.462E+01  1.627E-02
   58.9      3.563E+01  8.114E-03
   58.9      3.690E+01  3.015E-02
   58.9      3.798E+01  6.826E-02
   58.9      3.864E+01  1.020E-01
   58.9      3.980E+01  1.152E-01
   58.9      4.075E+01  1.021E-01
   58.9      4.196E+01  6.749E-02
   58.9      4.318E+01  3.953E-02
   58.9      4.396E+01  1.771E-02
   58.9      4.515E+01  1.571E-02
   58.9      4.602E+01  2.989E-02
   58.9      4.737E+01  4.908E-02
   58.9      4.852E+01  5.845E-02
   58.9      4.921E+01  6.684E-02
   58.9      5.064E+01  5.187E-02
   58.9      5.184E+01  3.815E-02
   58.9      5.282E+01  2.357E-02
   58.9      5.404E+01  1.437E-02
   58.9      5.588E+01  1.957E-02
   58.9      5.654E+01  2.887E-02
   58.9      5.814E+01  3.984E-02
   58.9      5.978E+01  4.151E-02
   58.9      6.120E+01  3.353E-02
   58.9      6.288E+01  2.157E-02
   58.9      6.522E+01  2.248E-02
   58.9      6.705E+01  3.408E-02
   58.9      6.890E+01  4.006E-02
   58.9      7.147E+01  4.176E-02
   58.9      7.360E+01  3.114E-02
   58.9      7.737E+01  2.485E-02
   58.9      7.945E+01  3.041E-02
   58.9      8.156E+01  2.772E-02
   58.9      8.368E+01  2.332E-02
   58.9      8.700E+01  1.584E-02
   58.9      8.723E+01  1.542E-02
   58.9      8.979E+01  1.789E-02
   58.9      9.190E+01  1.744E-02
   58.9      9.357E+01  1.266E-02
   67.7      8.168E+00  4.329E-01
   67.7      1.032E+01  2.568E-01
   67.7      1.219E+01  3.201E-01
   67.7      1.336E+01  3.776E-01
   67.7      1.360E+01  3.574E-01
   67.7      1.480E+01  2.791E-01
   67.7      1.578E+01  1.224E-01
   67.7      1.677E+01  5.008E-02
   67.7      1.816E+01  7.670E-02
   67.7      1.907E+01  1.546E-01
   67.7      2.070E+01  2.369E-01
   67.7      2.213E+01  1.703E-01
   67.7      2.335E+01  7.676E-02
   67.7      2.440E+01  1.075E-02
   67.7      2.532E+01  1.559E-02
   67.7      2.666E+01  7.370E-02
   67.7      2.757E+01  1.527E-01
   67.7      2.874E+01  1.753E-01
   67.7      2.945E+01  1.528E-01
   67.7      3.065E+01  1.054E-01
   67.7      3.188E+01  4.198E-02
   67.7      3.313E+01  1.107E-02
   67.7      3.380E+01  2.141E-02
   67.7      3.493E+01  5.605E-02
   67.7      3.655E+01  1.115E-01
   67.7      3.821E+01  9.455E-02
   67.7      3.917E+01  6.261E-02
   67.7      4.039E+01  2.940E-02
   67.7      4.160E+01  1.720E-02
   67.7      4.252E+01  2.426E-02
   67.7      4.345E+01  3.566E-02
   67.7      4.484E+01  5.770E-02
   67.7      4.577E+01  6.900E-02
   67.7      4.767E+01  5.694E-02
   67.7      4.935E+01  3.286E-02
   67.7      5.147E+01  3.473E-02
   67.7      5.357E+01  5.320E-02
   67.7      5.474E+01  6.190E-02
   67.7      5.712E+01  4.272E-02
   67.7      5.972E+01  3.882E-02
   67.7      6.231E+01  4.335E-02
   67.7      6.514E+01  4.645E-02
   67.7      6.774E+01  3.834E-02
   67.7      6.942E+01  2.094E-02
   67.7      7.130E+01  2.471E-02
   67.7      7.367E+01  2.154E-02
   67.7      7.558E+01  1.388E-02
   67.7      7.769E+01  1.803E-02
   67.7      8.177E+01  4.625E-03
   67.7      8.409E+01  9.328E-03
   67.7      8.578E+01  4.823E-03
   67.7      8.817E+01  2.494E-03
   85.6      8.532E+00  2.156E-01
   85.6      1.018E+01  2.402E-01
   85.6      1.112E+01  3.102E-01
   85.6      1.206E+01  4.344E-01
   85.6      1.323E+01  2.823E-01
   85.6      1.394E+01  1.739E-01
   85.6      1.488E+01  3.954E-02
   85.6      1.605E+01  5.107E-02
   85.6      1.746E+01  1.604E-01
   85.6      1.840E+01  3.021E-01
   85.6      1.957E+01  2.571E-01
   85.6      2.051E+01  1.562E-01
   85.6      2.145E+01  4.232E-02
   85.6      2.380E+01  5.541E-02
   85.6      2.474E+01  1.260E-01
   85.6      2.592E+01  1.812E-01
   85.6      2.733E+01  1.481E-01
   85.6      2.803E+01  8.190E-02
   85.6      2.897E+01  2.373E-02
   85.6      3.015E+01  1.863E-02
   85.6      3.109E+01  6.011E-02
   85.6      3.250E+01  1.385E-01
   85.6      3.391E+01  1.313E-01
   85.6      3.438E+01  1.073E-01
   85.6      3.555E+01  6.697E-02
   85.6      3.767E+01  4.295E-02
   85.6      3.837E+01  6.347E-02
   85.6      3.978E+01  9.131E-02
   85.6      4.142E+01  9.901E-02
   85.6      4.307E+01  8.539E-02
   85.6      4.424E+01  6.099E-02
   85.6      4.471E+01  4.659E-02
   85.6      4.706E+01  5.627E-02
   85.6      4.894E+01  5.860E-02
   85.6      5.082E+01  4.020E-02
   85.6      5.364E+01  2.410E-02
   85.6      5.576E+01  2.224E-02
   85.6      5.740E+01  1.567E-02
   85.6      5.975E+01  1.632E-02
   85.6      6.234E+01  1.770E-02
   85.6      6.398E+01  1.568E-02
   85.6      6.609E+01  1.972E-02
   85.6      6.938E+01  1.844E-02
   85.6      7.197E+01  2.026E-02
   85.6      7.361E+01  2.382E-02
   85.6      7.596E+01  2.726E-02
   85.6      7.808E+01  2.415E-02
   85.6      7.996E+01  2.001E-02
   85.6      8.207E+01  2.259E-02
   85.6      8.419E+01  2.655E-02
   85.6      8.607E+01  2.229E-02
   85.6      8.794E+01  1.949E-02
   85.6      9.076E+01  1.897E-02
   85.6      9.217E+01  1.750E-02
   85.6      9.382E+01  1.078E-02
ENDDATA            221
ENDSUBENT          241
SUBENT        D0307004   20060213   20060601                  D045
BIB                  6         11
REACTION   (20-CA-40(A,EL)20-CA-40,,DA,,RTH)
FACILITY   (SYNCY,2UK HAR)
SAMPLE     Approximate target thicknesses were 4 mg/cm2 for 40Ca.
DETECTOR   (SILI) a 3 mm thick Si(Li) detecter.
ERR-ANALYS (DATA-ERR) Error in normalization. Absolute cross
           sections accurate to within 10 % were obtained by
           comparing cross sections to optical model calculations
           at small angles.
           (ANG-ERR-D)  Digitizing error
           (ERR-DIG)    Digitizing error
STATUS     (CURVE)Curve from fig.5 digitized by compiler
ENDBIB              11
COMMON               3          3
DATA-ERR   ANG-ERR-D  ERR-DIG
PER-CENT   ADEG       PER-CENT
  10.0       0.5        0.1
ENDCOMMON            3
DATA                 3        319
EN         ANG-CM     DATA-CM
MEV        ADEG       NO-DIM
 24.400     8.3531    0.71735
 24.400     10.654    0.76103
 24.400     13.360    0.66974
 24.400     15.078    0.57774
 24.400     17.202    0.41342
 24.400     19.311    0.30713
 24.400     21.302    0.30790
 24.400     23.905    0.35220
 24.400     25.881    0.36656
 24.400     27.938    0.31047
 24.400     30.106    0.19855
 24.400     32.340    0.10728
 24.400     34.693    0.99826E-01
 24.400     36.956    0.11630
 24.400     39.471    0.16657
 24.400     40.835    0.15193
 24.400     43.276    0.11291
 24.400     45.149    0.65728E-01
 24.400     47.582    0.49773E-01
 24.400     49.440    0.69904E-01
 24.400     51.593    0.10786
 24.400     53.842    0.13046
 24.400     55.833    0.13079
 24.400     57.928    0.10087
 24.400     60.228    0.46046E-01
 24.400     62.116    0.11109E-01
 24.400     64.387    0.54657E-02
 24.400     66.378    0.29595E-01
 24.400     68.730    0.64000E-01
 24.400     70.854    0.10643
 24.400     73.103    0.12873
 24.400     75.109    0.12431
 24.400     76.834    0.10525
 24.400     78.987    0.69875E-01
 24.400     81.199    0.39936E-01
 24.400     83.198    0.16907E-01
 24.400     85.056    0.43965E-02
 24.400     87.460    0.35883E-02
 24.400     89.200    0.15805E-01
 24.400     91.280    0.29411E-01
 24.400     93.492    0.39065E-01
 24.400     95.438    0.43821E-01
 24.400     97.046    0.50064E-01
 24.400     100.38    0.48425E-01
 24.400     103.03    0.49505E-01
 24.400     104.97    0.55532E-01
 24.400     106.99    0.51652E-01
 24.400     109.01    0.48043E-01
 24.400     111.12    0.35691E-01
 24.400     113.01    0.20012E-01
 24.400     114.60    0.10213E-01
 24.400     116.76    0.15467E-01
 24.400     118.77    0.34710E-01
 24.400     120.59    0.53534E-01
 24.400     122.45    0.75187E-01
 24.400     124.39    0.85935E-01
 24.400     126.09    0.76960E-01
 24.400     128.16    0.63974E-01
 24.400     130.10    0.73119E-01
 24.400     131.70    0.83537E-01
 39.500     8.4393    0.75396
 39.500     10.842    0.61159
 39.500     12.718    0.34357
 39.500     15.156    0.25307
 39.500     17.370    0.33899
 39.500     19.318    0.38156
 39.500     21.548    0.20238
 39.500     23.756    0.46805E-01
 39.500     25.819    0.94016E-01
 39.500     28.458    0.23824
 39.500     30.730    0.27349
 39.500     32.577    0.16597
 39.500     34.599    0.26085E-01
 39.500     37.059    0.18133E-01
 39.500     39.048    0.10734
 39.500     41.169    0.18478
 39.500     43.312    0.12354
 39.500     45.434    0.36015E-01
 39.500     47.635    0.84916E-02
 39.500     49.530    0.64597E-01
 39.500     51.874    0.14858
 39.500     54.146    0.17056
 39.500     55.892    0.13560
 39.500     58.129    0.70546E-01
 39.500     60.301    0.43662E-01
 39.500     62.457    0.68248E-01
 39.500     64.563    0.12210
 39.500     66.496    0.14284
 39.500     68.530    0.12755
 39.500     70.702    0.78941E-01
 39.500     72.961    0.38760E-01
 39.500     75.060    0.29094E-01
 39.500     79.006    0.32202E-01
 39.500     81.350    0.30481E-01
 39.500     83.190    0.18857E-01
 39.500     85.340    0.12366E-01
 39.500     87.289    0.57281E-02
 39.500     89.431    0.93058E-02
 39.500     91.631    0.12956E-01
 39.500     93.693    0.26024E-01
 39.500     95.431    0.51254E-01
 52.400     8.4717    0.56048
 52.400     9.5729    0.42732
 52.400     10.719    0.28988
 52.400     11.904    0.17840
 52.400     12.861    0.19690
 52.400     14.045    0.28555
 52.400     15.923    0.38342
 52.400     17.303    0.33516
 52.400     18.442    0.23183
 52.400     19.423    0.10242
 52.400     20.510    0.34455E-01
 52.400     21.429    0.41917E-01
 52.400     22.711    0.11121
 52.400     23.796    0.20774
 52.400     25.704    0.25804
 52.400     27.137    0.19682
 52.400     28.382    0.10366
 52.400     29.491    0.32892E-01
 52.400     30.684    0.84247E-02
 52.400     31.814    0.32994E-01
 52.400     32.696    0.10426
 52.400     33.811    0.18015
 52.400     35.365    0.23713
 52.400     36.745    0.20728
 52.400     37.884    0.14338
 52.400     39.438    0.80089E-01
 52.400     40.019    0.42142E-01
 52.400     41.429    0.34078E-01
 52.400     42.568    0.55544E-01
 52.400     43.352    0.95937E-01
 52.400     44.543    0.13645
 52.400     46.172    0.14782
 52.400     47.597    0.11497
 52.400     48.714    0.84309E-01
 52.400     49.905    0.50886E-01
 52.400     51.082    0.31932E-01
 52.400     51.836    0.25301E-01
 52.400     53.360    0.36001E-01
 52.400     53.895    0.50171E-01
 52.400     55.116    0.66009E-01
 52.400     56.361    0.81920E-01
 52.400     58.367    0.79001E-01
 52.400     60.486    0.56890E-01
 52.400     62.575    0.44286E-01
 52.400     64.739    0.66863E-01
 52.400     66.594    0.95180E-01
 52.400     68.834    0.11828
 52.400     70.870    0.10552
 52.400     72.567    0.95943E-01
 52.400     74.233    0.94302E-01
 52.400     75.259    0.87352E-01
 52.400     78.215    0.94805E-01
 52.400     81.533    0.95226E-01
 52.400     83.524    0.95479E-01
 52.400     85.274    0.75753E-01
 52.400     87.393    0.54551E-01
 52.400     89.513    0.39283E-01
 52.400     91.602    0.30580E-01
 52.400     93.615    0.28922E-01
 58.900     9.1760    0.48012
 58.900     9.9855    0.34625
 58.900     11.953    0.17335
 58.900     13.432    0.26056
 58.900     14.639    0.34201
 58.900     17.840    0.21213
 58.900     19.762    0.26463E-01
 58.900     21.959    0.15674
 58.900     23.071    0.25436
 58.900     24.313    0.30908
 58.900     25.368    0.27045
 58.900     26.467    0.21490
 58.900     27.857    0.88630E-01
 58.900     28.380    0.27330E-01
 58.900     30.108    0.23481E-01
 58.900     30.912    0.76300E-01
 58.900     32.244    0.15918
 58.900     32.771    0.21694
 58.900     34.046    0.24404
 58.900     35.085    0.22194
 58.900     36.277    0.14264
 58.900     37.147    0.89877E-01
 58.900     38.240    0.34299E-01
 58.900     39.661    0.27798E-01
 58.900     40.680    0.55772E-01
 58.900     41.443    0.94019E-01
 58.900     42.650    0.12341
 58.900     43.577    0.14421
 58.900     44.624    0.12865
 58.900     46.045    0.10426
 58.900     46.949    0.60819E-01
 58.900     48.754    0.43927E-01
 58.900     50.302    0.56585E-01
 58.900     51.440    0.86664E-01
 58.900     52.341    0.10731
 58.900     53.582    0.13039
 58.900     55.913    0.12835
 58.900     57.710    0.94506E-01
 58.900     59.412    0.86033E-01
 58.900     61.028    0.94979E-01
 58.900     62.277    0.11321
 58.900     63.885    0.12741
 58.900     66.923    0.11400
 58.900     68.693    0.88942E-01
 58.900     70.787    0.70777E-01
 58.900     73.170    0.62055E-01
 58.900     75.195    0.57620E-01
 58.900     77.280    0.46745E-01
 58.900     79.731    0.35125E-01
 58.900     81.553    0.24409E-01
 58.900     83.750    0.15411E-01
 58.900     85.503    0.12496E-01
 58.900     87.843    0.12065E-01
 58.900     89.468    0.13066E-01
 58.900     91.790    0.13111E-01
 58.900     93.704    0.15643E-01
 58.900     95.755    0.13709E-01
 67.700     8.7073    0.40604
 67.700     9.6430    0.19476
 67.700     10.753    0.14307
 67.700     11.909    0.22804
 67.700     13.425    0.33654
 67.700     15.459    0.30040
 67.700     16.648    0.17835
 67.700     17.502    0.43431E-01
 67.700     18.552    0.15284E-01
 67.700     19.567    0.87437E-01
 67.700     20.897    0.21344
 67.700     22.406    0.32116
 67.700     24.158    0.25023
 67.700     25.397    0.12974
 67.700     26.223    0.34138E-01
 67.700     27.448    0.18399E-01
 67.700     28.613    0.70100E-01
 67.700     29.697    0.13560
 67.700     31.531    0.20810
 67.700     32.944    0.16524
 67.700     34.133    0.98108E-01
 67.700     34.851    0.34511E-01
 67.700     36.236    0.29609E-01
 67.700     36.974    0.59511E-01
 67.700     38.425    0.10454
 67.700     39.645    0.13999
 67.700     40.915    0.16371
 67.700     41.932    0.15467
 67.700     42.985    0.13265
 67.700     43.792    0.90143E-01
 67.700     45.466    0.86902E-01
 67.700     47.053    0.10568
 67.700     48.605    0.14158
 67.700     50.553    0.15941
 67.700     52.969    0.12431
 67.700     55.068    0.93219E-01
 67.700     57.758    0.84903E-01
 67.700     61.091    0.82021E-01
 67.700     63.218    0.56924E-01
 67.700     65.353    0.38749E-01
 67.700     73.763    0.28727E-01
 67.700     75.458    0.26132E-01
 67.700     77.674    0.35038E-01
 67.700     79.665    0.35126E-01
 67.700     81.873    0.48017E-01
 67.700     83.829    0.53029E-01
 67.700     85.848    0.49201E-01
 67.700     88.100    0.59883E-01
 67.700     90.134    0.53451E-01
 67.700     92.053    0.65029E-01
 67.700     93.987    0.76110E-01
 85.600     8.8380    0.98427E-01
 85.600     9.7154    0.13419
 85.600     11.094    0.27989
 85.600     12.252    0.43694
 85.600     13.306    0.37494
 85.600     14.073    0.28645
 85.600     15.313    0.63675E-01
 85.600     16.088    0.84011E-02
 85.600     17.857    0.85335E-01
 85.600     18.483    0.22416
 85.600     20.349    0.31196
 85.600     21.912    0.16856
 85.600     22.901    0.72198E-01
 85.600     24.273    0.27029E-01
 85.600     25.157    0.86144E-01
 85.600     26.499    0.19787
 85.600     27.369    0.27502
 85.600     28.741    0.24538
 85.600     29.560    0.16379
 85.600     31.035    0.11155
 85.600     31.772    0.92063E-01
 85.600     33.018    0.11402
 85.600     34.176    0.17800
 85.600     35.739    0.22922
 85.600     37.435    0.20859
 85.600     38.534    0.15943
 85.600     39.345    0.10849
 85.600     40.407    0.91317E-01
 85.600     42.347    0.10479
 85.600     44.286    0.12025
 85.600     45.709    0.93737E-01
 85.600     47.089    0.82038E-01
 85.600     48.527    0.61531E-01
 85.600     50.540    0.58221E-01
 85.600     52.383    0.85852E-01
 85.600     54.382    0.84429E-01
 85.600     56.668    0.93257E-01
 85.600     58.961    0.10104
 85.600     61.262    0.10738
 85.600     63.194    0.12562
 85.600     65.539    0.11892
 85.600     67.530    0.11922
 85.600     69.845    0.12191
 85.600     71.859    0.11535
 85.600     73.857    0.11344
 85.600     75.863    0.10943
 85.600     77.883    0.10156
 85.600     79.956    0.82358E-01
 85.600     81.667    0.72110E-01
 85.600     83.732    0.59613E-01
 85.600     85.789    0.50241E-01
ENDDATA            321
ENDSUBENT          341
SUBENT        D0307005   20060213   20060601                  D045
BIB                  7         13
REACTION   (28-NI-58(A,EL)28-NI-58,,DA)
FACILITY   (CYCLO,1USADAV) The 193 cm cyclotron of Crocker Lab.
METHOD     (TOF)
DETECTOR   (SILI) Up to four 3 mm thick silicon detectors cooled
           to dry ice temperature were used to detect the
           scattered particles.
           Two monitors were used on either side of the beam.
SAMPLE     Approximate target thickness was 4 mg/cm2 for 58Ni.
ERR-ANALYS (DATA-ERR) Error in normalization. Absolute
           normalization of the 82 MeV data was obtained by
           matching the cross sections to the optical model
           calculations at angles 40 degr.
STATUS     (TABLE) Data were recieved from Dr. A.Ingemarsson
ENDBIB              13
COMMON               1          3
EN
MEV
  82.0
ENDCOMMON            3
DATA                 3         99
ANG-CM     DATA-CM    DATA-ERR
ADEG       MB/SR      PER-CENT
    13.36    9.562E+02 10.0
    14.42    2.193E+02 10.0
    15.49    5.687E+01 10.0
    16.56    1.346E+02 10.0
    17.62    1.566E+02 10.0
    18.69    2.253E+02 10.0
    19.76    1.454E+02 10.0
    21.89    8.548E+00 10.0
    21.89    1.951E+01 10.0
    22.95    6.720E+00 10.0
    24.02    1.202E+01 10.0
    25.08    4.513E+01 10.0
    26.14    3.332E+01 10.0
    27.20    2.640E+01 10.0
    28.27    1.283E+01 10.0
    29.33    2.422E+00 10.0
    30.39    1.680E+00 10.0
    32.51    1.159E+01 10.0
    32.51    7.506E+00 10.0
    33.57    1.188E+01 10.0
    34.63    7.583E+00 10.0
    35.69    4.233E+00 10.0
    36.74    2.540E+00 10.0
    37.80    2.427E+00 10.0
    39.91    4.634E+00 10.0
    39.91    3.644E+00 10.0
    40.97    3.749E+00 10.0
    43.07    2.818E+00 10.0
    43.07    2.709E+00 10.0
    44.12    2.837E+00 10.0
    46.23    1.440E+00 10.0
    47.28    1.343E+00 10.0
    48.32    1.548E+00 10.0
    50.42    1.168E+00 10.0
    51.47    6.196E-01 10.0
    53.56    4.460E-01 10.0
    55.64    3.950E-01 10.0
    56.68    3.582E-01 10.0
    57.72    3.070E-01 10.0
    57.72    3.287E-01 10.0
    58.76    2.644E-01 10.0
    59.80    2.259E-01 10.0
    60.84    1.708E-01 10.0
    61.88    1.343E-01 10.0
    61.88    1.581E-01 10.0
    63.95    1.291E-01 10.0
    66.01    1.413E-01 10.0
    68.08    1.263E-01 10.0
    70.13    1.119E-01 10.0
    72.19    1.250E-01 10.0
    74.23    1.330E-01 10.0
    76.28    1.269E-01 10.0
    78.32    1.168E-01 10.0
    80.35    1.151E-01 10.0
    82.38    1.003E-01 10.0
    85.42    9.315E-02 10.0
    86.43    8.863E-02 10.0
    88.44    7.297E-02 10.0
    90.46    6.590E-02 10.0
    92.46    6.107E-02 10.0
    95.46    4.601E-02 10.0
    98.45    3.339E-02 10.0
   100.44    2.921E-02 10.0
   102.42    2.314E-02 10.0
   105.38    1.991E-02 10.0
   108.34    1.347E-02 10.0
   108.90    1.305E-02 10.0
   112.26    9.581E-03 10.0
   113.79    6.077E-03 10.0
   115.19    4.184E-03 10.0
   118.11    4.504E-03 10.0
   120.42    2.230E-03 10.0
   121.98    2.125E-03 10.0
   121.98    3.124E-03 10.0
   123.49    2.321E-03 10.0
   123.91    1.874E-03 13.0
   124.88    1.199E-03 10.0
   126.80    1.086E-03 16.0
   128.30    1.233E-03 11.0
   128.73    1.292E-03 15.0
   129.69    7.595E-04 10.0
   131.60    7.000E-04 10.0
   133.09    7.696E-04 13.0
   133.51    7.440E-04 18.0
   134.47    3.315E-04 12.0
   136.37    5.001E-04 20.0
   137.85    5.588E-04 16.0
   138.28    4.230E-04 23.0
   139.23    2.606E-04 18.0
   141.13    2.396E-04 14.0
   142.59    2.334E-04 18.0
   143.02    1.968E-04 24.0
   145.86    1.611E-04 24.0
   147.31    1.903E-04 22.0
   147.75    1.113E-04 30.0
   148.69    9.667E-05 20.0
   152.02    8.560E-05 31.0
   156.37    7.595E-05 55.0
   166.04    3.647E-05 50.0
ENDDATA            101
ENDSUBENT          123
SUBENT        D0307006   20060213   20060601                  D045
BIB                  7         13
REACTION   (20-CA-40(A,EL)20-CA-40,,DA)
FACILITY   (CYCLO,1USADAV) The 193 cm cyclotron of Crocker Lab.
METHOD     (TOF)
DETECTOR   (SILI) Up to four 3 mm thick silicon detectors cooled
           to dry ice temperature were used to detect the
           scattered particles.
           Two monitors were used on either side of the beam.
SAMPLE     Approximate target thickness was 6 mg/ci  for 40Ca.
ERR-ANALYS (DATA-ERR) Error in normalization. Absolute
           normalization of the 82 MeV data was obtained by
           matching the cross sections to the optical model
           calculations at angles 40 degr.
STATUS     (TABLE) Data were recieved from Dr. A.Ingemarsson
ENDBIB              13
COMMON               1          3
EN
MEV
  82.0
ENDCOMMON            3
DATA                 3         76
ANG-CM     DATA-CM    DATA-ERR
ADEG       MB/SR      PER-CENT
   18.16     6.114E+01   10.0
   20.36     1.070E+02   10.0
   23.65     7.307E+00   16.0
   24.74     2.960E+00   20.0
   25.83     1.183E+01   10.0
   26.93     2.266E+01   10.0
   28.02     2.410E+01   10.0
   29.11     2.046E+01   10.0
   30.20     1.299E+01   10.0
   31.29     7.082E+00   10.0
   33.47     5.067E+00   10.0
   34.56     6.991E+00   10.0
   35.65     8.112E+00   10.0
   36.73     8.201E+00   10.0
   37.82     7.087E+00   10.0
   38.90     4.273E+00   10.0
   39.98     3.043E+00   10.0
   41.06     2.348E+00   10.0
   42.14     1.708E+00   10.0
   44.30     2.148E+00   10.0
   45.38     1.946E+00   10.0
   46.08     1.794E+00   10.0
   46.46     1.538E+00   10.0
   46.83     1.615E+00   10.0
   47.15     1.434E+00   10.0
   47.53     1.489E+00   10.0
   47.90     1.145E+00   10.0
   48.23     8.887E-01   10.0
   48.98     8.473E-01   10.0
   50.05     5.884E-01   10.0
   51.12     4.869E-01   10.0
   52.19     5.080E-01   10.0
   54.32     5.577E-01   10.0
   56.98     4.591E-01   10.0
   59.64     3.926E-01   10.0
   61.75     3.985E-01   10.0
   62.28     4.897E-01   10.0
   62.81     4.298E-01   10.0
   64.91     4.190E-01   10.0
   67.53     3.564E-01   10.0
   70.15     3.234E-01   10.0
   72.23     2.836E-01   10.0
   72.75     2.719E-01   10.0
   73.27     2.854E-01   10.0
   75.34     2.614E-01   10.0
   77.93     1.988E-01   10.0
   80.50     1.646E-01   10.0
   83.06     1.251E-01   10.0
   85.61     1.099E-01   10.0
   88.15     8.658E-02   10.0
   90.68     6.638E-02   10.0
   93.19     4.848E-02   10.0
   95.70     3.552E-02   10.0
   98.19     2.802E-02   10.0
  100.68     2.143E-02   10.0
  103.15     1.579E-02   10.0
  105.61     1.242E-02   10.0
  108.06     8.806E-03   10.0
  110.50     7.548E-03   10.0
  112.93     5.480E-03   10.0
  115.35     4.154E-03   10.0
  117.76     2.871E-03   10.0
  120.15     2.338E-03   10.0
  122.54     1.917E-03   10.0
  124.92     1.251E-03   10.0
  127.29     9.842E-04   10.0
  129.64     8.510E-04   10.0
  131.99     5.548E-04   10.0
  134.33     3.752E-04   10.0
  136.67     3.392E-04   10.0
  138.99     2.401E-04   12.0
  143.61     1.165E-04   17.0
  148.21     5.999E-05   30.0
  152.78     5.475E-05   30.0
  157.33     2.186E-05   45.0
  161.86     1.607E-05   45.0
ENDDATA             78
ENDSUBENT          100
ENDENTRY             6
