ENTRY            D0324   20050407   20050810                  D041
SUBENT        D0324001   20050407   20050810                  D041
BIB                 11         21
TITLE      Angular distributions of the 12C(a,a)12C reaction
           excitation function at the 20-24 energy range
AUTHOR     (J.Aguilar,C.Fernandez Pineda,J.L.Ferrero,A.Garcia,
           J.M.Chaveli,F.Senent,J.B.A.England)
INSTITUTE  (2SPNJNE,2SPNVAL,2UK BIR)
REFERENCE  (J,ARS,64,273,1968) In Spanish
FACILITY   (CYCLO,2UK BIR)
SAMPLE     Gas target (acetylene)
DETECTOR   (PLATE) Ilford K1 emulsions, size 5 x 2 inches,
           100 mu-m thick. 2-7 plates were used.
           (SOLST) Au-Si solid state detector.
           The beam energy was monitored by measuring the energy
           of the aplha - particles scattered at an angle of
           45 degr. by a 0.3 mg/cm2 silver foil.
ANALYSIS   Part of the data analysis was done in Valencia and
           another part was done in Madrid
MONITOR    Flux monitored by Faraday cap
ERR-ANALYS (ERR-DIG) Digitizing error
           (DATA-ERR) Experimental error
           (EN-ERR) Scale error
HISTORY    (20050407C) SD
ENDBIB              21
COMMON               1          3
EN-RSL
MEV
  0.15
ENDCOMMON            3
ENDSUBENT           28
SUBENT        D0324002   20050407   20050810                  D041
BIB                  4          5
REACTION   (6-C-12(A,EL)6-C-12,,DA)
DETECTOR   (PLATE) Ilford K1 emulsions, size 5 x 2 inches,
           100 mu-m thick. 7 plates were used.
ERR-ANALYS (ANG-ERR-D) Digitizing error
STATUS     (CURVE)Curves from fig.1 of the article
ENDBIB               5
COMMON               2          3
ANG-ERR-D  ERR-DIG
ADEG       PER-CENT
  1.        0.5
ENDCOMMON            3
DATA                 5        200
EN         EN-ERR     ANG-CM     DATA-CM    DATA-ERR
MEV        MEV        ADEG       MB/SR      MB/SR
 23.950     0.18       19.045     427.92     40.157
 23.950     0.18       22.199     125.04     4.8301
 23.950     0.18       25.721     69.314     7.1202
 23.950     0.18       28.836     136.87     23.350
 23.950     0.18       32.416     257.31     14.764
 23.950     0.18       35.851     265.26     18.915
 23.950     0.18       38.630     217.99     15.544
 23.950     0.18       42.634     103.23     6.8770
 23.950     0.18       45.076     35.657     2.9230
 23.950     0.18       47.995     10.838     1.2080
 23.950     0.18       50.722     12.949     1.4420
 23.950     0.18       56.934     56.822     5.3262
 23.950     0.18       60.774     86.019     7.9780
 23.950     0.18       64.040     58.059     4.9246
 23.950     0.18       67.522     42.822     3.6369
 23.950     0.18       69.634     30.353     2.4882
 23.950     0.18       72.957     13.681     1.2839
 23.950     0.18       80.530     2.5695    0.26395
 23.950     0.18       82.131     2.6476    0.29512
 23.950     0.18       83.249     3.2250    0.29890
 23.950     0.18       84.632     3.0711    0.18694
 23.950     0.18       87.030     1.4538    0.16643
 23.950     0.18       90.752     1.0009    0.14790
 23.950     0.18       93.658     1.7048    0.17633
 23.950     0.18       95.898     2.4801    0.18804
 23.950     0.18       98.965     6.8449    0.51859
 23.950     0.18       101.20     10.156    0.61755
 23.950     0.18       104.14     13.523     1.0246
 23.950     0.18       106.86     16.807     1.5763
 23.950     0.18       109.15     18.195     1.0450
 23.950     0.18       113.97     17.514     1.6427
 23.950     0.18       118.58     14.119     1.5738
 23.950     0.18       123.34     21.170     1.9855
 23.950     0.18       128.33     30.819     2.8564
 23.950     0.18       132.50     22.960     1.7395
 23.950     0.18       136.19     20.622     1.9353
 23.950     0.18       140.87     10.261     1.0535
 23.950     0.18       145.24     9.4941    0.97527
 23.950     0.18       148.38     15.245     1.2487
 23.950     0.18       152.70     20.307     3.4657
 23.950     0.18       155.92     18.237     2.0328
 23.950     0.18       159.38     16.060     1.9299
 23.950     0.18       162.87     11.500     1.5794
 23.950     0.18       164.82     26.058     1.9742
 23.950     0.18       166.73     14.438     1.9821
 23.950     0.18       168.18     45.274     4.2462
 23.950     0.18       170.13     101.58     12.212
 23.950     0.18       173.64     303.37     46.812
 21.780     0.16       16.113     1760.9     179.51
 21.780     0.16       18.733     710.13     72.919
 21.780     0.16       22.805     140.38     9.9366
 21.780     0.16       26.069     85.343     12.351
 21.780     0.16       29.210     162.74     23.545
 21.780     0.16       33.055     268.05     16.171
 21.780     0.16       36.034     270.84     24.895
 21.780     0.16       39.302     158.35     17.959
 21.780     0.16       42.348     86.455     9.8093
 21.780     0.16       45.567     9.4155     1.2037
 21.780     0.16       48.949     16.125     3.8605
 21.780     0.16       51.367     42.442     5.4258
 21.780     0.16       54.743     77.076     7.8540
 21.780     0.16       58.161     93.773     5.6614
 21.780     0.16       60.683     94.740     8.7080
 21.780     0.16       64.646     51.735     5.7256
 21.780     0.16       67.421     41.345     3.4803
 21.780     0.16       71.006     10.744     1.5544
 21.780     0.16       73.884     3.2958    0.36475
 21.780     0.16       77.172     1.6005    0.24492
 21.780     0.16       80.020     5.5383    0.41640
 21.780     0.16       82.548     5.2256    0.66825
 21.780     0.16       85.105     3.7872    0.45159
 21.780     0.16       88.386     1.9693    0.35571
 21.780     0.16       93.721     1.1076    0.29740
 21.780     0.16       99.562     3.4444    0.46648
 21.780     0.16       104.82     4.1513    0.60076
 21.780     0.16       109.05     1.5948    0.41673
 21.780     0.16       114.81     1.2264    0.42855
 21.780     0.16       119.94     4.5909    0.47118
 21.780     0.16       123.97     10.855     1.3882
 21.780     0.16       128.31     13.736     1.2785
 21.780     0.16       133.39     9.7670    0.89773
 21.780     0.16       136.37     9.1267     1.0890
 21.780     0.16       140.54     6.3012    0.69686
 21.780     0.16       145.07     10.482    0.88237
 21.780     0.16       152.96     4.6659    0.63605
 21.780     0.16       156.32     9.7154     2.0301
 21.780     0.16       159.53     9.8169     1.9757
 21.780     0.16       163.16     13.695     1.8674
 21.780     0.16       165.82     32.059     3.8252
 21.780     0.16       169.15     91.255     9.2988
 21.780     0.16       170.02     132.30     21.341
 21.780     0.16       171.30     341.41     31.364
 21.780     0.16       173.34     407.22     45.051
 20.560     0.23       15.616     668.88     83.111
 20.560     0.23       19.222     116.72     22.408
 20.560     0.23       23.263     25.995     2.6454
 20.560     0.23       26.103     114.60     23.039
 20.560     0.23       29.010     247.83     16.361
 20.560     0.23       33.139     245.59     18.440
 20.560     0.23       36.169     146.51     9.6721
 20.560     0.23       39.228     64.589     7.6940
 20.560     0.23       42.413     7.6282    0.57248
 20.560     0.23       48.450     38.198     2.1705
 20.560     0.23       51.577     91.074     8.4660
 20.560     0.23       55.227     111.85     8.3985
 20.560     0.23       58.219     99.547     9.2608
 20.560     0.23       60.979     91.222     5.1902
 20.560     0.23       63.989     66.793     2.5565
 20.560     0.23       67.272     31.222     3.4474
 20.560     0.23       71.251     13.370     1.5926
 20.560     0.23       73.799     10.278    0.77170
 20.560     0.23       76.381     5.5069    0.56021
 20.560     0.23       79.320     8.5468    0.69346
 20.560     0.23       82.518     9.7080    0.99449
 20.560     0.23       85.486     11.135    0.78702
 20.560     0.23       88.717     8.9014     1.5027
 20.560     0.23       91.249     8.0775    0.65608
 20.560     0.23       93.594     4.6791    0.51681
 20.560     0.23       96.879     2.1241    0.21778
 20.560     0.23       98.552     1.0525    0.18983
 20.560     0.23       99.966    0.69881    0.11013
 20.560     0.23       101.82    0.58075    0.10763
 20.560     0.23       104.34    0.58100    0.88780E-01
 20.560     0.23       107.22     1.7002    0.28763
 20.560     0.23       110.13     3.6057    0.48744
 20.560     0.23       116.50     6.1734    0.63268
 20.560     0.23       121.76     7.1528    0.85206
 20.560     0.23       124.50     7.5140    0.93297
 20.560     0.23       127.72     7.1602     1.0483
 20.560     0.23       129.08     8.7051    0.88556
 20.560     0.23       130.95     5.6135    0.95004
 20.560     0.23       133.25     5.2964    0.71648
 20.560     0.23       135.09     4.9003    0.71699
 20.560     0.23       136.78     2.1810    0.46983
 20.560     0.23       139.33     1.5060    0.48662
 20.560     0.23       141.33     2.9249    0.44704
 20.560     0.23       143.86     2.9549    0.52392
 20.560     0.23       145.70     2.5534    0.62925
 20.560     0.23       148.90     2.9287    0.86753
 20.560     0.23       151.25     1.6801    0.28434
 20.560     0.23       153.04     2.4829    0.47962
 20.560     0.23       154.47     1.4103    0.19205
 20.560     0.23       156.30     1.5252    0.19473
 20.560     0.23       157.87     2.2984    0.54935
 20.560     0.23       159.44     3.1723    0.51104
 20.560     0.23       161.24     4.3786    0.55889
 20.560     0.23       162.14     5.5348    0.65912
 20.560     0.23       165.06     10.963     1.3607
 20.560     0.23       166.19     12.089     1.5435
 20.560     0.23       169.73     46.951     7.3973
 20.560     0.23       171.99     67.390     6.9005
 20.560     0.23       173.59     75.045     11.470
 20.080     0.17       13.131     2553.7     180.37
 20.080     0.17       15.448     2123.0     127.90
 20.080     0.17       19.231     892.28     63.021
 20.080     0.17       22.602     263.97     29.868
 20.080     0.17       26.078     35.109     2.9494
 20.080     0.17       28.873     25.220     5.2616
 20.080     0.17       33.744     94.163     12.811
 20.080     0.17       35.769     126.22     12.925
 20.080     0.17       39.272     78.343     9.3260
 20.080     0.17       42.089     47.680     5.9178
 20.080     0.17       46.142     14.669     1.6607
 20.080     0.17       48.719     9.6517     1.1489
 20.080     0.17       51.841     18.927     2.4158
 20.080     0.17       54.499     38.589     2.7255
 20.080     0.17       58.116     57.045     3.4365
 20.080     0.17       60.836     72.837     9.8467
 20.080     0.17       64.315     53.883     3.8057
 20.080     0.17       70.138     27.003     2.0275
 20.080     0.17       73.642     16.598     2.2429
 20.080     0.17       76.276     7.1114     1.3728
 20.080     0.17       82.177     11.261     1.2741
 20.080     0.17       88.335     14.531     1.6450
 20.080     0.17       94.125     9.3834    0.96035
 20.080     0.17       96.915     7.0084     1.5089
 20.080     0.17       99.613     1.8442    0.53316
 20.080     0.17       102.08     2.7790    0.78398
 20.080     0.17       105.04     3.3470    0.72412
 20.080     0.17       109.81     4.7597    0.43623
 20.080     0.17       113.61     10.093     1.2526
 20.080     0.17       115.16     14.624     1.6556
 20.080     0.17       119.74     15.674     1.2706
 20.080     0.17       124.11     13.689     1.4018
 20.080     0.17       128.25     12.551     1.0174
 20.080     0.17       130.13     9.3723     1.2670
 20.080     0.17       133.20     4.5586    0.58162
 20.080     0.17       136.87     4.6980    0.59940
 20.080     0.17       140.97     5.7710    0.52926
 20.080     0.17       145.32     5.8336    0.69472
 20.080     0.17       148.79     4.5755    0.54467
 20.080     0.17       152.49     3.7682    0.34558
 20.080     0.17       156.65     2.8989    0.49020
 20.080     0.17       159.57     4.6776    0.39295
 20.080     0.17       159.72     8.1544     1.5097
 20.080     0.17       163.57     11.938     1.9215
 20.080     0.17       166.62     40.414     3.3970
 20.080     0.17       168.45     44.139     3.7080
 20.080     0.17       170.67     76.239     12.271
 20.080     0.17       173.51     218.66     26.040
ENDDATA            202
ENDSUBENT          216
SUBENT        D0324003   20050407   20050810                  D041
BIB                  4          5
REACTION   (6-C-12(A,EL)6-C-12,,DA)
DETECTOR   (PLATE) Ilford K1 emulsions, size 5 x 2 inches,
           100 mu-m thick. 3 plates were used.
ERR-ANALYS (ANG-ERR-D) Digitizing error
STATUS     (CURVE)Curves from fig.2 of the article
ENDBIB               5
COMMON               2          3
ANG-ERR-D  ERR-DIG
ADEG       PER-CENT
  1.        0.5
ENDCOMMON            3
DATA                 5        121
EN         EN-ERR     ANG-CM     DATA-CM    DATA-ERR
MEV        MEV        ADEG       MB/SR      MB/SR
 22.960     0.13       119.21     22.898     2.9454
 22.960     0.13       121.51     21.574     1.7867
 22.960     0.13       123.90     31.582     1.9689
 22.960     0.13       126.21     26.366     2.5966
 22.960     0.13       128.23     29.018     2.6185
 22.960     0.13       130.40     24.860     2.0116
 22.960     0.13       132.45     19.366     1.2943
 22.960     0.13       134.76     16.592     1.6348
 22.960     0.13       136.96     10.782    0.89290
 22.960     0.13       138.84     11.662    0.94298
 22.960     0.13       140.76     9.1632    0.90285
 22.960     0.13       142.90     10.085     1.0055
 22.960     0.13       144.92     10.631    0.85958
 22.960     0.13       146.93     12.322     1.2135
 22.960     0.13       148.82     12.765     1.4543
 22.960     0.13       151.11     13.457     1.2200
 22.960     0.13       152.99     14.810     1.4585
 22.960     0.13       154.87     16.726     1.2513
 22.960     0.13       156.11     12.475     1.2286
 22.960     0.13       157.87     11.853     1.2948
 22.960     0.13       159.50     11.069     1.1042
 22.960     0.13       161.29     7.1293    0.77880
 22.960     0.13       163.30     8.6287    0.85975
 22.960     0.13       165.06     7.8520     1.0729
 22.960     0.13       166.78     11.101     1.7556
 22.960     0.13       168.67     11.500     2.0730
 22.960     0.13       169.58     15.975     3.1040
 22.960     0.13       171.92     41.721     6.1822
 21.990     0.14       132.39     31.028     4.8950
 21.990     0.14       136.80     13.596     3.6254
 21.990     0.14       142.80     7.3302     2.1364
 21.990     0.14       144.99     5.1096     1.5816
 21.990     0.14       148.63     5.3424     1.2166
 21.990     0.14       152.61     10.298     2.2065
 21.990     0.14       156.23     13.587     1.8748
 21.990     0.14       159.55     5.7493     1.4964
 21.990     0.14       161.62     14.715     2.6156
 21.990     0.14       163.45     26.913     3.4492
 21.990     0.14       166.94     32.296     3.9160
 21.990     0.14       168.73     81.940     8.0466
 21.990     0.14       169.91     123.96     14.082
 21.990     0.14       172.67     245.08     33.384
 21.320     0.13       118.70     8.9736    0.73588
 21.320     0.13       121.25     12.011     1.2644
 21.320     0.13       123.53     14.507     1.0752
 21.320     0.13       126.36     16.647     1.4959
 21.320     0.13       128.52     14.903     1.1046
 21.320     0.13       130.42     13.340    0.88260
 21.320     0.13       132.31     13.008     1.1620
 21.320     0.13       134.21     10.689    0.75733
 21.320     0.13       135.98     8.8591    0.58640
 21.320     0.13       136.92     9.0916    0.95707
 21.320     0.13       139.07     11.860     1.0657
 21.320     0.13       140.82     11.271    0.83537
 21.320     0.13       142.71     12.496    0.92613
 21.320     0.13       144.87     11.477     1.1199
 21.320     0.13       146.89     12.616     1.3281
 21.320     0.13       149.06     9.9335    0.70342
 21.320     0.13       151.11     7.3665    0.65806
 21.320     0.13       152.74     5.7011    0.35190
 21.320     0.13       154.66     3.2150    0.25748
 21.320     0.13       156.18     1.9918    0.14112
 21.320     0.13       157.76     3.7213    0.47623
 21.320     0.13       159.59     9.8746     1.1897
 21.320     0.13       161.30     19.756     1.3071
 21.320     0.13       163.29     35.368     3.4502
 21.320     0.13       165.27     69.565     5.5687
 21.320     0.13       166.60     96.326     6.8211
 21.320     0.13       168.47     128.91     13.571
 21.320     0.13       170.35     162.49     19.572
 21.320     0.13       172.20     276.33     26.964
 21.320     0.13       173.50     684.64     39.803
 21.210     0.14       132.40     24.528     4.8768
 21.210     0.14       134.31     20.343     4.3197
 21.210     0.14       136.91     10.118     1.9424
 21.210     0.14       141.23     10.303     1.6157
 21.210     0.14       144.72     14.878     2.9168
 21.210     0.14       148.62     17.965     2.0211
 21.210     0.14       152.68     15.294     1.8363
 21.210     0.14       154.83     16.105     1.6895
 21.210     0.14       156.43     24.258     1.5992
 21.210     0.14       158.03     32.985     3.2074
 21.210     0.14       159.62     50.107     4.8708
 21.210     0.14       162.32     48.460     4.3376
 21.210     0.14       168.87     132.73     7.6929
 21.210     0.14       170.08     153.47     13.737
 21.210     0.14       173.24     510.98     25.479
 21.000     0.13       118.60     8.3523    0.48038
 21.000     0.13       121.56     11.143    0.81741
 21.000     0.13       123.58     12.030    0.88215
 21.000     0.13       126.30     7.6859    0.91622
 21.000     0.13       128.60     6.2232    0.30808
 21.000     0.13       130.64     4.5520    0.27778
 21.000     0.13       132.41     3.1646    0.22174
 21.000     0.13       134.32     2.1090    0.26711
 21.000     0.13       136.35     2.1098    0.17114
 21.000     0.13       139.13     6.1311    0.54141
 21.000     0.13       141.00     8.0407    0.46246
 21.000     0.13       142.88     10.725     1.0356
 21.000     0.13       145.03     12.601     1.0228
 21.000     0.13       146.78     15.575     1.7401
 21.000     0.13       148.95     12.295    0.90158
 21.000     0.13       150.84     10.297     1.1005
 21.000     0.13       152.62     7.0980    0.43315
 21.000     0.13       154.66     4.3466    0.26525
 21.000     0.13       157.03    0.99742    0.69861E-01
 21.000     0.13       158.19     2.9721    0.39823
 21.000     0.13       160.17     7.2910    0.64805
 21.000     0.13       161.88     20.306     1.1679
 21.000     0.13       163.60     36.730     3.5467
 21.000     0.13       165.20     57.535     3.3091
 21.000     0.13       166.93     87.128     7.0716
 21.000     0.13       169.07     128.64     11.434
 21.000     0.13       170.00     193.14     14.163
 21.000     0.13       172.15     223.11     19.836
 20.910     0.18       152.86     10.116     1.7601
 20.910     0.18       159.71     17.667     2.2930
 20.910     0.18       163.62     18.791     2.1523
 20.910     0.18       166.59     20.510     2.9695
 20.910     0.18       168.43     48.921     4.8427
 20.910     0.18       170.03     65.759     7.5318
ENDDATA            123
ENDSUBENT          137
SUBENT        D0324004   20050407   20050810                  D041
BIB                  4          5
REACTION   (6-C-12(A,EL)6-C-12,,DA)
ERR-ANALYS (EN-ERR-DIG) Digitizing error
FLAG       (1.) Data analysis was done in Valencia
           Analysis data without flag was done in Madrid
STATUS     (CURVE)Curves from fig.4 of the article
ENDBIB               5
COMMON               3          3
ANG-CM     EN-ERR-DIG ERR-DIG
ADEG       MEV        PER-CENT
  173.32     0.05        0.3
ENDCOMMON            3
DATA                 5         10
EN         EN-ERR     DATA-CM    DATA-ERR   FLAG
MEV        MEV        MB/SR      MB/SR      NO-DIM
 20.103    0.15346     214.03     34.284
 20.561    0.21982     75.154     21.815     1.0000
 20.906    0.17835     373.54     48.824
 21.001    0.12441     397.51     29.087     1.0000
 21.215    0.15760     559.72     65.442
 21.304    0.16590     690.67     60.254     1.0000
 21.781    0.16589     393.91     44.669
 22.006    0.16590     240.33     35.323
 22.949    0.13686     117.39     18.702     1.0000
 23.967    0.19494     306.15     50.902
ENDDATA             12
ENDSUBENT           26
SUBENT        D0324005   20050407   20050810                  D041
BIB                  3          3
REACTION   (6-C-12(A,EL)6-C-12,,DA)
ERR-ANALYS (EN-ERR-DIG) Digitizing error
STATUS     (CURVE)Curves from fig.5 of the article
ENDBIB               3
COMMON               3          3
ANG        EN-ERR-DIG ERR-DIG
ADEG       MEV        PER-CENT
  172.85     0.05        0.3
ENDCOMMON            3
DATA                 4          3
EN         EN-ERR     DATA       DATA-ERR
MEV        MEV        MB/SR      MB/SR
 20.081    0.21930     57.649     7.5024
 20.564    0.21930     19.830     5.1151
 21.782    0.14845     19.231     5.1151
ENDDATA              5
ENDSUBENT           17
ENDENTRY             5
