ENTRY            D0350   20050517   20051216                  D042
SUBENT        D0350001   20050517   20051216                  D042
BIB                 10         24
TITLE      Polarized proton scattering on 58Ni at small momentum
           transfer: A test of the microscopic optical model
           and effective interactions
AUTHOR     (F.Hofmann,C.Baumer,A.M.van den Berg,D.Frekers,
           V.M. Hannen,M.N.Harakeh,M.A.de Huu,Y.Kalmykova,
           P.von Neumann-Cosel,V.Yu.Ponomarev,S.Rakers,B.Reitz,
           A.Richter,A.Shevchenko,K.Schweda,J.Wambach,H.J.Wortche)
INSTITUTE  (2GERTHD,2GERMST,2NEDKVI)
REFERENCE  (J,PL/B,612,165,2005)
FACILITY   (CYCLO,2NEDKVI) Superconducting cyclotron AGOR.
MONITOR    (6-C-12(P,EL)6-C-12,,DA) Control measurements were
           performed with a 12C target.
SAMPLE     A self-supporting, 99% enriched 58Ni foil with a
           thickness of 17.6 mg/cm2
DETECTOR   (MAGSP) The outgoing protons were momentum analyzed by
           the Big-Bite spectrometer (BBS) and detected
           (TELES,MWPC,MWPC) with the EUROSUPERNOVA (ESN) system.
           The ESN system is a focal-plane detector comprised of
           two vertical drift chambers and a focal-plane
           polarimeter consisting of a carbon analyzer and
           4 multi-wire proportional chambers.
STATUS     (TABLE) Data received from Dr. P. von Neumann-Cosel
           (APRVD) Entry approved by Dr.P. von Neumann-Cosel
HISTORY    (20050517C) SD
ENDBIB              24
COMMON               2          3
EN         EN-RSL-FW
MEV        MEV
 172.        0.080
ENDCOMMON            3
ENDSUBENT           31
SUBENT        D0350002   20050517   20051216                  D042
BIB                  1          1
REACTION   (28-NI-58(P,INL)28-NI-58,,DA/DE)
ENDBIB               1
COMMON               1          3
ANG
ADEG
  10.
ENDCOMMON            3
DATA                 2       1200
E-EXC      DATA
MEV        MB/SR/MEV
     0.310  0.1208E+01
     0.335  0.1527E+01
     0.360  0.1567E+01
     0.385  0.1488E+01
     0.410  0.1354E+01
     0.435  0.1145E+01
     0.460  0.1086E+01
     0.485  0.1101E+01
     0.510  0.1227E+01
     0.535  0.1213E+01
     0.560  0.1048E+01
     0.585  0.7794E+00
     0.610  0.4739E+00
     0.635  0.3071E+00
     0.660  0.1953E+00
     0.685  0.1368E+00
     0.710  0.1081E+00
     0.735  0.1028E+00
     0.760  0.5499E-01
     0.785  0.5552E-01
     0.810  0.3692E-01
     0.835  0.5040E-01
     0.860  0.5534E-01
     0.885  0.3313E-01
     0.910  0.4061E-01
     0.935  0.4132E-01
     0.960  0.2126E-01
     0.985  0.3223E-01
     1.010  0.1706E-01
     1.035  0.2222E-01
     1.060  0.2118E-01
     1.085  0.3045E-01
     1.110  0.5373E-01
     1.135  0.5141E-01
     1.160  0.4757E-01
     1.185  0.6149E-01
     1.210  0.7322E-01
     1.235  0.1239E+00
     1.260  0.2740E+00
     1.285  0.4681E+00
     1.310  0.1170E+01
     1.335  0.2479E+01
     1.360  0.6207E+01
     1.385  0.1829E+02
     1.410  0.4671E+02
     1.435  0.8499E+02
     1.460  0.9896E+02
     1.485  0.6910E+02
     1.510  0.3272E+02
     1.535  0.1379E+02
     1.560  0.6521E+01
     1.585  0.3679E+01
     1.610  0.2299E+01
     1.635  0.1653E+01
     1.660  0.1283E+01
     1.685  0.8850E+00
     1.710  0.7675E+00
     1.735  0.5897E+00
     1.760  0.5068E+00
     1.785  0.3713E+00
     1.810  0.3090E+00
     1.835  0.2595E+00
     1.860  0.2144E+00
     1.885  0.1084E+00
     1.910  0.1015E+00
     1.935  0.5355E-01
     1.960  0.3093E-01
     1.985  0.4269E-01
     2.010  0.3285E-01
     2.035  0.2834E-01
     2.060  0.3366E-01
     2.085  0.3185E-01
     2.110  0.2877E-01
     2.135  0.1348E-01
     2.160  0.2731E-01
     2.185  0.3376E-01
     2.210  0.2763E-01
     2.235  0.2601E-01
     2.260  0.2301E-01
     2.285  0.3516E-01
     2.310  0.2432E-01
     2.335  0.2469E-01
     2.360  0.4862E-01
     2.385  0.1292E+00
     2.410  0.4378E+00
     2.435  0.8461E+00
     2.460  0.1066E+01
     2.485  0.7779E+00
     2.510  0.4024E+00
     2.535  0.1829E+00
     2.560  0.9790E-01
     2.585  0.5819E-01
     2.610  0.5653E-01
     2.635  0.5603E-01
     2.660  0.3988E-01
     2.685  0.4294E-01
     2.710  0.5723E-01
     2.735  0.4782E-01
     2.760  0.9498E-01
     2.785  0.8992E-01
     2.810  0.8774E-01
     2.835  0.8228E-01
     2.860  0.9190E-01
     2.885  0.1770E+00
     2.910  0.2435E+00
     2.935  0.4348E+00
     2.960  0.1012E+01
     2.985  0.2832E+01
     3.010  0.6151E+01
     3.035  0.8277E+01
     3.060  0.6695E+01
     3.085  0.3269E+01
     3.110  0.1412E+01
     3.135  0.7973E+00
     3.160  0.7676E+00
     3.185  0.1469E+01
     3.210  0.4187E+01
     3.235  0.9012E+01
     3.260  0.1313E+02
     3.285  0.1065E+02
     3.310  0.5307E+01
     3.335  0.2258E+01
     3.360  0.1100E+01
     3.385  0.6930E+00
     3.410  0.5381E+00
     3.435  0.3624E+00
     3.460  0.3658E+00
     3.485  0.5134E+00
     3.510  0.6464E+00
     3.535  0.7113E+00
     3.560  0.6468E+00
     3.585  0.6501E+00
     3.610  0.7110E+00
     3.635  0.5888E+00
     3.660  0.4029E+00
     3.685  0.2449E+00
     3.710  0.2243E+00
     3.735  0.2412E+00
     3.760  0.3032E+00
     3.785  0.3402E+00
     3.810  0.3125E+00
     3.835  0.5825E+00
     3.860  0.1209E+01
     3.885  0.1963E+01
     3.910  0.2031E+01
     3.935  0.1183E+01
     3.960  0.6539E+00
     3.985  0.4146E+00
     4.010  0.4183E+00
     4.035  0.4544E+00
     4.060  0.5662E+00
     4.085  0.7437E+00
     4.110  0.8222E+00
     4.135  0.6674E+00
     4.160  0.4625E+00
     4.185  0.4249E+00
     4.210  0.3941E+00
     4.235  0.4043E+00
     4.260  0.4873E+00
     4.285  0.5937E+00
     4.310  0.6393E+00
     4.335  0.7900E+00
     4.360  0.1161E+01
     4.385  0.2079E+01
     4.410  0.5125E+01
     4.435  0.1133E+02
     4.460  0.1801E+02
     4.485  0.1909E+02
     4.510  0.1226E+02
     4.535  0.5883E+01
     4.560  0.3059E+01
     4.585  0.1700E+01
     4.610  0.1166E+01
     4.635  0.9089E+00
     4.660  0.7880E+00
     4.685  0.8458E+00
     4.710  0.1125E+01
     4.735  0.1430E+01
     4.760  0.1524E+01
     4.785  0.1247E+01
     4.810  0.8245E+00
     4.835  0.6291E+00
     4.860  0.5448E+00
     4.885  0.5289E+00
     4.910  0.4717E+00
     4.935  0.4910E+00
     4.960  0.4567E+00
     4.985  0.4448E+00
     5.010  0.3946E+00
     5.035  0.3566E+00
     5.060  0.3352E+00
     5.085  0.3466E+00
     5.110  0.3853E+00
     5.135  0.4530E+00
     5.160  0.4916E+00
     5.185  0.4716E+00
     5.210  0.3728E+00
     5.235  0.3158E+00
     5.260  0.3192E+00
     5.285  0.2715E+00
     5.310  0.3163E+00
     5.335  0.3015E+00
     5.360  0.2969E+00
     5.385  0.3540E+00
     5.410  0.4058E+00
     5.435  0.4561E+00
     5.460  0.4422E+00
     5.485  0.3945E+00
     5.510  0.5041E+00
     5.535  0.8854E+00
     5.560  0.1616E+01
     5.585  0.2216E+01
     5.610  0.1915E+01
     5.635  0.1119E+01
     5.660  0.6339E+00
     5.685  0.5136E+00
     5.710  0.5648E+00
     5.735  0.5339E+00
     5.760  0.6734E+00
     5.785  0.5248E+00
     5.810  0.5270E+00
     5.835  0.7146E+00
     5.860  0.1213E+01
     5.885  0.2155E+01
     5.910  0.2709E+01
     5.935  0.1985E+01
     5.960  0.1456E+01
     5.985  0.1289E+01
     6.010  0.1394E+01
     6.035  0.1411E+01
     6.060  0.1002E+01
     6.085  0.7869E+00
     6.110  0.6928E+00
     6.135  0.7080E+00
     6.160  0.8462E+00
     6.185  0.1015E+01
     6.210  0.1317E+01
     6.235  0.1500E+01
     6.260  0.1604E+01
     6.285  0.1367E+01
     6.310  0.1264E+01
     6.335  0.1060E+01
     6.360  0.1144E+01
     6.385  0.1390E+01
     6.410  0.1774E+01
     6.435  0.1609E+01
     6.460  0.1429E+01
     6.485  0.1250E+01
     6.510  0.1114E+01
     6.535  0.1144E+01
     6.560  0.1140E+01
     6.585  0.1057E+01
     6.610  0.8703E+00
     6.635  0.8561E+00
     6.660  0.9828E+00
     6.685  0.1333E+01
     6.710  0.1782E+01
     6.735  0.2262E+01
     6.760  0.2269E+01
     6.785  0.2223E+01
     6.810  0.3353E+01
     6.835  0.4800E+01
     6.860  0.4871E+01
     6.885  0.3326E+01
     6.910  0.2105E+01
     6.935  0.1887E+01
     6.960  0.2242E+01
     6.985  0.2696E+01
     7.010  0.2176E+01
     7.035  0.1669E+01
     7.060  0.1582E+01
     7.085  0.1505E+01
     7.110  0.1594E+01
     7.135  0.1720E+01
     7.160  0.2520E+01
     7.185  0.3927E+01
     7.210  0.4729E+01
     7.235  0.4125E+01
     7.260  0.3088E+01
     7.285  0.2252E+01
     7.310  0.1528E+01
     7.335  0.1110E+01
     7.360  0.9848E+00
     7.385  0.1001E+01
     7.410  0.1085E+01
     7.435  0.1472E+01
     7.460  0.1983E+01
     7.485  0.2410E+01
     7.510  0.2462E+01
     7.535  0.1955E+01
     7.560  0.1484E+01
     7.585  0.1223E+01
     7.610  0.1079E+01
     7.635  0.9948E+00
     7.660  0.1201E+01
     7.685  0.1603E+01
     7.710  0.1802E+01
     7.735  0.1622E+01
     7.760  0.1295E+01
     7.785  0.1266E+01
     7.810  0.1351E+01
     7.835  0.1310E+01
     7.860  0.1237E+01
     7.885  0.1252E+01
     7.910  0.1286E+01
     7.935  0.1247E+01
     7.960  0.1080E+01
     7.985  0.9069E+00
     8.010  0.8639E+00
     8.035  0.8010E+00
     8.060  0.9718E+00
     8.085  0.1187E+01
     8.110  0.1361E+01
     8.135  0.1243E+01
     8.160  0.9842E+00
     8.185  0.9142E+00
     8.210  0.1103E+01
     8.235  0.1360E+01
     8.260  0.1284E+01
     8.285  0.1206E+01
     8.310  0.1046E+01
     8.335  0.9846E+00
     8.360  0.1058E+01
     8.385  0.1071E+01
     8.410  0.1030E+01
     8.435  0.1060E+01
     8.460  0.1097E+01
     8.485  0.1472E+01
     8.510  0.1719E+01
     8.535  0.1705E+01
     8.560  0.1490E+01
     8.585  0.1276E+01
     8.610  0.1139E+01
     8.635  0.9994E+00
     8.660  0.1034E+01
     8.685  0.1094E+01
     8.710  0.9531E+00
     8.735  0.8771E+00
     8.760  0.9869E+00
     8.785  0.1053E+01
     8.810  0.1286E+01
     8.835  0.1491E+01
     8.860  0.1692E+01
     8.885  0.1511E+01
     8.910  0.1306E+01
     8.935  0.1273E+01
     8.960  0.1169E+01
     8.985  0.1053E+01
     9.010  0.9950E+00
     9.035  0.1015E+01
     9.060  0.1054E+01
     9.085  0.9293E+00
     9.110  0.8290E+00
     9.135  0.8765E+00
     9.160  0.1072E+01
     9.185  0.1300E+01
     9.210  0.1339E+01
     9.235  0.1138E+01
     9.260  0.1064E+01
     9.285  0.1138E+01
     9.310  0.1234E+01
     9.335  0.1546E+01
     9.360  0.1704E+01
     9.385  0.1582E+01
     9.410  0.1489E+01
     9.435  0.1392E+01
     9.460  0.1479E+01
     9.485  0.1452E+01
     9.510  0.1434E+01
     9.535  0.1403E+01
     9.560  0.1276E+01
     9.585  0.1138E+01
     9.610  0.1175E+01
     9.635  0.1368E+01
     9.660  0.1634E+01
     9.685  0.1623E+01
     9.710  0.1465E+01
     9.735  0.1409E+01
     9.760  0.1355E+01
     9.785  0.1240E+01
     9.810  0.1380E+01
     9.835  0.1617E+01
     9.860  0.1848E+01
     9.885  0.1771E+01
     9.910  0.1609E+01
     9.935  0.1426E+01
     9.960  0.1388E+01
     9.985  0.1259E+01
    10.010  0.1327E+01
    10.035  0.1500E+01
    10.060  0.1574E+01
    10.085  0.1498E+01
    10.110  0.1357E+01
    10.135  0.1283E+01
    10.160  0.1248E+01
    10.185  0.1307E+01
    10.210  0.1445E+01
    10.235  0.1539E+01
    10.260  0.1391E+01
    10.285  0.1314E+01
    10.310  0.1224E+01
    10.335  0.1247E+01
    10.360  0.1320E+01
    10.385  0.1264E+01
    10.410  0.1261E+01
    10.435  0.1246E+01
    10.460  0.1261E+01
    10.485  0.1367E+01
    10.510  0.1575E+01
    10.535  0.1568E+01
    10.560  0.1677E+01
    10.585  0.1631E+01
    10.610  0.1788E+01
    10.635  0.2133E+01
    10.660  0.2480E+01
    10.685  0.2374E+01
    10.710  0.1999E+01
    10.735  0.1629E+01
    10.760  0.1435E+01
    10.785  0.1242E+01
    10.810  0.1231E+01
    10.835  0.1149E+01
    10.860  0.1240E+01
    10.885  0.1361E+01
    10.910  0.1421E+01
    10.935  0.1412E+01
    10.960  0.1468E+01
    10.985  0.1458E+01
    11.010  0.1513E+01
    11.035  0.1413E+01
    11.060  0.1464E+01
    11.085  0.1435E+01
    11.110  0.1449E+01
    11.135  0.1613E+01
    11.160  0.1613E+01
    11.185  0.1508E+01
    11.210  0.1400E+01
    11.235  0.1279E+01
    11.260  0.1357E+01
    11.285  0.1434E+01
    11.310  0.1538E+01
    11.335  0.1455E+01
    11.360  0.1383E+01
    11.385  0.1433E+01
    11.410  0.1486E+01
    11.435  0.1517E+01
    11.460  0.1428E+01
    11.485  0.1322E+01
    11.510  0.1341E+01
    11.535  0.1425E+01
    11.560  0.1382E+01
    11.585  0.1537E+01
    11.610  0.1540E+01
    11.635  0.1706E+01
    11.660  0.1552E+01
    11.685  0.1455E+01
    11.710  0.1489E+01
    11.735  0.1409E+01
    11.760  0.1487E+01
    11.785  0.1584E+01
    11.810  0.1629E+01
    11.835  0.1658E+01
    11.860  0.1656E+01
    11.885  0.1536E+01
    11.910  0.1603E+01
    11.935  0.1557E+01
    11.960  0.1542E+01
    11.985  0.1498E+01
    12.010  0.1514E+01
    12.035  0.1460E+01
    12.060  0.1451E+01
    12.085  0.1409E+01
    12.110  0.1389E+01
    12.135  0.1364E+01
    12.160  0.1397E+01
    12.185  0.1445E+01
    12.210  0.1551E+01
    12.235  0.1544E+01
    12.260  0.1543E+01
    12.285  0.1487E+01
    12.310  0.1418E+01
    12.335  0.1439E+01
    12.360  0.1490E+01
    12.385  0.1589E+01
    12.410  0.1600E+01
    12.435  0.1475E+01
    12.460  0.1474E+01
    12.485  0.1436E+01
    12.510  0.1380E+01
    12.535  0.1458E+01
    12.560  0.1509E+01
    12.585  0.1684E+01
    12.610  0.1765E+01
    12.635  0.1650E+01
    12.660  0.1640E+01
    12.685  0.1582E+01
    12.710  0.1690E+01
    12.735  0.1786E+01
    12.760  0.1722E+01
    12.785  0.1810E+01
    12.810  0.1850E+01
    12.835  0.1907E+01
    12.860  0.1895E+01
    12.885  0.1902E+01
    12.910  0.1752E+01
    12.935  0.1740E+01
    12.960  0.1805E+01
    12.985  0.1931E+01
    13.010  0.1910E+01
    13.035  0.1844E+01
    13.060  0.1708E+01
    13.085  0.1736E+01
    13.110  0.1754E+01
    13.135  0.1823E+01
    13.160  0.2038E+01
    13.185  0.2033E+01
    13.210  0.1981E+01
    13.235  0.1910E+01
    13.260  0.1992E+01
    13.285  0.1994E+01
    13.310  0.2061E+01
    13.335  0.2074E+01
    13.360  0.2130E+01
    13.385  0.2072E+01
    13.410  0.1929E+01
    13.435  0.1781E+01
    13.460  0.1794E+01
    13.485  0.1897E+01
    13.510  0.1852E+01
    13.535  0.1869E+01
    13.560  0.1867E+01
    13.585  0.1808E+01
    13.610  0.1872E+01
    13.635  0.2031E+01
    13.660  0.2224E+01
    13.685  0.2131E+01
    13.710  0.2121E+01
    13.735  0.2021E+01
    13.760  0.1913E+01
    13.785  0.1907E+01
    13.810  0.1921E+01
    13.835  0.1875E+01
    13.860  0.1861E+01
    13.885  0.1846E+01
    13.910  0.1904E+01
    13.935  0.1938E+01
    13.960  0.1985E+01
    13.985  0.2076E+01
    14.010  0.1998E+01
    14.035  0.2025E+01
    14.060  0.2115E+01
    14.085  0.2156E+01
    14.110  0.2114E+01
    14.135  0.1984E+01
    14.160  0.2038E+01
    14.185  0.2032E+01
    14.210  0.2104E+01
    14.235  0.2100E+01
    14.260  0.2126E+01
    14.285  0.2188E+01
    14.310  0.2101E+01
    14.335  0.1958E+01
    14.360  0.1947E+01
    14.385  0.1947E+01
    14.410  0.1997E+01
    14.435  0.2081E+01
    14.460  0.2175E+01
    14.485  0.2146E+01
    14.510  0.2130E+01
    14.535  0.2087E+01
    14.560  0.2062E+01
    14.585  0.2004E+01
    14.610  0.1988E+01
    14.635  0.2050E+01
    14.660  0.2054E+01
    14.685  0.2044E+01
    14.710  0.2115E+01
    14.735  0.2231E+01
    14.760  0.2143E+01
    14.785  0.2152E+01
    14.810  0.1975E+01
    14.835  0.2032E+01
    14.860  0.2014E+01
    14.885  0.2086E+01
    14.910  0.2039E+01
    14.935  0.1997E+01
    14.960  0.1974E+01
    14.985  0.1900E+01
    15.010  0.1978E+01
    15.035  0.1970E+01
    15.060  0.2018E+01
    15.085  0.2082E+01
    15.110  0.2052E+01
    15.135  0.1984E+01
    15.160  0.2011E+01
    15.185  0.2123E+01
    15.210  0.2080E+01
    15.235  0.2112E+01
    15.260  0.2191E+01
    15.285  0.2121E+01
    15.310  0.2205E+01
    15.335  0.2256E+01
    15.360  0.2264E+01
    15.385  0.2281E+01
    15.410  0.2232E+01
    15.435  0.2157E+01
    15.460  0.2098E+01
    15.485  0.2228E+01
    15.510  0.2149E+01
    15.535  0.2243E+01
    15.560  0.2293E+01
    15.585  0.2400E+01
    15.610  0.2361E+01
    15.635  0.2340E+01
    15.660  0.2222E+01
    15.685  0.2248E+01
    15.710  0.2190E+01
    15.735  0.2240E+01
    15.760  0.2230E+01
    15.785  0.2321E+01
    15.810  0.2251E+01
    15.835  0.2273E+01
    15.860  0.2354E+01
    15.885  0.2331E+01
    15.910  0.2313E+01
    15.935  0.2373E+01
    15.960  0.2448E+01
    15.985  0.2415E+01
    16.010  0.2498E+01
    16.035  0.2432E+01
    16.060  0.2447E+01
    16.085  0.2451E+01
    16.110  0.2377E+01
    16.135  0.2352E+01
    16.160  0.2277E+01
    16.185  0.2275E+01
    16.210  0.2309E+01
    16.235  0.2434E+01
    16.260  0.2438E+01
    16.285  0.2497E+01
    16.310  0.2428E+01
    16.335  0.2468E+01
    16.360  0.2346E+01
    16.385  0.2442E+01
    16.410  0.2413E+01
    16.435  0.2380E+01
    16.460  0.2395E+01
    16.485  0.2388E+01
    16.510  0.2285E+01
    16.535  0.2352E+01
    16.560  0.2318E+01
    16.585  0.2598E+01
    16.610  0.2396E+01
    16.635  0.2537E+01
    16.660  0.2447E+01
    16.685  0.2382E+01
    16.710  0.2281E+01
    16.735  0.2399E+01
    16.760  0.2477E+01
    16.785  0.2323E+01
    16.810  0.2464E+01
    16.835  0.2530E+01
    16.860  0.2471E+01
    16.885  0.2499E+01
    16.910  0.2429E+01
    16.935  0.2415E+01
    16.960  0.2248E+01
    16.985  0.2290E+01
    17.010  0.2251E+01
    17.035  0.2267E+01
    17.060  0.2295E+01
    17.085  0.2467E+01
    17.110  0.2508E+01
    17.135  0.2427E+01
    17.160  0.2509E+01
    17.185  0.2565E+01
    17.210  0.2477E+01
    17.235  0.2525E+01
    17.260  0.2451E+01
    17.285  0.2413E+01
    17.310  0.2304E+01
    17.335  0.2343E+01
    17.360  0.2310E+01
    17.385  0.2404E+01
    17.410  0.2221E+01
    17.435  0.2220E+01
    17.460  0.2318E+01
    17.485  0.2430E+01
    17.510  0.2329E+01
    17.535  0.2346E+01
    17.560  0.2338E+01
    17.585  0.2286E+01
    17.610  0.2310E+01
    17.635  0.2225E+01
    17.660  0.2276E+01
    17.685  0.2306E+01
    17.710  0.2330E+01
    17.735  0.2343E+01
    17.760  0.2292E+01
    17.785  0.2325E+01
    17.810  0.2314E+01
    17.835  0.2314E+01
    17.860  0.2412E+01
    17.885  0.2379E+01
    17.910  0.2306E+01
    17.935  0.2344E+01
    17.960  0.2362E+01
    17.985  0.2274E+01
    18.010  0.2297E+01
    18.035  0.2206E+01
    18.060  0.2201E+01
    18.085  0.2282E+01
    18.110  0.2213E+01
    18.135  0.2144E+01
    18.160  0.2259E+01
    18.185  0.2233E+01
    18.210  0.2198E+01
    18.235  0.2193E+01
    18.260  0.2255E+01
    18.285  0.2154E+01
    18.310  0.2260E+01
    18.335  0.2322E+01
    18.360  0.2234E+01
    18.385  0.2250E+01
    18.410  0.2291E+01
    18.435  0.2247E+01
    18.460  0.2181E+01
    18.485  0.2192E+01
    18.510  0.2121E+01
    18.535  0.2125E+01
    18.560  0.2102E+01
    18.585  0.2199E+01
    18.610  0.2235E+01
    18.635  0.2184E+01
    18.660  0.2139E+01
    18.685  0.2195E+01
    18.710  0.2155E+01
    18.735  0.2212E+01
    18.760  0.2236E+01
    18.785  0.2216E+01
    18.810  0.2136E+01
    18.835  0.2115E+01
    18.860  0.2133E+01
    18.885  0.2176E+01
    18.910  0.2150E+01
    18.935  0.2181E+01
    18.960  0.2103E+01
    18.985  0.2156E+01
    19.010  0.2127E+01
    19.035  0.2134E+01
    19.060  0.2031E+01
    19.085  0.1946E+01
    19.110  0.2094E+01
    19.135  0.2064E+01
    19.160  0.2185E+01
    19.185  0.2150E+01
    19.210  0.2126E+01
    19.235  0.2236E+01
    19.260  0.2108E+01
    19.285  0.2147E+01
    19.310  0.2063E+01
    19.335  0.2058E+01
    19.360  0.2185E+01
    19.385  0.2114E+01
    19.410  0.2104E+01
    19.435  0.2015E+01
    19.460  0.2070E+01
    19.485  0.2041E+01
    19.510  0.2012E+01
    19.535  0.2100E+01
    19.560  0.2003E+01
    19.585  0.1951E+01
    19.610  0.2025E+01
    19.635  0.2066E+01
    19.660  0.2102E+01
    19.685  0.2095E+01
    19.710  0.2074E+01
    19.735  0.2038E+01
    19.760  0.2118E+01
    19.785  0.2018E+01
    19.810  0.2059E+01
    19.835  0.2019E+01
    19.860  0.2007E+01
    19.885  0.2152E+01
    19.910  0.2120E+01
    19.935  0.2113E+01
    19.960  0.2007E+01
    19.985  0.2160E+01
    20.010  0.2054E+01
    20.035  0.2016E+01
    20.060  0.2106E+01
    20.085  0.2122E+01
    20.110  0.1956E+01
    20.135  0.2038E+01
    20.160  0.1936E+01
    20.185  0.2031E+01
    20.210  0.1930E+01
    20.235  0.2001E+01
    20.260  0.1987E+01
    20.285  0.2050E+01
    20.310  0.2017E+01
    20.335  0.1954E+01
    20.360  0.1955E+01
    20.385  0.1966E+01
    20.410  0.1879E+01
    20.435  0.1925E+01
    20.460  0.1968E+01
    20.485  0.1882E+01
    20.510  0.1971E+01
    20.535  0.1942E+01
    20.560  0.1992E+01
    20.585  0.1870E+01
    20.610  0.1914E+01
    20.635  0.1861E+01
    20.660  0.1830E+01
    20.685  0.1911E+01
    20.710  0.1900E+01
    20.735  0.1952E+01
    20.760  0.1904E+01
    20.785  0.1884E+01
    20.810  0.1950E+01
    20.835  0.1851E+01
    20.860  0.1905E+01
    20.885  0.1931E+01
    20.910  0.1919E+01
    20.935  0.1809E+01
    20.960  0.1967E+01
    20.985  0.2004E+01
    21.010  0.2089E+01
    21.035  0.2157E+01
    21.060  0.1939E+01
    21.085  0.1864E+01
    21.110  0.1920E+01
    21.135  0.1912E+01
    21.160  0.1857E+01
    21.185  0.1892E+01
    21.210  0.1952E+01
    21.235  0.1908E+01
    21.260  0.1902E+01
    21.285  0.1917E+01
    21.310  0.1781E+01
    21.335  0.1852E+01
    21.360  0.1863E+01
    21.385  0.1828E+01
    21.410  0.1937E+01
    21.435  0.1840E+01
    21.460  0.1766E+01
    21.485  0.1873E+01
    21.510  0.1837E+01
    21.535  0.1821E+01
    21.560  0.1820E+01
    21.585  0.1794E+01
    21.610  0.1804E+01
    21.635  0.1830E+01
    21.660  0.1799E+01
    21.685  0.1870E+01
    21.710  0.1805E+01
    21.735  0.1832E+01
    21.760  0.1796E+01
    21.785  0.1811E+01
    21.810  0.1807E+01
    21.835  0.1849E+01
    21.860  0.1859E+01
    21.885  0.1775E+01
    21.910  0.1829E+01
    21.935  0.1838E+01
    21.960  0.1827E+01
    21.985  0.1828E+01
    22.010  0.1851E+01
    22.035  0.1820E+01
    22.060  0.1762E+01
    22.085  0.1776E+01
    22.110  0.1775E+01
    22.135  0.1719E+01
    22.160  0.1751E+01
    22.185  0.1794E+01
    22.210  0.1737E+01
    22.235  0.1690E+01
    22.260  0.1717E+01
    22.285  0.1776E+01
    22.310  0.1862E+01
    22.335  0.1799E+01
    22.360  0.1814E+01
    22.385  0.1769E+01
    22.410  0.1823E+01
    22.435  0.1825E+01
    22.460  0.1752E+01
    22.485  0.1718E+01
    22.510  0.1790E+01
    22.535  0.1738E+01
    22.560  0.1793E+01
    22.585  0.1738E+01
    22.610  0.1733E+01
    22.635  0.1802E+01
    22.660  0.1748E+01
    22.685  0.1758E+01
    22.710  0.1738E+01
    22.735  0.1788E+01
    22.760  0.1714E+01
    22.785  0.1816E+01
    22.810  0.1759E+01
    22.835  0.1693E+01
    22.860  0.1839E+01
    22.885  0.1832E+01
    22.910  0.1803E+01
    22.935  0.1767E+01
    22.960  0.1788E+01
    22.985  0.1773E+01
    23.010  0.1785E+01
    23.035  0.1798E+01
    23.060  0.1753E+01
    23.085  0.1783E+01
    23.110  0.1755E+01
    23.135  0.1784E+01
    23.160  0.1769E+01
    23.185  0.1838E+01
    23.210  0.1787E+01
    23.235  0.1808E+01
    23.260  0.1714E+01
    23.285  0.1806E+01
    23.310  0.1744E+01
    23.335  0.1802E+01
    23.360  0.1761E+01
    23.385  0.1753E+01
    23.410  0.1763E+01
    23.435  0.1781E+01
    23.460  0.1797E+01
    23.485  0.1786E+01
    23.510  0.1779E+01
    23.535  0.1729E+01
    23.560  0.1698E+01
    23.585  0.1792E+01
    23.610  0.1814E+01
    23.635  0.1795E+01
    23.660  0.1890E+01
    23.685  0.1809E+01
    23.710  0.1886E+01
    23.735  0.1816E+01
    23.760  0.1773E+01
    23.785  0.1804E+01
    23.810  0.1838E+01
    23.835  0.1807E+01
    23.860  0.1759E+01
    23.885  0.1804E+01
    23.910  0.1813E+01
    23.935  0.1860E+01
    23.960  0.1862E+01
    23.985  0.1744E+01
    24.010  0.1799E+01
    24.035  0.1803E+01
    24.060  0.1803E+01
    24.085  0.1755E+01
    24.110  0.1812E+01
    24.135  0.1795E+01
    24.160  0.1829E+01
    24.185  0.1728E+01
    24.210  0.1779E+01
    24.235  0.1853E+01
    24.260  0.1768E+01
    24.285  0.1737E+01
    24.310  0.1708E+01
    24.335  0.1846E+01
    24.360  0.1694E+01
    24.385  0.1858E+01
    24.410  0.1800E+01
    24.435  0.1741E+01
    24.460  0.1654E+01
    24.485  0.1711E+01
    24.510  0.1766E+01
    24.535  0.1839E+01
    24.560  0.1816E+01
    24.585  0.1798E+01
    24.610  0.1709E+01
    24.635  0.1758E+01
    24.660  0.1889E+01
    24.685  0.1765E+01
    24.710  0.1766E+01
    24.735  0.1732E+01
    24.760  0.1786E+01
    24.785  0.1794E+01
    24.810  0.1794E+01
    24.835  0.1760E+01
    24.860  0.1773E+01
    24.885  0.1755E+01
    24.910  0.1771E+01
    24.935  0.1768E+01
    24.960  0.1755E+01
    24.985  0.1706E+01
    25.010  0.1751E+01
    25.035  0.1771E+01
    25.060  0.1791E+01
    25.085  0.1750E+01
    25.110  0.1746E+01
    25.135  0.1789E+01
    25.160  0.1757E+01
    25.185  0.1794E+01
    25.210  0.1776E+01
    25.235  0.1730E+01
    25.260  0.1757E+01
    25.285  0.1777E+01
    25.310  0.1735E+01
    25.335  0.1720E+01
    25.360  0.1772E+01
    25.385  0.1738E+01
    25.410  0.1856E+01
    25.435  0.1814E+01
    25.460  0.1725E+01
    25.485  0.1825E+01
    25.510  0.1738E+01
    25.535  0.1809E+01
    25.560  0.1787E+01
    25.585  0.1693E+01
    25.610  0.1785E+01
    25.635  0.1756E+01
    25.660  0.1827E+01
    25.685  0.1759E+01
    25.710  0.1801E+01
    25.735  0.1789E+01
    25.760  0.1731E+01
    25.785  0.1670E+01
    25.810  0.1734E+01
    25.835  0.1780E+01
    25.860  0.1712E+01
    25.885  0.1692E+01
    25.910  0.1724E+01
    25.935  0.1795E+01
    25.960  0.1722E+01
    25.985  0.1709E+01
    26.010  0.1827E+01
    26.035  0.1777E+01
    26.060  0.1802E+01
    26.085  0.1834E+01
    26.110  0.1832E+01
    26.135  0.1769E+01
    26.160  0.1786E+01
    26.185  0.1728E+01
    26.210  0.1737E+01
    26.235  0.1782E+01
    26.260  0.1762E+01
    26.285  0.1856E+01
    26.310  0.1777E+01
    26.335  0.1781E+01
    26.360  0.1807E+01
    26.385  0.1807E+01
    26.410  0.1744E+01
    26.435  0.1818E+01
    26.460  0.1814E+01
    26.485  0.1824E+01
    26.510  0.1773E+01
    26.535  0.1790E+01
    26.560  0.1784E+01
    26.585  0.1796E+01
    26.610  0.1801E+01
    26.635  0.1803E+01
    26.660  0.1847E+01
    26.685  0.1812E+01
    26.710  0.1791E+01
    26.735  0.1768E+01
    26.760  0.1783E+01
    26.785  0.1786E+01
    26.810  0.1728E+01
    26.835  0.1852E+01
    26.860  0.1771E+01
    26.885  0.1817E+01
    26.910  0.1706E+01
    26.935  0.1739E+01
    26.960  0.1704E+01
    26.985  0.1772E+01
    27.010  0.1764E+01
    27.035  0.1801E+01
    27.060  0.1721E+01
    27.085  0.1799E+01
    27.110  0.1730E+01
    27.135  0.1787E+01
    27.160  0.1754E+01
    27.185  0.1802E+01
    27.210  0.1790E+01
    27.235  0.1734E+01
    27.260  0.1800E+01
    27.285  0.1714E+01
    27.310  0.1796E+01
    27.335  0.1950E+01
    27.360  0.1800E+01
    27.385  0.1781E+01
    27.410  0.1839E+01
    27.435  0.1768E+01
    27.460  0.1800E+01
    27.485  0.1704E+01
    27.510  0.1804E+01
    27.535  0.1782E+01
    27.560  0.1779E+01
    27.585  0.1775E+01
    27.610  0.1752E+01
    27.635  0.1745E+01
    27.660  0.1768E+01
    27.685  0.1819E+01
    27.710  0.1781E+01
    27.735  0.1794E+01
    27.760  0.1765E+01
    27.785  0.1726E+01
    27.810  0.1792E+01
    27.835  0.1814E+01
    27.860  0.1820E+01
    27.885  0.1737E+01
    27.910  0.1807E+01
    27.935  0.1709E+01
    27.960  0.1767E+01
    27.985  0.1817E+01
    28.010  0.1840E+01
    28.035  0.1794E+01
    28.060  0.1830E+01
    28.085  0.1711E+01
    28.110  0.1785E+01
    28.135  0.1755E+01
    28.160  0.1730E+01
    28.185  0.1780E+01
    28.210  0.1752E+01
    28.235  0.1747E+01
    28.260  0.1725E+01
    28.285  0.1839E+01
    28.310  0.1791E+01
    28.335  0.1723E+01
    28.360  0.1809E+01
    28.385  0.1754E+01
    28.410  0.1710E+01
    28.435  0.1805E+01
    28.460  0.1779E+01
    28.485  0.1784E+01
    28.510  0.1769E+01
    28.535  0.1812E+01
    28.560  0.1788E+01
    28.585  0.1793E+01
    28.610  0.1848E+01
    28.635  0.1831E+01
    28.660  0.1750E+01
    28.685  0.1788E+01
    28.710  0.1872E+01
    28.735  0.1829E+01
    28.760  0.1782E+01
    28.785  0.1877E+01
    28.810  0.1830E+01
    28.835  0.1776E+01
    28.860  0.1788E+01
    28.885  0.1785E+01
    28.910  0.1839E+01
    28.935  0.1759E+01
    28.960  0.1783E+01
    28.985  0.1829E+01
    29.010  0.1827E+01
    29.035  0.1839E+01
    29.060  0.1766E+01
    29.085  0.1799E+01
    29.110  0.1806E+01
    29.135  0.1770E+01
    29.160  0.1764E+01
    29.185  0.1852E+01
    29.210  0.1742E+01
    29.235  0.1760E+01
    29.260  0.1705E+01
    29.285  0.1809E+01
    29.310  0.1772E+01
    29.335  0.1841E+01
    29.360  0.1761E+01
    29.385  0.1763E+01
    29.410  0.1805E+01
    29.435  0.1753E+01
    29.460  0.1730E+01
    29.485  0.1772E+01
    29.510  0.1734E+01
    29.535  0.1793E+01
    29.560  0.1769E+01
    29.585  0.1773E+01
    29.610  0.1742E+01
    29.635  0.1707E+01
    29.660  0.1802E+01
    29.685  0.1813E+01
    29.710  0.1762E+01
    29.735  0.1754E+01
    29.760  0.1734E+01
    29.785  0.1725E+01
    29.810  0.1820E+01
    29.835  0.1800E+01
    29.860  0.1781E+01
    29.885  0.1778E+01
    29.910  0.1788E+01
    29.935  0.1760E+01
    29.960  0.1759E+01
    29.985  0.1760E+01
    30.010  0.1791E+01
    30.035  0.1712E+01
    30.060  0.1751E+01
    30.085  0.1739E+01
    30.110  0.1752E+01
    30.135  0.1757E+01
    30.160  0.1774E+01
    30.185  0.1745E+01
    30.210  0.1807E+01
    30.235  0.1734E+01
    30.260  0.1729E+01
    30.285  0.1765E+01
ENDDATA           1202
ENDSUBENT         1212
SUBENT        D0350003   20050517   20051216                  D042
BIB                  2          2
REACTION   (28-NI-58(P,EL)28-NI-58,,DA,,RTH)
ERR-ANALYS (DATA-ERR) Relative error
ENDBIB               2
NOCOMMON             0          0
DATA                 3         28
ANG        DATA       DATA-ERR
ADEG       NO-DIM     NO-DIM
     3.720  0.2568E+00 0.7238E-03
     4.230  0.2761E+00 0.9694E-03
     4.740  0.3218E+00 0.1468E-02
     5.000  0.3670E+00 0.8201E-03
     5.250  0.3895E+00 0.2108E-02
     5.510  0.4567E+00 0.1136E-02
     5.760  0.4973E+00 0.2929E-02
     6.020  0.5663E+00 0.1561E-02
     6.530  0.6865E+00 0.2044E-02
     7.040  0.8143E+00 0.2586E-02
     7.550  0.1085E+01 0.3616E-02
     9.080  0.1105E+01 0.4350E-02
     9.590  0.1137E+01 0.4758E-02
    10.100  0.1115E+01 0.5036E-02
    10.610  0.1042E+01 0.5118E-02
    11.120  0.9560E+00 0.5175E-02
    11.630  0.9824E+00 0.5752E-02
    15.400  0.1213E+00 0.1261E-02
    15.910  0.1203E+00 0.1381E-02
    16.420  0.1417E+00 0.1522E-02
    16.930  0.1976E+00 0.2086E-02
    17.440  0.2576E+00 0.2336E-02
    18.060  0.5390E+00 0.2593E-02
    18.570  0.5986E+00 0.2036E-02
    19.080  0.7122E+00 0.2346E-02
    19.590  0.8116E+00 0.2640E-02
    20.100  0.8853E+00 0.2903E-02
    20.610  0.9729E+00 0.3228E-02
ENDDATA             30
ENDSUBENT           37
SUBENT        D0350004   20050517   20051216                  D042
BIB                  2          2
REACTION   (28-NI-58(P,EL)28-NI-58,,POL/DA,,ANA)
ERR-ANALYS (DATA-ERR) Relative error
ENDBIB               2
NOCOMMON             0          0
DATA                 3         17
ANG        DATA       DATA-ERR
ADEG       NO-DIM     NO-DIM
     3.720  0.8600E-01 0.4300E-02
     4.230  0.1740E+00 0.6000E-02
     4.740  0.2690E+00 0.8500E-02
     5.000  0.3760E+00 0.3000E-01
     5.250  0.3470E+00 0.1070E-01
     5.510  0.4310E+00 0.3300E-01
     5.760  0.3960E+00 0.1200E-01
     6.020  0.4730E+00 0.2800E-01
     6.530  0.4990E+00 0.3300E-01
     7.040  0.5210E+00 0.2700E-01
     7.550  0.5680E+00 0.2700E-01
     9.080  0.5800E+00 0.1620E-01
     9.590  0.6050E+00 0.1710E-01
    10.100  0.6370E+00 0.1810E-01
    10.610  0.6660E+00 0.1910E-01
    11.120  0.7020E+00 0.2040E-01
    11.630  0.7450E+00 0.2190E-01
ENDDATA             19
ENDSUBENT           26
SUBENT        D0350005   20050517   20051216                  D042
BIB                  3          3
REACTION   (28-NI-58(P,INL)28-NI-58,PAR,DA)
EN-SEC     (E-LVL,28-NI-58)
ERR-ANALYS (DATA-ERR) Relative error
ENDBIB               3
NOCOMMON             0          0
DATA                 4        150
E-LVL      ANG        DATA       DATA-ERR
MEV        ADEG       MB/SR      MB/SR
  1.454         3.720  0.9810E+00 0.2520E+00
  1.454         4.230  0.1241E+01 0.1020E+00
  1.454         4.740  0.1335E+01 0.1130E+00
  1.454         5.000  0.1514E+01 0.3860E-01
  1.454         5.260  0.1679E+01 0.1280E+00
  1.454         5.510  0.1768E+01 0.4100E-01
  1.454         5.770  0.2098E+01 0.2740E+00
  1.454         6.020  0.2225E+01 0.4630E-01
  1.454         6.530  0.2753E+01 0.5090E-01
  1.454         7.040  0.4133E+01 0.6550E-01
  1.454         7.550  0.5398E+01 0.7600E-01
  1.454         9.080  0.8232E+01 0.1370E+00
  1.454         9.080  0.7200E+01 0.1370E+00
  1.454         9.590  0.7891E+01 0.1490E+00
  1.454         9.590  0.8735E+01 0.1490E+00
  1.454        10.100  0.9034E+01 0.1630E+00
  1.454        10.100  0.8637E+01 0.1630E+00
  1.454        10.610  0.8805E+01 0.1710E+00
  1.454        10.610  0.9285E+01 0.1710E+00
  1.454        11.120  0.9566E+01 0.1810E+00
  1.454        11.120  0.9149E+01 0.1810E+00
  1.454        11.630  0.8731E+01 0.1780E+00
  1.454        11.630  0.1105E+02 0.1780E+00
  1.454        15.910  0.4264E+01 0.9400E-01
  1.454        16.420  0.3599E+01 0.8800E-01
  1.454        16.930  0.2619E+01 0.6700E-01
  1.454        17.440  0.2021E+01 0.6000E-01
  1.454        18.060  0.1965E+01 0.4300E-01
  1.454        18.060  0.1978E+01 0.3200E-01
  1.454        18.570  0.1381E+01 0.1900E-01
  1.454        18.570  0.1566E+01 0.2800E-01
  1.454        19.080  0.1090E+01 0.1700E-01
  1.454        19.590  0.8910E+00 0.1500E-01
  1.454        20.100  0.8350E+00 0.1500E-01
  1.454        20.610  0.8420E+00 0.8000E-02
  1.454        20.610  0.8700E+00 0.1500E-01
  2.46          9.080  0.5100E-01 0.6000E-02
  2.46          9.590  0.6900E-01 0.5000E-02
  2.46         10.100  0.9000E-01 0.7000E-02
  2.46         10.610  0.9800E-01 0.4000E-02
  2.46         11.120  0.1270E+00 0.4000E-02
  2.46         11.630  0.1730E+00 0.2000E-01
  2.46         15.400  0.4400E+00 0.1100E-01
  2.46         15.910  0.4590E+00 0.1100E-01
  2.46         16.420  0.4890E+00 0.1100E-01
  2.46         16.930  0.5290E+00 0.1200E-01
  2.46         17.440  0.5700E+00 0.1400E-01
  2.46         18.060  0.6400E+00 0.1000E-01
  2.46         18.570  0.6050E+00 0.1100E-01
  2.46         19.080  0.5900E+00 0.1100E-01
  2.46         19.590  0.5720E+00 0.1100E-01
  2.46         20.100  0.5300E+00 0.1100E-01
  2.46         20.610  0.5960E+00 0.1100E-01
  3.04          4.230  0.9600E-01 0.8400E-01
  3.04          5.000  0.1070E+00 0.1100E-01
  3.04          5.260  0.1760E+00 0.8400E-01
  3.04          5.510  0.1060E+00 0.8000E-02
  3.04          6.020  0.1370E+00 0.4700E-01
  3.04          6.530  0.1940E+00 0.1300E-01
  3.04          7.040  0.2320E+00 0.1600E-01
  3.04          7.550  0.3820E+00 0.1800E-01
  3.04          9.080  0.6800E+00 0.1200E-01
  3.04          9.590  0.7180E+00 0.9000E-02
  3.04         10.100  0.7960E+00 0.1200E-01
  3.04         10.610  0.7760E+00 0.1300E-01
  3.04         11.120  0.8410E+00 0.8000E-01
  3.04         11.630  0.8970E+00 0.2700E-01
  3.04         15.400  0.4170E+00 0.1100E-01
  3.04         15.910  0.3600E+00 0.1000E-01
  3.04         16.420  0.2980E+00 0.1000E-01
  3.04         16.930  0.2440E+00 0.9000E-02
  3.04         17.440  0.2010E+00 0.9000E-02
  3.04         18.060  0.1650E+00 0.6000E-02
  3.04         18.570  0.1240E+00 0.5000E-02
  3.04         19.080  0.9200E-01 0.5000E-02
  3.04         19.590  0.6800E-01 0.4000E-02
  3.04         20.100  0.4300E-01 0.4000E-02
  3.04         20.610  0.3800E-01 0.4000E-02
  3.26          4.230  0.1600E+00 0.8000E-01
  3.26          5.000  0.1550E+00 0.1100E-01
  3.26          5.260  0.2360E+00 0.8000E-01
  3.26          5.510  0.1770E+00 0.9000E-02
  3.26          6.020  0.2550E+00 0.1200E-01
  3.26          6.530  0.2850E+00 0.1700E-01
  3.26          7.040  0.3740E+00 0.2200E-01
  3.26          7.550  0.5830E+00 0.2400E-01
  3.26          9.080  0.1006E+01 0.1400E-01
  3.26          9.590  0.1083E+01 0.1100E-01
  3.26         10.100  0.1069E+01 0.1200E-01
  3.26         10.610  0.1252E+01 0.2600E-01
  3.26         11.120  0.1316E+01 0.1000E+00
  3.26         11.630  0.1410E+01 0.3300E-01
  3.26         15.400  0.8250E+00 0.1500E-01
  3.26         15.910  0.7350E+00 0.1400E-01
  3.26         16.420  0.6140E+00 0.1300E-01
  3.26         16.930  0.4950E+00 0.1200E-01
  3.26         17.440  0.4140E+00 0.1100E-01
  3.26         18.060  0.4000E+00 0.8000E-02
  3.26         18.570  0.3180E+00 0.8000E-02
  3.26         19.080  0.2430E+00 0.7000E-02
  3.26         19.590  0.1840E+00 0.6000E-02
  3.26         20.100  0.1390E+00 0.6000E-02
  3.26         20.610  0.1130E+00 0.6000E-02
  4.475         5.510  0.1790E+00 0.4000E-01
  4.475         6.020  0.2480E+00 0.3200E-01
  4.475         6.530  0.2380E+00 0.1600E-01
  4.475         7.040  0.3830E+00 0.1900E-01
  4.475         7.550  0.4740E+00 0.1900E-01
  4.475         9.080  0.1338E+01 0.1700E-01
  4.475         9.590  0.1586E+01 0.1500E-01
  4.475        10.100  0.1891E+01 0.1600E-01
  4.475        10.610  0.2166E+01 0.1700E-01
  4.475        11.120  0.2455E+01 0.1900E-01
  4.475        11.630  0.2741E+01 0.2000E-01
  4.475        15.400  0.4113E+01 0.4500E-01
  4.475        15.910  0.3768E+01 0.5800E-01
  4.475        16.420  0.3533E+01 0.6000E-01
  4.475        16.930  0.3485E+01 0.1060E+00
  4.475        17.440  0.3304E+01 0.7000E-01
  4.475        18.060  0.3262E+01 0.4600E-01
  4.475        18.570  0.2720E+01 0.3100E-01
  4.475        19.080  0.2485E+01 0.3400E-01
  4.475        19.590  0.2083E+01 0.3100E-01
  4.475        20.100  0.1889E+01 0.3900E-01
  4.475        20.610  0.1707E+01 0.5300E-01
  4.75          4.230  0.2800E-01 0.2500E-01
  4.75          5.000  0.8200E-01 0.9000E-02
  4.75          5.260  0.4100E-01 0.2000E-02
  4.75          5.510  0.5200E-01 0.7000E-02
  4.75          6.020  0.6100E-01 0.8000E-02
  4.75          6.530  0.5100E-01 0.8000E-02
  4.75          7.040  0.7900E-01 0.1200E-01
  4.75          7.550  0.7100E-01 0.9000E-02
  4.75          9.080  0.1040E+00 0.5000E-02
  4.75          9.590  0.8400E-01 0.6000E-02
  4.75         10.100  0.1050E+00 0.4000E-02
  4.75         10.610  0.1280E+00 0.6000E-02
  4.75         11.120  0.1950E+00 0.1000E-01
  4.75         11.630  0.2830E+00 0.2300E-01
  4.75         15.400  0.5020E+00 0.1200E-01
  4.75         15.910  0.5740E+00 0.1200E-01
  4.75         16.420  0.5950E+00 0.1200E-01
  4.75         16.930  0.6370E+00 0.1300E-01
  4.75         17.440  0.6570E+00 0.1300E-01
  4.75         18.060  0.8070E+00 0.1100E-01
  4.75         18.570  0.7920E+00 0.1200E-01
  4.75         19.080  0.8170E+00 0.1300E-01
  4.75         19.590  0.8240E+00 0.1200E-01
  4.75         20.100  0.8300E+00 0.1300E-01
  4.75         20.610  0.7850E+00 0.1300E-01
ENDDATA            152
ENDSUBENT          160
SUBENT        D0350006   20050517   20051216                  D042
BIB                  3          3
REACTION   (28-NI-58(P,INL)28-NI-58,PAR,POL/DA,,ANA)
EN-SEC     (E-LVL,28-NI-58)
ERR-ANALYS (DATA-ERR) Relative error
ENDBIB               3
NOCOMMON             0          0
DATA                 4         69
E-LVL      ANG        DATA       DATA-ERR
MEV        ADEG       NO-DIM     NO-DIM
  1.454         3.720  0.8400E-01 0.7540E-01
  1.454         4.230  0.3040E+00 0.5170E-01
  1.454         4.740  0.2800E+00 0.5290E-01
  1.454         5.000  0.3320E+00 0.5390E-01
  1.454         5.260  0.4110E+00 0.4810E-01
  1.454         5.510  0.3490E+00 0.4090E-01
  1.454         5.770  0.3020E+00 0.3910E-01
  1.454         6.020  0.3450E+00 0.2700E-01
  1.454         6.530  0.3260E+00 0.2450E-01
  1.454         7.040  0.3690E+00 0.2120E-01
  1.454         7.550  0.3940E+00 0.1480E-01
  1.454         9.080  0.4460E+00 0.2290E-01
  1.454         9.590  0.4820E+00 0.2270E-01
  1.454        10.100  0.5200E+00 0.2250E-01
  1.454        10.610  0.5480E+00 0.2300E-01
  1.454        11.120  0.5690E+00 0.2350E-01
  1.454        11.630  0.5650E+00 0.2360E-01
  2.46          9.590  0.2000E+00 0.2300E+00
  2.46         10.100  0.1000E+00 0.1600E+00
  2.46         10.610  0.9000E-01 0.1330E+00
  2.46         11.120  0.2100E+00 0.9000E-01
  2.46         11.630  0.3000E+00 0.7100E-01
  3.04          5.000  0.3000E+00 0.1000E+00
  3.04          5.510  0.4000E+00 0.8000E-01
  3.04          6.020  0.1900E+00 0.8000E-01
  3.04          6.530  0.4700E+00 0.6000E-01
  3.04          7.040  0.3000E+00 0.6000E-01
  3.04          7.550  0.4120E+00 0.3500E-01
  3.04          9.080  0.5000E+00 0.2100E-01
  3.04          9.590  0.5500E+00 0.1900E-01
  3.04         10.100  0.5100E+00 0.2000E-01
  3.04         10.610  0.5200E+00 0.1900E-01
  3.04         11.120  0.5700E+00 0.1900E-01
  3.04         11.630  0.6100E+00 0.1800E-01
  3.26          5.000  0.3100E+00 0.7000E-01
  3.26          5.510  0.3000E+00 0.6000E-01
  3.26          6.020  0.5000E+00 0.6000E-01
  3.26          6.530  0.3800E+00 0.6000E-01
  3.26          7.040  0.3000E+00 0.5000E-01
  3.26          7.550  0.4600E+00 0.4000E-01
  3.26          9.080  0.4490E+00 0.1700E-01
  3.26          9.590  0.4600E+00 0.1700E-01
  3.26         10.100  0.5100E+00 0.2000E-01
  3.26         10.610  0.5000E+00 0.1600E-01
  3.26         11.120  0.5400E+00 0.1600E-01
  3.26         11.630  0.6100E+00 0.1500E-01
  4.475         5.510 -0.8000E-01 0.6000E-01
  4.475         6.020  0.7000E-01 0.6000E-01
  4.475         6.530  0.1500E+00 0.6000E-01
  4.475         7.040  0.1400E+00 0.5000E-01
  4.475         7.550  0.2700E+00 0.4000E-01
  4.475         9.080  0.3640E+00 0.1500E-01
  4.475         9.590  0.3800E+00 0.1400E-01
  4.475        10.100  0.4300E+00 0.1300E-01
  4.475        10.610  0.4310E+00 0.1200E-01
  4.475        11.120  0.4600E+00 0.1200E-01
  4.475        11.630  0.5200E+00 0.1300E-01
  4.75          5.000  0.8000E-02 0.1300E+00
  4.75          5.510 -0.1660E+00 0.1680E+00
  4.75          6.020  0.6600E-01 0.1630E+00
  4.75          6.530  0.4660E+00 0.1470E+00
  4.75          7.040  0.2260E+00 0.1620E+00
  4.75          7.550  0.2100E-01 0.1240E+00
  4.75          9.080  0.2300E+00 0.9700E-01
  4.75          9.590  0.1210E+00 0.9200E-01
  4.75         10.100  0.1560E+00 0.8600E-01
  4.75         10.610  0.1670E+00 0.7800E-01
  4.75         11.120  0.1590E+00 0.7300E-01
  4.75         11.630  0.3310E+00 0.6300E-01
ENDDATA             71
ENDSUBENT           79
ENDENTRY             6
