ENTRY            D0353   20140321   20141007   20140902       D094
SUBENT        D0353001   20140321   20141007   20140902       D094
BIB                 11         16
TITLE      The study of non-Rutherford backscattering of 4He from
            carbon
AUTHOR     (Shen Hao, Cheng Huan-Sheng, Tang Jia-Yong,
            Yang Fu-Jia)
INSTITUTE  (3CPRFUD)
REFERENCE  (J,ASI,43,1569,199410)
SAMPLE     A self-supporting carbon film (10 ug/cm2 thick) on
            which Au film (10 nm thick) was evaporated.
FACILITY   (VDGT,3CPRFUD) 3MV NEC 9SDH-2 Pelletron tandem
DETECTOR   (SOLST) Surface-barrier detectors
MONITOR    (79-AU-197(A,EL)79-AU-197,,DA)
ERR-ANALYS (DATA-ERR) No information on source of uncertainties
STATUS     (TABLE) Data submitted to IBANDL from the author
           (APRVD) Entry approved by Prof.Cheng Huan-Sheng
HISTORY    (20050516C) SD+Yu Hongwei
           (20140321U) On+CGC. BIB updated
ENDBIB              16
COMMON               3          3
ANG        ANG-ERR    EN-ERR
ADEG       ADEG       KEV
 170.        1.5        10.
ENDCOMMON            3
ENDSUBENT           23
SUBENT        D0353002   20050517   20051216   20051216       D042
BIB                  1          1
REACTION   (6-C-12(A,EL)6-C-12,,DA,,RTH)
ENDBIB               1
NOCOMMON             0          0
DATA                 3        177
EN         DATA       DATA-ERR
KEV        NO-DIM     NO-DIM
  5000.0     39.200
  5025.0     42.000
  5050.0     43.900
  5075.0     45.400
  5100.0     51.500
  5125.0     54.500
  5150.0     55.800
  5175.0     58.800
  5200.0     61.000
  5225.0     68.000
  5250.0     76.100
  5275.0     73.500
  5300.0     74.800
  5325.0     88.400
  5350.0     85.200
  5375.0     87.900
  5400.0     93.000
  5425.0     95.900
  5450.0     99.000
  5475.0     103.00
  5500.0     106.00
  5525.0     109.00
  5550.0     113.00
  5575.0     115.00
  5600.0     119.00
  5625.0     121.00
  5650.0     123.00
  5675.0     125.00       6.
  5700.0     123.00
  5725.0     122.00
  5750.0     116.00
  5775.0     99.400
  5800.0     48.400
  5825.0     30.800
  5850.0     38.500
  5875.0     45.800
  5900.0     57.300
  5925.0     64.400
  5950.0     65.000
  5975.0     68.700
  6000.0     69.900
  6025.0     72.700
  6050.0     73.500
  6075.0     74.900
  6100.0     76.100
  6125.0     71.900
  6150.0     75.900
  6175.0     67.600
  6200.0     65.500
  6225.0     67.500
  6250.0     64.600
  6275.0     62.100
  6300.0     62.100
  6325.0     59.900
  6350.0     61.400
  6375.0     60.200
  6400.0     58.900
  6425.0     57.400
  6450.0     56.400
  6475.0     56.300
  6500.0     54.700
  6525.0     58.000
  6575.0     56.600
  6600.0     55.100
  6625.0     55.800
  6650.0     55.700
  6675.0     55.600
  6700.0     55.600
  6725.0     53.500
  6750.0     57.200
  6775.0     59.400
  6800.0     63.200
  6825.0     64.700
  6850.0     69.200
  6875.0     74.900
  6900.0     65.300
  6925.0     71.100
  6950.0     76.300
  6975.0     84.600
  7000.0     87.200
  7025.0     72.700
  7050.0     52.100
  7075.0     36.600
  7100.0     29.900
  7125.0     26.600
  7150.0     28.100
  7175.0     26.900
  7200.0     30.100
  7225.0     29.600
  7250.0     32.200
  7275.0     34.500
  7300.0     35.900
  7320.0     38.700
  7340.0     47.900
  7360.0     41.500
  7380.0     41.400
  7400.0     41.400
  7420.0     44.800
  7440.0     44.800
  7460.0     45.500
  7480.0     46.400
  7500.0     48.900
  7520.0     51.200
  7540.0     51.200
  7560.0     52.000
  7580.0     58.200
  7600.0     60.800
  7620.0     59.400
  7640.0     61.400
  7660.0     60.200
  7680.0     67.400
  7700.0     70.700
  7720.0     75.300
  7740.0     75.400
  7760.0     71.200
  7780.0     71.300
  7800.0     66.100
  7820.0     62.300
  7840.0     53.700
  7860.0     42.500
  7880.0     31.200
  7900.0     21.200
  7920.0     11.400
  7940.0      7.360
  7960.0      7.940
  7980.0     11.400
  8000.0     14.300
  8020.0     15.100
  8040.0     14.700
  8060.0     14.100
  8080.0     12.400
  8100.0      9.700
  8120.0      4.100
  8140.0     10.00
  8160.0     22.400
  8180.0     24.600
  8200.0     22.400
  8220.0     22.400
  8240.0     23.400
  8260.0     22.200
  8280.0     20.600
  8300.0     20.700
  8320.0     22.000
  8340.0     22.000
  8360.0     23.700
  8380.0     23.100
  8400.0     24.100
  8420.0     24.300
  8440.0     25.300
  8460.0     25.800
  8480.0     25.300
  8500.0     25.600
  8520.0     24.800
  8540.0     27.100
  8560.0     24.300
  8580.0     27.400
  8600.0     27.700
  8620.0     25.000
  8640.0     26.500
  8660.0     27.000
  8680.0     27.300
  8700.0     26.300
  8720.0     26.500
  8740.0     25.700
  8760.0     26.000
  8780.0     25.600
  8800.0     23.400
  8820.0     22.900
  8840.0     20.900
  8860.0     18.000
  8880.0     13.000
  8900.0      9.790
  8920.0      4.950
  8940.0      3.410
  8960.0     11.700
  8980.0     42.900
  9000.0     75.400
ENDDATA            179
ENDSUBENT          185
ENDENTRY             2
