ENTRY            D6109   20110224   20110621   20110620       D077
SUBENT        D6109001   20110224   20110621   20110620       D077
BIB                 13         29
TITLE      Inclusive alpha-production cross section for the 6Li +
           90Zr system at energies near the fusion barrier
AUTHOR     (H.Kumawat,V.Jha,V.V.Parkar,B.J.Roy,S.Santra,V.Kumar,
           D.Dutta,P.Shukla,L.M.Pant,A.K.Mohanty, R.K.Choudhury,
           S.Kailas)
INSTITUTE  (3INDTRM)Nuclear Physics Division, Bhabha Atomic
           Research Centre, Mumbai 400085, India
REFERENCE  (J,PR/C,81,054601,2010)
           #doi:10.1103/PhysRevC.81.054601
FACILITY   (VDGT,3INDTRM)14UD Pelletron accelerator at the Bhabha
           Atomic Research Centre (BARC)/Tata Institute of
           Fundamental Research (TIFR) Facility in Mumbai, India.
SAMPLE     (40-ZR-90,ENR=0.99)400 microgram/cm**2, self-supported,
           enriched 90Zr target.
DETECTOR   (TELES,SIBAR,SIBAR)Charged particles were detected by
           four solid-state silicon surface barrier detectors in
           the dE + E telescopic arrangement. A monitor detector
           1000 micrometers thick was mounted at 22 deg. for
           absolute cross-section normalization.
METHOD     (EDE)
INC-SOURCE 6Li3+ beam at bombarding energies of 15, 17, 19, 21,
           25, and 30 MeV with beam intensities of 5 to 30 pnA.
MONITOR    (40-ZR-90(3-LI-6,EL)40-ZR-90,,DA,,RTH)
MONIT-REF  (D6068002,H.Kumawat,J,PR/C,78,044617,2008)
CORRECTION Beam energies were corrected for energy loss in half
           target thickness.
HISTORY    (20110223R)received from Dr. H. Kumawat
           (20110224C)compiled by Megha Bhike, Nuclear Physics
           Division, BARC.
ENDBIB              29
COMMON               1          3
ANG-NRM
ADEG
22.
ENDCOMMON            3
ENDSUBENT           36
SUBENT        D6109002   20110224   20110621   20110620       D077
BIB                  2          2
REACTION   (40-ZR-90(3-LI-6,X)2-HE-4,,DA/DE)
STATUS     (TABLE)data were received from Dr. H. Kumawat
ENDBIB               2
COMMON               1          3
EN
MEV
30.
ENDCOMMON            3
DATA                 3       1531
ANG        E          DATA
ADEG       MEV        MB/SR/MEV
        30.       0.15         0.
        30.      0.225         0.
        30.        0.3         0.
        30.      0.375         0.
        30.       0.45         0.
        30.      0.525         0.
        30.        0.6         0.
        30.      0.675         0.
        30.       0.75         0.
        30.      0.825         0.
        30.        0.9         0.
        30.      0.975         0.
        30.       1.05         0.
        30.      1.125         0.
        30.        1.2         0.
        30.      1.275         0.
        30.       1.35         0.
        30.      1.425         0.
        30.        1.5         0.
        30.      1.575         0.
        30.       1.65         0.
        30.      1.725         0.
        30.        1.8         0.
        30.      1.875         0.
        30.       1.95         0.
        30.      2.025         0.
        30.        2.1         0.
        30.      2.175         0.
        30.       2.25         0.
        30.      2.325         0.
        30.        2.4         0.
        30.      2.475         0.
        30.       2.55         0.
        30.      2.625         0.
        30.        2.7         0.
        30.      2.775         0.
        30.       2.85         0.
        30.      2.925         0.
        30.         3.         0.
        30.      3.075         0.
        30.       3.15         0.
        30.      3.225         0.
        30.        3.3         0.
        30.      3.375         0.
        30.       3.45         0.
        30.      3.525         0.
        30.        3.6         0.
        30.      3.675         0.
        30.       3.75         0.
        30.      3.825         0.
        30.        3.9         0.
        30.      3.975         0.
        30.       4.05         0.
        30.      4.125         0.
        30.        4.2         0.
        30.      4.275         0.
        30.       4.35         0.
        30.      4.425         0.
        30.        4.5         0.
        30.      4.575         0.
        30.       4.65         0.
        30.      4.725         0.
        30.        4.8         0.
        30.      4.875         0.
        30.       4.95         0.
        30.      5.025         0.
        30.        5.1         0.
        30.      5.175         0.
        30.       5.25         0.
        30.      5.325         0.
        30.        5.4         0.
        30.      5.475         0.
        30.       5.55         0.
        30.      5.625         0.
        30.        5.7         0.
        30.      5.775      0.298
        30.       5.85     0.8939
        30.      5.925     1.1919
        30.         6.     0.8939
        30.      6.075     2.0859
        30.       6.15     1.7879
        30.      6.225     1.4899
        30.        6.3     3.2778
        30.      6.375     2.3838
        30.       6.45     2.3838
        30.      6.525     2.9798
        30.        6.6     2.3838
        30.      6.675     5.3636
        30.       6.75     2.9798
        30.      6.825     2.3838
        30.        6.9     4.1717
        30.      6.975     2.6818
        30.       7.05     3.2778
        30.      7.125     2.9798
        30.        7.2     2.3838
        30.      7.275     4.1717
        30.       7.35     0.8939
        30.      7.425     1.4899
        30.        7.5     2.0859
        30.      7.575     4.1717
        30.       7.65     1.7879
        30.      7.725     3.5758
        30.        7.8     3.5758
        30.      7.875     3.2778
        30.       7.95     3.2778
        30.      8.025     3.5758
        30.        8.1     3.2778
        30.      8.175     1.4899
        30.       8.25     2.9798
        30.      8.325     2.6818
        30.        8.4     4.1717
        30.      8.475     4.1717
        30.       8.55     2.6818
        30.      8.625     2.3838
        30.        8.7     2.3838
        30.      8.775     2.3838
        30.       8.85     2.7879
        30.      8.925     3.8737
        30.         9.     2.3838
        30.      9.075     2.6818
        30.       9.15     4.7677
        30.      9.225     2.9798
        30.        9.3     2.3838
        30.      9.375     4.4697
        30.       9.45     5.3636
        30.      9.525     3.2778
        30.        9.6     2.6818
        30.      9.675     4.1717
        30.       9.75     4.4697
        30.      9.825     5.3636
        30.        9.9     5.0657
        30.      9.975     2.9798
        30.      10.05     2.9798
        30.     10.125     2.6818
        30.       10.2     6.5556
        30.     10.275     3.8737
        30.      10.35     4.7677
        30.     10.425     3.2778
        30.       10.5     3.8737
        30.     10.575     3.5758
        30.      10.65     2.9798
        30.     10.725     4.4697
        30.       10.8     3.8737
        30.     10.875     1.4899
        30.      10.95     4.1717
        30.     11.025     3.2778
        30.       11.1     2.0859
        30.     11.175     2.9798
        30.      11.25     5.0657
        30.     11.325     2.6818
        30.       11.4     1.7879
        30.     11.475     3.2778
        30.      11.55     5.0657
        30.     11.625     3.2778
        30.       11.7     5.0657
        30.     11.775     4.4697
        30.      11.85     4.7677
        30.     11.925     2.6818
        30.        12.     2.6818
        30.     12.075     1.7879
        30.      12.15     2.3838
        30.     12.225     5.0657
        30.       12.3     4.7677
        30.     12.375     5.9596
        30.      12.45     4.7677
        30.     12.525     2.3838
        30.       12.6     6.8535
        30.     12.675     3.8737
        30.      12.75     3.5758
        30.     12.825     4.4697
        30.       12.9     5.3636
        30.     12.975     2.3838
        30.      13.05     3.8737
        30.     13.125     5.0657
        30.       13.2     5.9596
        30.     13.275     3.5758
        30.      13.35     3.5758
        30.     13.425     3.5758
        30.       13.5     5.0657
        30.     13.575     4.1717
        30.      13.65     3.8737
        30.     13.725     6.8535
        30.       13.8     7.1515
        30.     13.875     5.9596
        30.      13.95     3.8737
        30.     14.025     5.0657
        30.       14.1     4.7677
        30.     14.175     7.1515
        30.      14.25     4.7677
        30.     14.325     5.0657
        30.       14.4     5.9596
        30.     14.475     6.5556
        30.      14.55     6.8535
        30.     14.625     5.6616
        30.       14.7     6.8535
        30.     14.775     5.9596
        30.      14.85     3.8737
        30.     14.925     7.4495
        30.        15.     8.3434
        30.     15.075     8.0455
        30.      15.15     5.0657
        30.     15.225     7.7475
        30.       15.3     9.2374
        30.     15.375     8.3434
        30.      15.45     5.3636
        30.     15.525     7.7475
        30.       15.6     9.2374
        30.     15.675     8.3434
        30.      15.75     8.0455
        30.     15.825     6.2576
        30.       15.9     8.9394
        30.     15.975     7.7475
        30.      16.05     8.6414
        30.     16.125     7.7475
        30.       16.2    10.7273
        30.     16.275     7.4495
        30.      16.35     8.0455
        30.     16.425    10.7273
        30.       16.5     8.9394
        30.     16.575    11.3233
        30.      16.65    12.5152
        30.     16.725    11.3233
        30.       16.8     6.8535
        30.     16.875     9.2374
        30.      16.95    11.0253
        30.     17.025    12.2172
        30.       17.1    11.6212
        30.     17.175     8.3434
        30.      17.25    12.5152
        30.     17.325     14.601
        30.       17.4    13.7071
        30.     17.475    13.1111
        30.      17.55    12.8132
        30.     17.625    12.2172
        30.       17.7    14.0051
        30.     17.775    14.0051
        30.      17.85    12.2172
        30.     17.925     15.197
        30.        18.     14.601
        30.     18.075    16.9849
        30.      18.15     15.495
        30.     18.225    14.3031
        30.       18.3     14.899
        30.     18.375     14.899
        30.      18.45    17.8788
        30.     18.525     15.495
        30.       18.6    16.3889
        30.     18.675    11.6212
        30.      18.75    21.1566
        30.     18.825     14.899
        30.       18.9    18.4748
        30.     18.975     15.793
        30.      19.05    13.7071
        30.     19.125    17.5808
        30.       19.2    14.0051
        30.     19.275    18.4748
        30.      19.35    16.6869
        30.     19.425     14.899
        30.       19.5    20.5606
        30.     19.575    18.4748
        30.      19.65    16.6869
        30.     19.725     15.495
        30.       19.8     15.495
        30.     19.875    21.7526
        30.      19.95     15.793
        30.     20.025    16.6869
        30.       20.1    19.3687
        30.     20.175    20.2627
        30.      20.25    16.6869
        30.     20.325     15.197
        30.       20.4    19.6667
        30.     20.475    19.9647
        30.      20.55    19.9647
        30.     20.625    19.3687
        30.       20.7    18.7728
        30.     20.775    19.0707
        30.      20.85    13.1111
        30.     20.925    16.6869
        30.        21.    14.3031
        30.     21.075     14.899
        30.      21.15    19.6667
        30.     21.225    16.9849
        30.       21.3    14.0051
        30.     21.375    16.0909
        30.      21.45    11.9192
        30.     21.525     15.793
        30.       21.6    13.4091
        30.     21.675    14.0051
        30.      21.75    16.0909
        30.     21.825    13.1111
        30.       21.9    14.0051
        30.     21.975    11.3233
        30.      22.05    11.0253
        30.     22.125    11.9192
        30.       22.2    12.5152
        30.     22.275    12.2172
        30.      22.35    13.4091
        30.     22.425    12.5152
        30.       22.5    10.1313
        30.     22.575    13.4091
        30.      22.65    11.6212
        30.     22.725    12.8132
        30.       22.8     9.2374
        30.     22.875    10.7273
        30.      22.95     8.3434
        30.     23.025     5.9596
        30.       23.1     9.5354
        30.     23.175     9.5354
        30.      23.25    11.3233
        30.     23.325     9.8333
        30.       23.4    11.3233
        30.     23.475     6.8535
        30.      23.55     8.0455
        30.     23.625     6.5556
        30.       23.7     9.8333
        30.     23.775    10.7273
        30.      23.85     8.6414
        30.     23.925     5.6616
        30.        24.     6.2576
        30.     24.075     5.9596
        30.      24.15     8.0455
        30.     24.225     6.5556
        30.       24.3     6.8535
        30.     24.375     5.9596
        30.      24.45     6.5556
        30.     24.525     5.6616
        30.       24.6     6.8535
        30.     24.675     5.3636
        30.      24.75     4.1717
        30.     24.825     7.7475
        30.       24.9     4.1717
        30.     24.975     6.8535
        30.      25.05     5.0657
        30.     25.125     4.1717
        30.       25.2     7.1515
        30.     25.275     3.8737
        30.      25.35     4.4697
        30.     25.425     5.6616
        30.       25.5     5.3636
        30.     25.575     3.5758
        30.      25.65     2.6818
        30.     25.725     7.1515
        30.       25.8     5.6616
        30.     25.875     4.1717
        30.      25.95     4.1717
        30.     26.025     3.2778
        30.       26.1     4.1717
        30.     26.175     1.7879
        30.      26.25     5.0657
        30.     26.325     4.7677
        30.       26.4     3.5758
        30.     26.475     3.5758
        30.      26.55     4.4697
        30.     26.625     5.6616
        30.       26.7     3.8737
        30.     26.775     2.9798
        30.      26.85     3.2778
        30.     26.925     1.7879
        30.        27.     1.4899
        30.     27.075     4.1717
        30.      27.15     2.6818
        30.     27.225     3.2778
        30.       27.3     2.9798
        30.     27.375     1.1919
        30.      27.45     2.0859
        30.     27.525     1.7879
        30.       27.6     2.6818
        30.     27.675     1.7879
        30.      27.75     2.6818
        30.     27.825     1.4899
        30.       27.9     2.3838
        30.     27.975     1.7879
        30.      28.05     1.1919
        30.     28.125     2.3838
        30.       28.2     2.9798
        30.     28.275     1.1919
        30.      28.35     1.1919
        30.     28.425     2.0859
        30.       28.5     1.7879
        30.     28.575     1.1919
        30.      28.65     0.8939
        30.     28.725     1.7879
        30.       28.8      0.596
        30.     28.875     0.8939
        30.      28.95     1.1919
        30.     29.025     1.4899
        30.       29.1      0.596
        30.     29.175     0.8939
        30.      29.25      0.596
        30.     29.325      0.298
        30.       29.4     1.1919
        30.     29.475     0.8939
        30.      29.55      0.596
        30.     29.625     1.1919
        30.       29.7     0.8939
        30.     29.775      0.596
        30.      29.85     1.1919
        30.     29.925      0.298
        30.        30.     0.8939
        30.     30.075      0.298
        30.      30.15      0.298
        30.     30.225      0.298
        30.       30.3      0.298
        30.     30.375      0.298
        30.      30.45      0.298
        30.     30.525      0.298
        30.       30.6     0.8939
        30.     30.675     0.8939
        30.      30.75         0.
        30.     30.825      0.298
        30.       30.9         0.
        30.     30.975         0.
        30.      31.05         0.
        30.     31.125         0.
        30.       31.2         0.
        30.     31.275         0.
        30.      31.35         0.
        30.     31.425         0.
        30.       31.5         0.
        30.     31.575         0.
        30.      31.65         0.
        30.     31.725         0.
        30.       31.8         0.
        30.     31.875         0.
        30.      31.95         0.
        30.     32.025         0.
        30.       32.1         0.
        30.     32.175         0.
        30.      32.25         0.
        30.     32.325         0.
        30.       32.4         0.
        30.     32.475         0.
        30.      32.55         0.
        30.     32.625         0.
        30.       32.7         0.
        30.     32.775         0.
        30.      32.85         0.
        30.     32.925         0.
        30.        33.         0.
        30.     33.075         0.
        30.      33.15         0.
        30.     33.225         0.
        30.       33.3         0.
        30.     33.375         0.
        30.      33.45         0.
        30.     33.525         0.
        30.       33.6         0.
        30.     33.675         0.
        30.      33.75         0.
        30.     33.825         0.
        30.       33.9         0.
        30.     33.975         0.
        30.      34.05         0.
        30.     34.125         0.
        30.       34.2         0.
        30.     34.275         0.
        30.      34.35         0.
        30.     34.425         0.
        30.       34.5         0.
        30.     34.575         0.
        30.      34.65         0.
        30.     34.725         0.
        30.       34.8         0.
        30.     34.875         0.
        30.      34.95         0.
        30.     35.025         0.
        30.       35.1         0.
        30.     35.175         0.
        30.      35.25         0.
        30.     35.325         0.
        30.       35.4         0.
        30.     35.475         0.
        30.      35.55         0.
        30.     35.625         0.
        30.       35.7         0.
        30.     35.775         0.
        30.      35.85         0.
        30.     35.925         0.
        30.        36.         0.
        30.     36.075         0.
        30.      36.15         0.
        30.     36.225         0.
        30.       36.3         0.
        30.     36.375         0.
        30.      36.45         0.
        30.     36.525         0.
        30.       36.6         0.
        30.     36.675         0.
        30.      36.75         0.
        30.     36.825         0.
        30.       36.9         0.
        30.     36.975         0.
        30.      37.05         0.
        30.     37.125         0.
        30.       37.2         0.
        30.     37.275         0.
        30.      37.35         0.
        30.     37.425         0.
        30.       37.5         0.
        30.     37.575         0.
        30.      37.65         0.
        30.     37.725         0.
        30.       37.8         0.
        30.     37.875         0.
        30.      37.95         0.
        30.     38.025         0.
        30.       38.1         0.
        30.     38.175         0.
        30.      38.25         0.
        30.     38.325         0.
        55.         0.         0.
        55.    7.5E-02         0.
        55.       0.15         0.
        55.      0.225         0.
        55.        0.3         0.
        55.      0.375         0.
        55.       0.45         0.
        55.      0.525         0.
        55.        0.6         0.
        55.      0.675         0.
        55.       0.75         0.
        55.      0.825         0.
        55.        0.9         0.
        55.      0.975         0.
        55.       1.05         0.
        55.      1.125         0.
        55.        1.2         0.
        55.      1.275         0.
        55.       1.35         0.
        55.      1.425         0.
        55.        1.5         0.
        55.      1.575         0.
        55.       1.65         0.
        55.      1.725         0.
        55.        1.8         0.
        55.      1.875         0.
        55.       1.95         0.
        55.      2.025         0.
        55.        2.1         0.
        55.      2.175         0.
        55.       2.25         0.
        55.      2.325         0.
        55.        2.4         0.
        55.      2.475         0.
        55.       2.55         0.
        55.      2.625         0.
        55.        2.7         0.
        55.      2.775         0.
        55.       2.85         0.
        55.      2.925         0.
        55.         3.         0.
        55.      3.075         0.
        55.       3.15         0.
        55.      3.225         0.
        55.        3.3         0.
        55.      3.375         0.
        55.       3.45         0.
        55.      3.525         0.
        55.        3.6         0.
        55.      3.675         0.
        55.       3.75         0.
        55.      3.825         0.
        55.        3.9         0.
        55.      3.975         0.
        55.       4.05         0.
        55.      4.125         0.
        55.        4.2         0.
        55.      4.275         0.
        55.       4.35         0.
        55.      4.425         0.
        55.        4.5         0.
        55.      4.575         0.
        55.       4.65         0.
        55.      4.725         0.
        55.        4.8         0.
        55.      4.875         0.
        55.       4.95         0.
        55.      5.025         0.
        55.        5.1         0.
        55.      5.175         0.
        55.       5.25         0.
        55.      5.325         0.
        55.        5.4         0.
        55.      5.475         0.
        55.       5.55         0.
        55.      5.625         0.
        55.        5.7   8.15E-02
        55.      5.775   4.08E-02
        55.       5.85   8.15E-02
        55.      5.925     0.2853
        55.         6.     0.6522
        55.      6.075     0.6115
        55.       6.15     0.5299
        55.      6.225     0.3669
        55.        6.3     0.7337
        55.      6.375     0.6115
        55.       6.45      0.693
        55.      6.525     0.5299
        55.        6.6     0.7745
        55.      6.675     0.7337
        55.       6.75     0.7337
        55.      6.825     0.5299
        55.        6.9     0.5707
        55.      6.975      0.693
        55.       7.05     0.6115
        55.      7.125     0.9783
        55.        7.2     0.5299
        55.      7.275     0.7337
        55.       7.35     0.7337
        55.      7.425      0.693
        55.        7.5     0.5707
        55.      7.575     0.7337
        55.       7.65     1.0191
        55.      7.725     0.6115
        55.        7.8     0.4076
        55.      7.875     0.4484
        55.       7.95      0.693
        55.      8.025     0.8153
        55.        8.1     0.4892
        55.      8.175     0.5299
        55.       8.25     0.8968
        55.      8.325     0.6115
        55.        8.4     0.4076
        55.      8.475     0.6115
        55.       8.55     0.4076
        55.      8.625     0.8153
        55.        8.7     0.4484
        55.      8.775     0.6115
        55.       8.85      0.693
        55.      8.925     0.7745
        55.         9.      0.693
        55.      9.075     0.6522
        55.       9.15      0.856
        55.      9.225     0.6522
        55.        9.3     0.6522
        55.      9.375     0.9783
        55.       9.45     0.8968
        55.      9.525     0.6522
        55.        9.6     0.7337
        55.      9.675     0.6115
        55.       9.75      0.693
        55.      9.825     0.6115
        55.        9.9     0.7337
        55.      9.975      0.693
        55.      10.05     0.8968
        55.     10.125     0.6115
        55.       10.2     0.7337
        55.     10.275      0.693
        55.      10.35      1.386
        55.     10.425     1.0191
        55.       10.5      0.856
        55.     10.575      0.693
        55.      10.65      1.386
        55.     10.725     1.1821
        55.       10.8     1.3044
        55.     10.875     1.3044
        55.      10.95      0.856
        55.     11.025     0.9783
        55.       11.1     0.9783
        55.     11.175     1.1006
        55.      11.25     1.1821
        55.     11.325     1.1006
        55.       11.4     1.0191
        55.     11.475     1.9566
        55.      11.55     1.6305
        55.     11.625     1.3044
        55.       11.7     1.9159
        55.     11.775     1.3044
        55.      11.85     1.4267
        55.     11.925     1.4267
        55.        12.     1.8751
        55.     12.075      1.386
        55.      12.15     1.4267
        55.     12.225     1.5898
        55.       12.3     2.1197
        55.     12.375     1.7936
        55.      12.45     1.8751
        55.     12.525     1.9566
        55.       12.6      1.549
        55.     12.675     2.5273
        55.      12.75     2.1197
        55.     12.825     2.0789
        55.       12.9     2.4866
        55.     12.975     2.6904
        55.      13.05     3.0165
        55.     13.125     3.0165
        55.       13.2     2.8534
        55.     13.275     2.6496
        55.      13.35     2.7311
        55.     13.425     2.9757
        55.       13.5     3.2203
        55.     13.575     4.1579
        55.      13.65     3.5872
        55.     13.725     3.6279
        55.       13.8     4.1579
        55.     13.875     4.2394
        55.      13.95     4.4432
        55.     14.025      3.791
        55.       14.1     4.5247
        55.     14.175     4.6063
        55.      14.25      4.484
        55.     14.325     3.8318
        55.       14.4     4.7286
        55.     14.475     5.4623
        55.      14.55     5.7884
        55.     14.625     5.5031
        55.       14.7     5.7069
        55.     14.775     5.4215
        55.      14.85     5.8699
        55.     14.925     5.7476
        55.        15.     6.4814
        55.     15.075     5.7476
        55.      15.15     6.9298
        55.     15.225     6.7667
        55.       15.3     7.0928
        55.     15.375     6.2368
        55.      15.45      7.582
        55.     15.525     6.2368
        55.       15.6     7.0928
        55.     15.675     8.0304
        55.      15.75     8.0712
        55.     15.825     6.9298
        55.       15.9     9.1718
        55.     15.975     8.7641
        55.      16.05     9.0087
        55.     16.125     8.1934
        55.       16.2     8.5603
        55.     16.275     9.2533
        55.      16.35     9.2533
        55.     16.425     9.4979
        55.       16.5     8.7641
        55.     16.575     9.1718
        55.      16.65     9.9055
        55.     16.725     8.5195
        55.       16.8    10.8431
        55.     16.875    10.5985
        55.      16.95     9.8647
        55.     17.025     9.7832
        55.       17.1    11.7399
        55.     17.175    11.4545
        55.      17.25      9.824
        55.     17.325    10.8023
        55.       17.4    10.4762
        55.     17.475    11.3322
        55.      17.55    12.3105
        55.     17.625    11.8214
        55.       17.7    11.6991
        55.     17.775    10.2724
        55.      17.85    11.7806
        55.     17.925    12.5551
        55.        18.    11.6991
        55.     18.075      9.824
        55.      18.15    11.4138
        55.     18.225    11.4138
        55.       18.3    12.8812
        55.     18.375    10.8023
        55.      18.45    11.2507
        55.     18.525    11.2915
        55.       18.6    11.1284
        55.     18.675      10.68
        55.      18.75    10.9246
        55.     18.825     9.6202
        55.       18.9    10.5577
        55.     18.975      9.987
        55.      19.05     9.7425
        55.     19.125    10.8838
        55.       19.2    10.5985
        55.     19.275    10.1501
        55.      19.35     9.0495
        55.     19.425     8.8864
        55.       19.5     9.8647
        55.     19.575     9.0902
        55.      19.65     8.9679
        55.     19.725     9.0087
        55.       19.8      9.131
        55.     19.875     7.3374
        55.      19.95     9.6202
        55.     20.025     9.0495
        55.       20.1     8.4788
        55.     20.175     8.2342
        55.      20.25     8.6826
        55.     20.325     7.5005
        55.       20.4     6.8075
        55.     20.475      6.889
        55.      20.55     6.6852
        55.     20.625      6.726
        55.       20.7     7.2151
        55.     20.775     6.8483
        55.      20.85     6.9705
        55.     20.925     7.2966
        55.        21.      6.196
        55.     21.075     5.2177
        55.      21.15     6.2776
        55.     21.225     5.9515
        55.       21.3      6.033
        55.     21.375     6.2776
        55.      21.45       5.34
        55.     21.525     5.7476
        55.       21.6     5.9515
        55.     21.675     5.5031
        55.      21.75     5.0139
        55.     21.825     4.9731
        55.       21.9     3.9133
        55.     21.975     3.9948
        55.      22.05     3.8725
        55.     22.125     4.1986
        55.       22.2     4.4024
        55.     22.275     4.2802
        55.      22.35     4.5655
        55.     22.425     4.2394
        55.       22.5     4.0356
        55.     22.575     3.7095
        55.      22.65     3.1795
        55.     22.725     3.6687
        55.       22.8     3.1388
        55.     22.875     3.0573
        55.      22.95     3.0573
        55.     23.025     3.1795
        55.       23.1     3.2203
        55.     23.175     2.6089
        55.      23.25     2.2828
        55.     23.325     3.2203
        55.       23.4     2.7311
        55.     23.475     3.4241
        55.      23.55     2.8534
        55.     23.625     2.6496
        55.       23.7     2.2012
        55.     23.775     2.4866
        55.      23.85      2.242
        55.     23.925     1.8751
        55.        24.     2.2828
        55.     24.075     1.8344
        55.      24.15     2.1197
        55.     24.225     2.0382
        55.       24.3     2.2012
        55.     24.375     1.7936
        55.      24.45     1.8751
        55.     24.525     1.4675
        55.       24.6     2.0382
        55.     24.675      1.549
        55.      24.75     1.1414
        55.     24.825     1.3044
        55.       24.9     1.5898
        55.     24.975      1.386
        55.      25.05      1.549
        55.     25.125     1.3452
        55.       25.2     1.2637
        55.     25.275     0.9376
        55.      25.35     1.5082
        55.     25.425     0.8968
        55.       25.5     1.2229
        55.     25.575     1.1414
        55.      25.65     1.2637
        55.     25.725     1.3044
        55.       25.8     0.9783
        55.     25.875     0.9783
        55.      25.95     1.1821
        55.     26.025     0.7745
        55.       26.1     0.9783
        55.     26.175     0.7745
        55.      26.25     0.7745
        55.     26.325     0.5707
        55.       26.4     0.9783
        55.     26.475     0.4484
        55.      26.55      0.693
        55.     26.625     0.4892
        55.       26.7     0.7745
        55.     26.775     0.4076
        55.      26.85     0.6522
        55.     26.925      0.693
        55.        27.     0.6115
        55.     27.075     0.4484
        55.      27.15     0.6115
        55.     27.225     0.4892
        55.       27.3     0.6522
        55.     27.375     0.7337
        55.      27.45     0.4484
        55.     27.525     0.4892
        55.       27.6     0.4892
        55.     27.675     0.2446
        55.      27.75     0.4076
        55.     27.825     0.4076
        55.       27.9     0.5299
        55.     27.975     0.2853
        55.      28.05     0.2446
        55.     28.125     0.4484
        55.       28.2     0.3261
        55.     28.275     0.3261
        55.      28.35     0.2853
        55.     28.425     0.3669
        55.       28.5   8.15E-02
        55.     28.575     0.2446
        55.      28.65   4.08E-02
        55.     28.725   4.08E-02
        55.       28.8     0.1223
        55.     28.875     0.3261
        55.      28.95     0.2038
        55.     29.025     0.1223
        55.       29.1         0.
        55.     29.175     0.1631
        55.      29.25   4.08E-02
        55.     29.325     0.1223
        55.       29.4     0.1631
        55.     29.475         0.
        55.      29.55     0.1631
        55.     29.625   8.15E-02
        55.       29.7   8.15E-02
        55.     29.775     0.1631
        55.      29.85     0.1223
        55.     29.925   4.08E-02
        55.        30.     0.1223
        55.     30.075         0.
        55.      30.15   8.15E-02
        55.     30.225         0.
        55.       30.3         0.
        55.     30.375         0.
        55.      30.45         0.
        55.     30.525         0.
        55.       30.6   8.15E-02
        55.     30.675   4.08E-02
        55.      30.75         0.
        55.     30.825   4.08E-02
        55.       30.9         0.
        55.     30.975         0.
        55.      31.05         0.
        55.     31.125         0.
        55.       31.2         0.
        55.     31.275         0.
        55.      31.35         0.
        55.     31.425         0.
        55.       31.5         0.
        55.     31.575         0.
        55.      31.65         0.
        55.     31.725         0.
        55.       31.8         0.
        55.     31.875         0.
        55.      31.95         0.
        55.     32.025         0.
        55.       32.1         0.
        55.     32.175         0.
        55.      32.25         0.
        55.     32.325         0.
        55.       32.4         0.
        55.     32.475         0.
        55.      32.55         0.
        55.     32.625         0.
        55.       32.7         0.
        55.     32.775         0.
        55.      32.85         0.
        55.     32.925         0.
        55.        33.         0.
        55.     33.075         0.
        55.      33.15         0.
        55.     33.225         0.
        55.       33.3         0.
        55.     33.375         0.
        55.      33.45         0.
        55.     33.525         0.
        55.       33.6         0.
        55.     33.675         0.
        55.      33.75         0.
        55.     33.825         0.
        55.       33.9         0.
        55.     33.975         0.
        55.      34.05         0.
        55.     34.125         0.
        55.       34.2         0.
        55.     34.275         0.
        55.      34.35         0.
        55.     34.425         0.
        55.       34.5         0.
        55.     34.575         0.
        55.      34.65         0.
        55.     34.725         0.
        55.       34.8         0.
        55.     34.875         0.
        55.      34.95         0.
        55.     35.025         0.
        55.       35.1         0.
        55.     35.175         0.
        55.      35.25         0.
        55.     35.325         0.
        55.       35.4         0.
        55.     35.475         0.
        55.      35.55         0.
        55.     35.625         0.
        55.       35.7         0.
        55.     35.775         0.
        55.      35.85         0.
        55.     35.925         0.
        55.        36.         0.
        55.     36.075         0.
        55.      36.15         0.
        55.     36.225         0.
        55.       36.3         0.
        55.     36.375         0.
        55.      36.45         0.
        55.     36.525         0.
        55.       36.6         0.
        55.     36.675         0.
        55.      36.75         0.
        55.     36.825         0.
        55.       36.9         0.
        55.     36.975         0.
        55.      37.05         0.
        55.     37.125         0.
        55.       37.2         0.
        55.     37.275         0.
        55.      37.35         0.
        55.     37.425         0.
        55.       37.5         0.
        55.     37.575         0.
        55.      37.65         0.
        55.     37.725         0.
        55.       37.8         0.
        55.     37.875         0.
        55.      37.95         0.
        55.     38.025         0.
        55.       38.1         0.
        55.     38.175         0.
        55.      38.25         0.
        55.     38.325         0.
        85.         0.         0.
        85.    7.5E-02         0.
        85.       0.15         0.
        85.      0.225         0.
        85.        0.3         0.
        85.      0.375         0.
        85.       0.45         0.
        85.      0.525         0.
        85.        0.6         0.
        85.      0.675         0.
        85.       0.75         0.
        85.      0.825         0.
        85.        0.9         0.
        85.      0.975         0.
        85.       1.05         0.
        85.      1.125         0.
        85.        1.2         0.
        85.      1.275         0.
        85.       1.35         0.
        85.      1.425         0.
        85.        1.5         0.
        85.      1.575         0.
        85.       1.65         0.
        85.      1.725         0.
        85.        1.8         0.
        85.      1.875         0.
        85.       1.95         0.
        85.      2.025         0.
        85.        2.1         0.
        85.      2.175         0.
        85.       2.25         0.
        85.      2.325         0.
        85.        2.4         0.
        85.      2.475         0.
        85.       2.55         0.
        85.      2.625         0.
        85.        2.7         0.
        85.      2.775         0.
        85.       2.85         0.
        85.      2.925         0.
        85.         3.         0.
        85.      3.075         0.
        85.       3.15         0.
        85.      3.225         0.
        85.        3.3         0.
        85.      3.375         0.
        85.       3.45         0.
        85.      3.525         0.
        85.        3.6         0.
        85.      3.675         0.
        85.       3.75         0.
        85.      3.825         0.
        85.        3.9         0.
        85.      3.975         0.
        85.       4.05         0.
        85.      4.125         0.
        85.        4.2         0.
        85.      4.275         0.
        85.       4.35         0.
        85.      4.425         0.
        85.        4.5         0.
        85.      4.575         0.
        85.       4.65         0.
        85.      4.725         0.
        85.        4.8         0.
        85.      4.875         0.
        85.       4.95         0.
        85.      5.025         0.
        85.        5.1         0.
        85.      5.175         0.
        85.       5.25         0.
        85.      5.325         0.
        85.        5.4         0.
        85.      5.475         0.
        85.       5.55         0.
        85.      5.625         0.
        85.        5.7   8.71E-02
        85.      5.775         0.
        85.       5.85   5.81E-02
        85.      5.925     0.1162
        85.         6.     0.2324
        85.      6.075   8.71E-02
        85.       6.15     0.1743
        85.      6.225     0.3485
        85.        6.3     0.2904
        85.      6.375     0.1452
        85.       6.45     0.2904
        85.      6.525     0.3776
        85.        6.6     0.2614
        85.      6.675     0.2904
        85.       6.75     0.3195
        85.      6.825     0.3776
        85.        6.9   8.71E-02
        85.      6.975     0.3195
        85.       7.05     0.3776
        85.      7.125     0.2033
        85.        7.2     0.4066
        85.      7.275     0.2033
        85.       7.35     0.2614
        85.      7.425     0.2033
        85.        7.5     0.2904
        85.      7.575     0.2324
        85.       7.65     0.2904
        85.      7.725     0.3195
        85.        7.8     0.3776
        85.      7.875     0.4066
        85.       7.95     0.2614
        85.      8.025     0.3195
        85.        8.1     0.3195
        85.      8.175     0.3195
        85.       8.25     0.2033
        85.      8.325     0.3485
        85.        8.4     0.2324
        85.      8.475     0.3195
        85.       8.55     0.2614
        85.      8.625     0.3776
        85.        8.7     0.3776
        85.      8.775     0.2614
        85.       8.85     0.3195
        85.      8.925     0.2904
        85.         9.     0.4066
        85.      9.075     0.4647
        85.       9.15     0.4357
        85.      9.225     0.4357
        85.        9.3     0.2904
        85.      9.375     0.2904
        85.       9.45     0.4357
        85.      9.525     0.3776
        85.        9.6     0.5809
        85.      9.675     0.3776
        85.       9.75     0.5809
        85.      9.825     0.5809
        85.        9.9     0.3776
        85.      9.975      0.668
        85.      10.05      0.668
        85.     10.125     0.6099
        85.       10.2     0.5809
        85.     10.275     0.7261
        85.      10.35     0.8713
        85.     10.425     0.6971
        85.       10.5     1.0456
        85.     10.575     0.8713
        85.      10.65     0.9004
        85.     10.725     0.8423
        85.       10.8     0.8423
        85.     10.875     1.1327
        85.      10.95     1.2779
        85.     11.025     0.9294
        85.       11.1     1.3651
        85.     11.175     1.3651
        85.      11.25     1.5393
        85.     11.325     1.0746
        85.       11.4     1.2779
        85.     11.475     1.4232
        85.      11.55     1.1327
        85.     11.625     1.5103
        85.       11.7     1.5974
        85.     11.775     1.1908
        85.      11.85     1.6555
        85.     11.925     1.5684
        85.        12.     1.4812
        85.     12.075     1.4232
        85.      12.15     1.9459
        85.     12.225     1.2489
        85.       12.3     1.8879
        85.     12.375     1.5974
        85.      12.45     1.6265
        85.     12.525     1.4522
        85.       12.6     1.5974
        85.     12.675     1.6265
        85.      12.75     1.8007
        85.     12.825     1.6555
        85.       12.9     1.4812
        85.     12.975      1.975
        85.      13.05     1.8007
        85.     13.125     1.7136
        85.       13.2     1.5103
        85.     13.275     1.8588
        85.      13.35     1.4812
        85.     13.425     1.9169
        85.       13.5     1.9169
        85.     13.575     1.8879
        85.      13.65     1.5974
        85.     13.725     1.8298
        85.       13.8     1.6265
        85.     13.875     1.8879
        85.      13.95     1.8007
        85.     14.025     1.8588
        85.       14.1     1.7426
        85.     14.175     1.6846
        85.      14.25     2.0621
        85.     14.325     1.8588
        85.       14.4     1.8298
        85.     14.475     1.8007
        85.      14.55     1.6846
        85.     14.625     1.8588
        85.       14.7     1.8588
        85.     14.775      1.975
        85.      14.85     1.8298
        85.     14.925     1.5974
        85.        15.     1.9459
        85.     15.075     1.4812
        85.      15.15     1.9169
        85.     15.225     1.8007
        85.       15.3     1.8879
        85.     15.375     1.6846
        85.      15.45     1.6265
        85.     15.525     1.8588
        85.       15.6     1.7136
        85.     15.675     2.0331
        85.      15.75     1.6265
        85.     15.825     2.0621
        85.       15.9     2.0621
        85.     15.975     1.6846
        85.      16.05     1.6265
        85.     16.125      2.004
        85.       16.2     2.2945
        85.     16.275     1.3941
        85.      16.35     1.7136
        85.     16.425     1.8588
        85.       16.5     1.7717
        85.     16.575     1.2779
        85.      16.65     1.3941
        85.     16.725     1.7136
        85.       16.8     1.5103
        85.     16.875     1.4522
        85.      16.95      1.975
        85.     17.025     1.8879
        85.       17.1     1.4232
        85.     17.175      1.336
        85.      17.25     1.6555
        85.     17.325     1.3941
        85.       17.4     1.4232
        85.     17.475     1.3941
        85.      17.55     1.6846
        85.     17.625     1.2779
        85.       17.7     1.1037
        85.     17.775     1.5684
        85.      17.85     0.9585
        85.     17.925      1.307
        85.        18.     1.7136
        85.     18.075      1.307
        85.      18.15     0.7842
        85.     18.225     1.0746
        85.       18.3     1.1037
        85.     18.375     1.2198
        85.      18.45     1.2198
        85.     18.525     1.2198
        85.       18.6      1.307
        85.     18.675     1.2198
        85.      18.75     0.9585
        85.     18.825     1.0165
        85.       18.9     0.9875
        85.     18.975     0.7261
        85.      19.05     0.9004
        85.     19.125     1.1327
        85.       19.2      0.639
        85.     19.275     1.1037
        85.      19.35     0.8713
        85.     19.425     0.8132
        85.       19.5     0.6971
        85.     19.575     0.5809
        85.      19.65     0.7261
        85.     19.725     0.8713
        85.       19.8     0.8423
        85.     19.875      0.639
        85.      19.95     0.6971
        85.     20.025      0.639
        85.       20.1     0.8132
        85.     20.175     0.5518
        85.      20.25     0.6099
        85.     20.325     0.5518
        85.       20.4     0.4357
        85.     20.475      0.668
        85.      20.55     0.4647
        85.     20.625     0.5228
        85.     20.775     0.5228
        85.      20.85     0.4066
        85.     20.925     0.5228
        85.        21.     0.3485
        85.     21.075     0.5518
        85.      21.15     0.4066
        85.     21.225     0.4357
        85.       21.3     0.4066
        85.     21.375     0.2324
        85.      21.45     0.3485
        85.     21.525     0.2033
        85.       21.6     0.3776
        85.     21.675     0.3195
        85.      21.75     0.2904
        85.     21.825     0.2324
        85.       21.9     0.1743
        85.     21.975     0.2324
        85.      22.05     0.2324
        85.     22.125     0.3195
        85.       22.2     0.2904
        85.     22.275     0.2324
        85.      22.35     0.1743
        85.     22.425     0.3195
        85.       22.5     0.2904
        85.     22.575     0.1743
        85.      22.65    2.9E-02
        85.     22.725   5.81E-02
        85.       22.8     0.2904
        85.     22.875     0.1452
        85.      22.95     0.1452
        85.     23.025     0.1743
        85.       23.1     0.1743
        85.     23.175     0.2324
        85.      23.25   8.71E-02
        85.     23.325     0.1452
        85.       23.4     0.1162
        85.     23.475   8.71E-02
        85.      23.55     0.2033
        85.     23.625   8.71E-02
        85.       23.7   8.71E-02
        85.     23.775     0.1743
        85.      23.85     0.2033
        85.     23.925   5.81E-02
        85.        24.   5.81E-02
        85.     24.075   5.81E-02
        85.      24.15     0.1452
        85.     24.225   8.71E-02
        85.       24.3    2.9E-02
        85.     24.375   8.71E-02
        85.      24.45   8.71E-02
        85.     24.525   8.71E-02
        85.       24.6   5.81E-02
        85.     24.675     0.1162
        85.      24.75   5.81E-02
        85.     24.825     0.1452
        85.       24.9         0.
        85.     24.975   5.81E-02
        85.      25.05   5.81E-02
        85.     25.125   5.81E-02
        85.       25.2         0.
        85.     25.275    2.9E-02
        85.      25.35   5.81E-02
        85.     25.425         0.
        85.       25.5   5.81E-02
        85.     25.575   5.81E-02
        85.      25.65   5.81E-02
        85.     25.725         0.
        85.       25.8         0.
        85.     25.875         0.
        85.      25.95         0.
        85.     26.025    2.9E-02
        85.       26.1         0.
        85.     26.175         0.
        85.      26.25         0.
        85.     26.325         0.
        85.       26.4         0.
        85.     26.475         0.
        85.      26.55    2.9E-02
        85.     26.625   5.81E-02
        85.       26.7         0.
        85.     26.775         0.
        85.      26.85    2.9E-02
        85.     26.925    2.9E-02
        85.        27.    2.9E-02
        85.     27.075     0.1162
        85.      27.15         0.
        85.     27.225         0.
        85.       27.3    2.9E-02
        85.     27.375         0.
        85.      27.45         0.
        85.     27.525         0.
        85.       27.6    2.9E-02
        85.     27.675         0.
        85.      27.75         0.
        85.     27.825         0.
        85.       27.9         0.
        85.     27.975    2.9E-02
        85.      28.05    2.9E-02
        85.     28.125         0.
        85.       28.2   5.81E-02
        85.     28.275         0.
        85.      28.35         0.
        85.     28.425         0.
        85.       28.5         0.
        85.     28.575         0.
        85.      28.65         0.
        85.     28.725         0.
        85.       28.8         0.
        85.     28.875         0.
        85.      28.95         0.
        85.     29.025         0.
        85.       29.1         0.
        85.     29.175         0.
        85.      29.25         0.
        85.     29.325         0.
        85.       29.4         0.
        85.     29.475         0.
        85.      29.55         0.
        85.     29.625         0.
        85.       29.7         0.
        85.     29.775         0.
        85.      29.85         0.
        85.     29.925         0.
        85.        30.         0.
        85.     30.075         0.
        85.      30.15         0.
        85.     30.225         0.
        85.       30.3         0.
        85.     30.375         0.
        85.      30.45         0.
        85.     30.525         0.
        85.       30.6         0.
        85.     30.675         0.
        85.      30.75         0.
        85.     30.825         0.
        85.       30.9         0.
        85.     30.975         0.
        85.      31.05         0.
        85.     31.125         0.
        85.       31.2         0.
        85.     31.275         0.
        85.      31.35         0.
        85.     31.425         0.
        85.       31.5         0.
        85.     31.575         0.
        85.      31.65         0.
        85.     31.725         0.
        85.       31.8         0.
        85.     31.875         0.
        85.      31.95         0.
        85.     32.025         0.
        85.       32.1         0.
        85.     32.175         0.
        85.      32.25         0.
        85.     32.325         0.
        85.       32.4         0.
        85.     32.475         0.
        85.      32.55         0.
        85.     32.625         0.
        85.       32.7         0.
        85.     32.775         0.
        85.      32.85         0.
        85.     32.925         0.
        85.        33.         0.
        85.     33.075         0.
        85.      33.15         0.
        85.     33.225         0.
        85.       33.3         0.
        85.     33.375         0.
        85.      33.45         0.
        85.     33.525         0.
        85.       33.6         0.
        85.     33.675         0.
        85.      33.75         0.
        85.     33.825         0.
        85.       33.9         0.
        85.     33.975         0.
        85.      34.05         0.
        85.     34.125         0.
        85.       34.2         0.
        85.     34.275         0.
        85.      34.35         0.
        85.     34.425         0.
        85.       34.5         0.
        85.     34.575         0.
        85.      34.65         0.
        85.     34.725         0.
        85.       34.8         0.
        85.     34.875         0.
        85.      34.95         0.
        85.     35.025         0.
        85.       35.1         0.
        85.     35.175         0.
        85.      35.25         0.
        85.     35.325         0.
        85.       35.4         0.
        85.     35.475         0.
        85.      35.55         0.
        85.     35.625         0.
        85.       35.7         0.
        85.     35.775         0.
        85.      35.85         0.
        85.     35.925         0.
        85.        36.         0.
        85.     36.075         0.
        85.      36.15         0.
        85.     36.225         0.
        85.       36.3         0.
        85.     36.375         0.
        85.      36.45         0.
        85.     36.525         0.
        85.       36.6         0.
        85.     36.675         0.
        85.      36.75         0.
        85.     36.825         0.
        85.       36.9         0.
        85.     36.975         0.
        85.      37.05         0.
        85.     37.125         0.
        85.       37.2         0.
        85.     37.275         0.
        85.      37.35         0.
        85.     37.425         0.
        85.       37.5         0.
        85.     37.575         0.
        85.      37.65         0.
        85.     37.725         0.
        85.       37.8         0.
        85.     37.875         0.
        85.      37.95         0.
        85.     38.025         0.
        85.       38.1         0.
        85.     38.175         0.
ENDDATA           1533
ENDSUBENT         1544
SUBENT        D6109003   20110224   20110621   20110620       D077
BIB                  3          3
REACTION   (40-ZR-90(3-LI-6,X)2-HE-4,,DA)
ERR-ANALYS (ERR-S)statistical error
STATUS     (TABLE)data were received from Dr. H. Kumawat
ENDBIB               3
NOCOMMON             0          0
DATA                 4        164
EN         ANG-CM     DATA-CM    ERR-S
MEV        ADEG       MB/SR      MB/SR
        30.      29.43   153.6579       1.77
        30.      39.96    145.902        1.7
        30.      50.43   109.9046       1.33
        30.      52.51   106.4688      0.593
        30.      55.11    95.8534       0.67
        30.       57.7    81.1188      0.486
        30.      62.88      61.16      0.386
        30.      62.88    59.4616      0.438
        30.      65.45    52.0078      0.488
        30.      68.02    44.1693      0.354
        30.      73.14     33.231      0.281
        30.      73.14    33.2802      0.296
        30.       75.7    30.3616      0.337
        30.      78.24    26.1147      0.247
        30.      83.31    20.9841      0.203
        30.      88.35    16.4771       0.19
        30.      93.37    13.5408      0.171
        30.      98.36    11.6599      0.158
        30.     103.32     9.9397      0.145
        30.     108.25     7.0626      0.113
        25.      31.51    75.9153     1.8181
        25.      36.77    65.4901     1.3245
        25.      39.39    73.1155     1.6667
        25.      42.02    84.0159     1.8863
        25.      44.63    84.8707     1.3723
        25.      47.24    92.7917     1.5567
        25.      49.85    92.7493     1.8551
        25.      52.45    85.2936     1.7154
        25.      55.05      92.81     1.4185
        25.      57.64    80.8163     1.3124
        25.      60.23    81.5435     1.5708
        25.      62.81    81.1028     0.9204
        25.      65.39    73.8627     1.1447
        25.      67.95    70.1169     0.8698
        25.      70.52     65.625      0.768
        25.      73.07    58.1133     0.7696
        25.      75.62    52.6246     0.6873
        25.      78.17    48.2365     0.7138
        25.      80.71    43.8175     0.6203
        25.      83.24    37.2088     0.5591
        25.      85.76    34.9365     0.5539
        25.      88.28    29.2868     0.5033
        25.      90.79    28.2372     0.4512
        25.      93.29    27.4075     0.4404
        25.      95.79    23.4909     0.4120
        25.     103.24    19.8229     0.3714
        25.     113.08    14.9049     0.2918
        25.     132.47     8.3645     0.2399
        25.     142.04     7.2782     0.2023
        21.       36.7    18.5536     0.5783
        21.      39.32    18.3926     0.4826
        21.      41.93    16.8393     0.4064
        21.      44.54    20.4899     0.5839
        21.      49.76    24.3612     0.5233
        21.      52.36    27.9494     0.9289
        21.      52.36    26.5252     0.4822
        21.      54.95    29.9132     0.6686
        21.      57.54      36.15     0.8487
        21.      60.12    38.9345     0.7624
        21.      60.12    35.4528     0.5736
        21.       62.7    39.1954     0.5334
        21.      65.27    41.9339     0.7212
        21.      67.84    47.6452     0.7249
        21.       70.4     48.576     0.7779
        21.       70.4    43.8253     0.7698
        21.      72.95     45.331     1.0227
        21.      78.04    43.9993     0.6634
        21.      80.58    44.4995     0.7086
        21.      80.58    42.9403     0.6938
        21.      83.11    46.1828      0.621
        21.      88.15    41.4888     0.5879
        21.      90.66    40.0733     0.6128
        21.      93.16    36.2498      0.523
        21.      95.66    38.6532     0.4409
        21.      98.15    37.5832     0.3081
        21.     103.11    29.8563     0.4327
        21.     105.59    29.0293     0.3635
        21.     108.05    28.1395     0.2528
        21.     115.41    23.8087     0.2995
        21.     117.85    22.6616     0.2068
        21.     122.71    21.0192     0.3471
        21.     127.55    19.8871      0.315
        21.     132.37    16.2716     0.2915
        21.     137.17    14.8867     0.2596
        21.     141.95    14.6522     0.2515
        21.     146.72     13.618     0.2254
        21.     151.47    13.8324     0.2339
        21.     160.93    11.6625     0.2041
        21.     170.36    12.2553     0.1892
        19.      36.69    20.5121     0.6741
        19.      41.93    14.4362     0.4798
        19.      44.54    13.2686     0.3833
        19.      47.15    14.0471     0.5501
        19.      52.35    19.4394     0.2453
        19.      52.35    16.0203      0.498
        19.      54.94    15.2243     0.4055
        19.      57.53    16.8141     0.5447
        19.      62.69    18.8724      0.239
        19.      62.69    19.0667     0.4918
        19.      65.27    21.5805     0.4363
        19.      72.95    26.1968     0.2549
        19.      95.65    33.6297     0.5348
        19.      98.15    32.3168     0.4571
        19.     105.58    31.9759     0.5156
        19.     108.04    31.3908      0.446
        19.      115.4    30.5962     0.4566
        19.     117.84     29.989     0.3944
        19.     122.71    25.5181     0.3899
        19.     127.55    24.5366     0.3635
        19.     132.37    23.8795     0.3724
        19.     134.09    17.6487     0.4086
        19.      136.5     16.632     0.3884
        19.     137.17    22.6048     0.3445
        19.     139.38    17.0937     0.3981
        19.     144.34    21.3696      0.639
        19.     146.72    21.1034     0.3005
        19.     151.47    19.4646      0.268
        19.     153.84    20.5537     0.6171
        19.     160.93    18.9228     0.2599
        19.     163.29    19.7725     0.5453
        19.     170.31    17.9025     0.2971
        17.      67.59     6.7319     0.2843
        17.      70.14     6.7001     0.3259
        17.      77.78     8.8894     0.3252
        17.      80.31     9.6403     0.3893
        17.      82.84    10.2191     0.2989
        17.      87.87    11.5560     0.3356
        17.      90.38    12.3876     0.3995
        17.      92.89    12.8140     0.3309
        17.      95.38    13.8382     0.4951
        17.      97.87    12.6781     0.3648
        17.     102.84    14.6153     0.3204
        17.     105.31    15.6811     0.5208
        17.     107.78    16.0274     0.4052
        17.     115.15    16.9129     0.4898
        17.     118.22    15.9305     0.3636
        17.     122.47    16.3848     0.3651
        17.     124.42    16.4888     0.4007
        17.     126.84    16.3208     0.3903
        17.     129.75    16.5181     0.3962
        17.     132.16    16.7582     0.3647
        17.     134.09    17.6487     0.4086
        17.     136.50    16.6320     0.3884
        17.     139.38    17.0937     0.3981
        17.     141.77    17.5062     0.3368
        17.     143.69    17.2633     0.3651
        17.     146.08    17.2477     0.3568
        17.     148.95    16.9046     0.3570
        17.     151.33    16.4112     0.3218
        17.     160.83    16.3452     0.3158
        17.     170.31    17.9025     0.2971
        15.     124.78     6.5750     0.2973
        15.     129.63     7.3636     0.3349
        15.     132.05     7.7151     0.4210
        15.     134.47     7.7457     0.3189
        15.     136.88     8.6693     0.4152
        15.     139.28     7.6141     0.3352
        15.     141.69     8.2691     0.3931
        15.     144.08     7.2442     0.2838
        15.     144.08     8.3941     0.2988
        15.     146.48     8.4524     0.3696
        15.     148.87     7.8490     0.2828
        15.     148.87     8.8725     0.3272
        15.     151.26     7.4875     0.3104
ENDDATA            166
ENDSUBENT          174
SUBENT        D6109004   20110224   20110621   20110620       D077
BIB                  4          5
REACTION   (40-ZR-90(3-LI-6,X)2-HE-4,,SIG)
ANALYSIS   (INTAD) CDCC was used for extrapolation below 25 deg
ERR-ANALYS (ERR-S)statistical error
STATUS     (DEP,D6109003)Angular distribution
           (TABLE) Table I of Phys.Rev.C81(2010)054601
ENDBIB               5
NOCOMMON             0          0
DATA                 3          6
EN         DATA       ERR-S
MEV        MB         MB
      14.89        32.        19.
      16.90       122.        10.
      18.90       274.        15.
      20.91       360.        20.
      24.92       460.        30.
      29.93       540.        86.
ENDDATA              8
ENDSUBENT           18
ENDENTRY             4
