ENTRY            D0155   20040716   20050810                  D039
SUBENT        D0155001   20040716   20050810                  D039
BIB                 11         27
TITLE      Cross sections for non-Rutherford backscattering of
           4He from I light elements
AUTHOR     (C.Huan-sheng,S.Hao,Y.Fujia,T.Jia-yong)
INSTITUTE  (3CPRFUD)
REFERENCE  (J,NIM/B,85,47,1994)
FACILITY   (VDGT)
MONITOR    (47-AG-107(A,EL)47-AG-107,,DA,,RTH)
           (56-BA-0(A,EL)56-BA-0,,DA,,RTH)
           The elastic scattering cross section for Ag or Ba is
           essentially Rutherford scattering even at 10 MeV,
           the Ag film and Ba can be used as a reference.
MONIT-REF  (,C.Huan-sheng+,J,NIM/B,56/57,749,1991)
DETECTOR   (SIBAR) Two surface barrier detectors were used. One
           was a partially depleted type with a small sensitive
           area (25 mm2) and an energy resolution of 15 keV for
           2 MeV 4He ions. The other was an annular configuration
           with a sensitive area of 140 mm2 and an energy
           resolution of 25 keV for 2 MeV 4He ions.
ANALYSIS   The energy of the beam used for analysis was calibrated
           by resonances of the reactions 27Al(p,g)28Si at 992 keV
           16O(a,a)I60 at 3.034 MeV, 12C(a,a)12C at 4.625 (from
           J.A. Leavitt, etc.,Nucl.Instr.&Meth. B 40/41(1989)776)
           and 27Al(p,n)27Si at 5.803 MeV.
ERR-ANALYS (DATA-ERR) Typical uncertainties.
           (EN-ERR-DIG)  Digitizing error
           (ERR-DIG)    Digitizing error
HISTORY    (20040716C) SD
ENDBIB              27
COMMON               4          3
EN-RSL     DATA-ERR   EN-ERR-DIG ERR-DIG
KEV        PER-CENT   MEV        PER-CENT
  2.5        2.5       0.003       0.2
ENDCOMMON            3
ENDSUBENT           34
SUBENT        D0155002   20040716   20050810                  D039
BIB                  3          5
REACTION   (9-F-19(A,EL)9-F-19,,DA,,RTH)
SAMPLE     A NaF film (10 mu-g/cm2) evaporated on a
           self-supporting carbon film (10 mu-g/cm) overcoated
           with 10nm Ag.
STATUS     (CURVE) Curve from fig.1
ENDBIB               5
COMMON               1          3
ANG
ADEG
  165.
ENDCOMMON            3
DATA                 2        112
EN         DATA
MEV        NO-DIM
 1.6061     1.0076
 1.8076     1.0087
 1.8581    0.98978
 1.9063    0.99903
 1.9540    0.99806
 2.0053    0.99958
 2.0527    0.98841
 2.1040    0.98993
 2.1518    0.98897
 2.2031    0.99049
 2.2584     1.0098
 2.3058    0.99863
 2.3566    0.98739
 2.4093     1.0272
 2.4581    0.95981
 2.5069    0.98947
 2.5585    0.99865
 2.6053    0.96961
 2.6559     1.0478
 2.6827     1.0344
 2.7102     1.0390
 2.7312    0.95941
 2.7546    0.84912
 2.7842     1.0069
 2.8047     1.0090
 2.8350    0.90113
 2.8560    0.91603
 2.8854    0.87713
 2.9105     1.0069
 2.9323    0.94769
 2.9586    0.91907
 3.0073    0.84914
 3.0303    0.91763
 3.0577     1.0167
 3.0848     1.0085
 3.1068    0.95695
 3.1327    0.72913
 3.1558    0.80017
 3.1830    0.98606
 3.2096    0.96764
 3.2589    0.81853
 3.2831    0.73121
 3.3092     1.2670
 3.3348     1.2179
 3.3599    0.96717
 3.3820    0.72921
 3.4105    0.85633
 3.4368    0.82771
 3.4590    0.58976
 3.4840    0.71694
 3.5151    0.63204
 3.5354    0.72101
 3.5594    0.81758
 3.5870    0.35222
 3.6084    0.28284
 3.6403     1.1684
 3.6633     1.0479
 3.6855     1.0015
 3.7135     1.3993
 3.7357     1.7308
 3.7500    0.80096
 3.7683    0.55032
 3.7902     1.1577
 3.8126     1.3999
 3.8331     1.3994
 3.8509     1.0415
 3.8684    0.95947
 3.8888     1.0510
 3.9139     1.1782
 3.9285     1.1115
 3.9468    0.67186
 3.9707    0.48239
 3.9870    0.64806
 4.0079    0.47143
 4.0343    0.72883
 4.0585    0.45253
 4.0822    0.35245
 4.1123     1.1895
 4.1384    0.86975
 4.1578    0.64973
 4.1893     1.0500
 4.2135    0.87079
 4.2369    0.76050
 4.2579    0.49193
 4.2839    0.92811
 4.3090    0.77182
 4.3326    0.38316
 4.3597    0.28301
 4.3862    0.64001
 4.4078    0.57573
 4.4368    0.62112
 4.4591    0.48276
 4.4837    0.31371
 4.5101    0.38213
 4.5392    0.62161
 4.5648    0.76155
 4.5869    0.33462
 4.6131    0.30344
 4.6387    0.65421E-01
 4.6643    0.30241
 4.6890    0.13336
 4.7153    0.20178
 4.7391    0.29324
 4.7664    0.29269
 4.7916    0.42243
 4.8148    0.40408
 4.8401    0.44188
 4.8687    0.38257
 4.8901    0.12420
 4.9179    0.13641
 4.9413    0.31215
 4.9691    0.61039
ENDDATA            114
ENDSUBENT          128
SUBENT        D0155003   20040716   20050810                  D039
BIB                  3          5
REACTION   (12-MG-0(A,EL)12-MG-0,,DA,,RTH)
SAMPLE     A natural abundance Mg thin film (45 nm) deposited on
           a self-supporting carbon film (10 mu-g/cm) and
           overcoated with 5 nm Au.
STATUS     (CURVE) Curve from fig.2
ENDBIB               5
COMMON               1          3
ANG
ADEG
  165.
ENDCOMMON            3
DATA                 2        284
EN         DATA
MEV        NO-DIM
 2.0530    0.97549
 2.1079    0.99494
 2.1557    0.98950
 2.2036    0.98406
 2.2518     1.0299
 2.3539    0.96697
 2.4018    0.96154
 2.4567    0.98098
 2.5113    0.97477
 2.5455    0.97088
 2.6002    0.96467
 2.6485     1.0106
 2.6828     1.0323
 2.7102     1.0292
 2.7514     1.0502
 2.7990     1.0191
 2.8535    0.98725
 2.9020     1.0588
 2.9428     1.0285
 2.9975     1.0223
 3.0453     1.0168
 3.0934     1.0370
 3.1344     1.0324
 3.1617     1.0293
 3.1887    0.97485
 3.2230    0.99662
 3.2502    0.96786
 3.2775    0.96475
 3.2986     1.0394
 3.3069     1.2183
 3.3202     1.1654
 3.3330     1.0612
 3.3471     1.1109
 3.3674     1.0830
 3.3879     1.0806
 3.4225     1.1281
 3.4494     1.0736
 3.4637     1.1491
 3.4933     1.4282
 3.5064     1.3497
 3.5329     1.2439
 3.5673     1.2657
 3.6015     1.2618
 3.6354     1.2323
 3.6698     1.2541
 3.7042     1.2758
 3.7245     1.2479
 3.7522     1.2961
 3.7663     1.3458
 3.7941     1.3941
 3.8119     1.0581
 3.8328     1.1071
 3.8537     1.1561
 3.8749     1.2308
 3.8950     1.1771
 3.9229     1.2510
 3.9503     1.2479
 3.9774     1.2191
 4.0043     1.1647
 4.0244     1.1110
 4.0445     1.0574
 4.0721     1.0799
 4.0917    0.97495
 4.1189    0.94618
 4.1398    0.99517
 4.1673     1.0177
 4.1806    0.96485
 4.2005    0.88554
 4.2081    0.98741
 4.2222     1.0372
 4.2415    0.88088
 4.2624    0.92987
 4.2831    0.95320
 4.3107    0.97575
 4.3448    0.97187
 4.3722    0.96876
 4.3929    0.99209
 4.4200    0.96333
 4.4333    0.91045
 4.4463    0.83191
 4.4697     1.1888
 4.4921     1.4175
 4.4933     1.5714
 4.5122     1.3638
 4.5329    0.53954
 4.5408    0.66707
 4.5551    0.74250
 4.5700    0.89491
 4.5828    0.79071
 4.5888    0.68729
 4.6110    0.89025
 4.6269     1.1710
 4.6361     1.4525
 4.6595    0.96180
 4.7003    0.93148
 4.7276    0.92837
 4.7407    0.84983
 4.7469    0.77207
 4.7500     1.1570
 4.7622     1.8234
 4.7709     2.0536
 4.7837     1.9494
 4.7852     1.2814
 4.8074    0.63677
 4.8343    0.58234
 4.8486    0.65777
 4.8689    0.62978
 4.8960    0.60101
 4.9323    0.85374
 4.9559     1.2363
 4.9704     1.3374
 4.9915     1.4121
 5.0145     3.4129
 5.0429     1.8429
 5.0627     1.7636
 5.0714     1.9937
 5.0903    0.93852
 5.1174    0.90975
 5.1526     1.0342
 5.1738     1.1088
 5.1949     1.1835
 5.2144     1.0528
 5.2204    0.94942
 5.2330    0.81956
 5.2552     1.8701
 5.2750     3.4860
 5.2898     1.0700
 5.3175    0.27058
 5.3451    0.29313
 5.3728    0.34135
 5.3875    0.46810
 5.4086    0.54275
 5.4358    0.51398
 5.4633    0.53654
 5.4915    0.63607
 5.5126    0.71073
 5.5248    0.52955
 5.5323    0.60575
 5.5534    0.68041
 5.5710     1.1664
 5.5984     2.8585
 5.6187     3.6781
 5.6332     2.0840
 5.6549     1.3880
 5.6562     1.5420
 5.6713     1.7201
 5.6980    0.79240
 5.7102    0.61122
 5.7293    0.42926
 5.7554    0.27218
 5.7757    0.24419
 5.8003    0.75508
 5.8216     2.5506
 5.8361     2.6517
 5.8450     2.9075
 5.8604     1.4161
 5.8714     1.0809
 5.8981     1.0008
 5.9232    0.71544
 5.9412    0.40518
 5.9685    0.40207
 5.9836    0.58014
 5.9896    0.47672
 6.0025    0.37252
 6.0300    0.39508
 6.0443    0.47051
 6.0588    0.57160
 6.0791    0.54361
 6.1050    0.36087
 6.1176    0.23101
 6.1377    0.17736
 6.1589    0.25201
 6.1839    0.81423
 6.2057    0.96587
 6.2237    0.65560
 6.2510    0.65249
 6.2711    0.59884
 6.2987    0.62139
 6.3254    0.54130
 6.3395    0.59107
 6.3471    0.69294
 6.3645    0.30569
 6.3813    0.68906
 6.4049     1.0716
 6.4261     1.1463
 6.4567    0.70617
 6.4911    0.72795
 6.5110    0.64863
 6.5296     2.9581
 6.5555     4.4706
 6.5636     4.6238
 6.5720     4.8283
 6.5913     3.8244
 6.6065     1.4597
 6.6278     2.4076
 6.6516     5.3587
 6.6659     1.1961
 6.7086     2.2443
 6.7278     1.2404
 6.7450    0.82751
 6.7649    0.74820
 6.7860     1.6704
 6.8156     5.3400
 6.8431     11.296
 6.8665     10.805
 6.8763     6.0780
 6.8987     3.7638
 6.9074     3.1464
 6.9271     3.8890
 6.9658     10.383
 6.9693     3.1907
 6.9882     1.2879
 7.0056     3.4434
 7.0228     3.0305
 7.0429     2.9769
 7.0727     1.5865
 7.0874     1.7133
 7.1065     2.3789
 7.1294     3.5321
 7.1439     3.6332
 7.1582     3.7086
 7.1735     4.7600
 7.1877     1.4193
 7.2080    0.54374
 7.2229    0.69615
 7.2469     1.1301
 7.2701     1.4613
 7.2788     1.6915
 7.2885     2.0500
 7.2997     1.7405
 7.3126     1.6363
 7.3308     1.3517
 7.3523    0.63007
 7.3679    0.85947
 7.3933     2.3206
 7.4147     3.2685
 7.4351     4.9614
 7.4536     3.0072
 7.4725     1.1044
 7.4944    0.43413
 7.5087     1.3572
 7.5319     1.6884
 7.5493     2.1488
 7.5696     2.1208
 7.5946     4.3782
 7.6189     5.6854
 7.6412     7.6092
 7.6669     9.9436
 7.6872     9.9156
 7.6947     6.6014
 7.7019     7.4995
 7.7359     7.4700
 7.7677     10.574
 7.7694     5.6939
 7.7939     2.7888
 7.8212     2.7857
 7.8459     3.2966
 7.8639     2.1387
 7.8859     1.4684
 7.8998     2.3401
 7.9236     2.7484
 7.9404     2.2841
 7.9621     5.8261
 7.9784     4.4630
 8.0037     2.5081
 8.0222     1.4015
 8.0497     1.4241
 8.0708     1.4987
 8.1056     4.1146
 8.1323     9.1201
 8.1543     7.6022
 8.1710     8.8332
 8.1932     9.8838
 8.2118     11.346
 8.2293     5.8728
 8.2566     5.8697
 8.2670     5.4576
 8.2912     7.6124
 8.3127     14.519
 8.3390     16.931
 8.3449     3.2399
 8.3608     2.6730
 8.3807     2.5937
 8.3994     1.5128
ENDDATA            286
ENDSUBENT          300
SUBENT        D0155004   20040716   20050810                  D039
BIB                  3          7
REACTION   (13-AL-27(A,EL)13-AL-27,,DA,,RTH)
SAMPLE     An alumina film deposited on a self-supporting carbon
           film (10 mu-g/cm2) and overcoated with 5 nm Ag was
           used for determination of the aluminum cross sections.
           The thickness of the alumina film was 5 keV for
           3 MeV 4He ions.
STATUS     (CURVE) Curve from fig.3
ENDBIB               7
COMMON               1          3
ANG
ADEG
  170.
ENDCOMMON            3
DATA                 2        287
EN         DATA
MEV        NO-DIM
 2.0613    0.98592
 2.1162    0.99996
 2.1574     1.0009
 2.2055     1.0020
 2.2604     1.0161
 2.3085     1.0172
 2.3498     1.0054
 2.3773     1.0060
 2.4117     1.0068
 2.4735     1.0083
 2.5012    0.98336
 2.5285     1.0095
 2.5491     1.0100
 2.5766     1.0106
 2.6041     1.0113
 2.6387    0.98655
 2.6728     1.0129
 2.7073     1.0009
 2.7417     1.0017
 2.7759     1.0280
 2.8034     1.0159
 2.8446     1.0296
 2.8789     1.0432
 2.9065     1.0183
 2.9340     1.0189
 2.9615     1.0196
 2.9958     1.0331
 3.0371     1.0213
 3.0715     1.0221
 3.0989     1.0228
 3.1401     1.0365
 3.1678     1.0116
 3.2019     1.0379
 3.2159     1.0127
 3.2432     1.0389
 3.2776     1.0269
 3.3051     1.0275
 3.3327     1.0154
 3.3534     1.0031
 3.3738     1.0419
 3.3946     1.0041
 3.4219     1.0430
 3.4562     1.0438
 3.4838     1.0317
 3.5250     1.0326
 3.5664     1.0208
 3.5872    0.99579
 3.6011    0.97058
 3.6146     1.0092
 3.6351     1.0224
 3.6557     1.0229
 3.6766    0.98510
 3.7030     1.1517
 3.7102     1.1008
 3.7311     1.0630
 3.7587     1.0381
 3.7796     1.0002
 3.8003    0.98797
 3.8138     1.0266
 3.8412     1.0400
 3.8688     1.0279
 3.8962     1.0412
 3.9236     1.0547
 3.9517    0.96595
 3.9717     1.0558
 3.9993     1.0309
 4.0406     1.0318
 4.0682     1.0197
 4.0821    0.99450
 4.1031    0.93116
 4.1230     1.0337
 4.1506     1.0216
 4.1791    0.86910
 4.2064    0.90803
 4.2184     1.1636
 4.2198    0.95940
 4.2538     1.0113
 4.2950     1.0122
 4.3233    0.89797
 4.3500     1.0135
 4.3768     1.1162
 4.4045     1.0913
 4.4261    0.93866
 4.4518     1.2073
 4.4820    0.81230
 4.5229    0.86431
 4.5437    0.82650
 4.5767     1.0315
 4.5912    0.91695
 4.6191    0.86654
 4.6481    0.63744
 4.6800     1.0084
 4.7011    0.93227
 4.7289    0.89462
 4.7502    0.79299
 4.7700    0.90834
 4.7973    0.93450
 4.8240     1.0628
 4.8447     1.0505
 4.8705     1.2936
 4.8781     1.1917
 4.8990     1.1539
 4.9224    0.73316
 4.9413    0.98890
 4.9680     1.1044
 4.9897    0.95173
 5.0173    0.92684
 5.0338    0.51873
 5.0661    0.82585
 5.0959     1.5031
 5.1066    0.94167
 5.1084    0.67364
 5.1218    0.72502
 5.1422    0.75102
 5.1564    0.68752
 5.1568    0.63647
 5.1892    0.91806
 5.1896    0.86701
 5.2038    0.80351
 5.2410     1.3916
 5.2591    0.75373
 5.2838     1.1628
 5.3133     1.8911
 5.3307    0.32137
 5.3594     1.1645
 5.3800     1.1778
 5.4074     1.1784
 5.4348     1.2046
 5.4616     1.3073
 5.4927     1.7931
 5.5198     1.8448
 5.5392     1.0028
 5.5682     1.8077
 5.5836    0.53148
 5.6136     1.1832
 5.6228    0.83876
 5.6373    0.72421
 5.6632    0.96735
 5.6947     1.3893
 5.7187    0.89205
 5.7485     1.5693
 5.7681    0.70171
 5.7958    0.66406
 5.8228    0.74128
 5.8422    0.92044
 5.8716    0.64029
 5.8927    0.56418
 5.9126    0.67953
 5.9393    0.79504
 5.9591    0.92315
 5.9649     1.0765
 5.9876    0.77063
 6.0151    0.77127
 6.0407     1.0527
 6.0626    0.86173
 6.0639    0.67028
 6.0956     1.0540
 6.1137    0.41613
 6.1497     2.2169
 6.1689     1.4003
 6.1889    0.46893
 6.2157    0.57168
 6.2364    0.55939
 6.2645     1.5047
 6.2860    0.34353
 6.3121    0.54838
 6.3183    0.65065
 6.3415    0.26823
 6.3700     1.1369
 6.3774     1.0605
 6.3982     1.0355
 6.4215    0.64028
 6.4510     1.3558
 6.4650    0.30939
 6.4840    0.53960
 6.5321     3.6172
 6.5435    0.89841
 6.5649    0.78402
 6.5793    0.68223
 6.5880    0.41436
 6.6173     1.1682
 6.6493     1.5136
 6.6733     2.0375
 6.6905    0.49333
 6.7095    0.73632
 6.7372    0.71143
 6.7689     1.1079
 6.7925    0.66165
 6.8210    0.50913
 6.8522     2.0034
 6.8821     2.6679
 6.9029     1.6216
 6.9267     2.1711
 6.9533     1.2909
 6.9694    0.93382
 7.0040     1.9176
 7.0292     1.2416
 7.0467    0.68031
 7.0597    0.79550
 7.0662    0.84671
 7.0947    0.70695
 7.1291    0.69499
 7.1417    0.86123
 7.1779    0.59400
 7.2119     2.6883
 7.2266     1.5270
 7.2461    0.67217
 7.2761     1.3239
 7.3489     1.7341
 7.3585     7.4659
 7.3914     3.5988
 7.3983     7.6839
 7.4114     2.6674
 7.4230     1.9656
 7.4445     1.8384
 7.4623     1.2261
 7.4799     1.6861
 7.5060    0.86968
 7.5337    0.83203
 7.5740     4.0371
 7.5849     2.4289
 7.6009     2.0846
 7.6162    0.83394
 7.6314    0.61728
 7.6537    0.36249
 7.6774    0.93748
 7.6915    0.88675
 7.7175     1.1044
 7.7624     1.5777
 7.7671     5.9946
 7.8056     3.3276
 7.8103    0.58314
 7.8599     2.4097
 7.8788    0.62302
 7.8912    0.82755
 7.9172     1.0452
 7.9420     1.4415
 7.9631     2.3994
 7.9934    0.95758
 8.0315     3.4732
 8.0535     4.2907
 8.0628     1.8911
 8.0788     1.5468
 8.1133     2.5560
 8.1401     4.7012
 8.1478     2.5313
 8.1664     1.8169
 8.1866     1.8684
 8.2031     2.4815
 8.2418     4.9078
 8.2617     3.9892
 8.2780     2.5981
 8.2892     2.9686
 8.3025     2.0115
 8.3366     3.0718
 8.3407     1.4507
 8.3755     3.4302
 8.3871     1.7071
 8.4156     2.5758
 8.4306     1.3634
 8.4471     1.9766
 8.4584     1.3258
 8.4831     1.7349
 8.5184     3.6377
 8.5466     5.5787
 8.5961     9.4605
 8.5994     6.9203
 8.6282     3.6658
 8.6329     1.9426
 8.6374     6.3850
 8.6425     9.7169
 8.6480     1.7387
 8.6741    0.93507
 8.7022     3.9100
 8.7393     2.4812
 8.7468     6.4769
 8.8074     7.6783
 8.8091     1.2956
 8.8389     2.9941
 8.8528     1.9477
 8.8842     4.4377
 8.9020     1.7956
 8.9154     1.8470
 8.9473     3.2264
 8.9787     6.7376
 8.9792     2.5761
 9.0216     5.4748
ENDDATA            289
ENDSUBENT          305
SUBENT        D0155005   20040716   20050810                  D039
BIB                  3          5
REACTION   (14-SI-0(A,EL)14-SI-0,,DA,,RTH)
SAMPLE     The Si target is a natural abundant SiO thin film
            (10 mu-g/cm2) deposited on a self-supporting carbon
           film (10 mu-g/cm2) and also overcoated with 6 nm Ag.
STATUS     (CURVE) Curve from fig.4,5
ENDBIB               5
COMMON               1          3
ANG
ADEG
  170.
ENDCOMMON            3
DATA                 2        337
EN         DATA
MEV        NO-DIM
 2.0443    0.98912
 2.0951     1.0042
 2.1421    0.99349
 2.1968    0.99594
 2.2475     1.0110
 2.2946    0.98750
 2.3453     1.0154
 2.3961     1.0049
 2.4470    0.99433
 2.4979    0.98378
 2.5487    0.98606
 2.5956    0.98816
 2.6463     1.0161
 2.7012    0.98007
 2.7519     1.0080
 2.8026     1.0231
 2.8497    0.99953
 2.9004     1.0146
 2.9473     1.0167
 3.0021    0.99354
 3.0490     1.0085
 3.0959     1.0106
 3.1507    0.98738
 3.1976     1.0023
 3.2446    0.97876
 3.2993    0.98121
 3.3500     1.0091
 3.3969     1.0112
 3.4440    0.97487
 3.4987    0.99014
 3.5495    0.99241
 3.6002     1.0203
 3.6472    0.98397
 3.6981    0.98624
 3.7214     1.0129
 3.7449     1.0012
 3.7569    0.93760
 3.7763    0.97693
 3.7997    0.97798
 3.8193    0.97885
 3.8395    0.81310
 3.8560    0.60873
 3.8699     1.0196
 3.8808     1.2380
 3.8887     1.1999
 3.9008     1.1235
 3.9204     1.1116
 3.9400     1.0868
 3.9596     1.0749
 3.9792     1.0757
 3.9912    0.99937
 3.9992    0.96127
 4.0179     1.1672
 4.0377     1.1040
 4.0495     1.0789
 4.0612     1.0794
 4.0811     1.0162
 4.1003     1.0812
 4.1160     1.0819
 4.1395     1.0701
 4.1590     1.0838
 4.1782     1.1488
 4.2032     1.7268
 4.2225    0.85589
 4.2380    0.88222
 4.2618    0.80637
 4.2776    0.75580
 4.2995     1.1286
 4.3189     1.1679
 4.3344     1.2070
 4.3421     1.2330
 4.3496     1.2975
 4.3644     1.5032
 4.3742     2.9138
 4.3808     2.2603
 4.3876    0.61971
 4.3953    0.65851
 4.4186    0.68520
 4.4409    0.98104
 4.4603     1.0204
 4.4799     1.0084
 4.4993     1.0221
 4.5234    0.88218
 4.5424     1.0112
 4.5619     1.0121
 4.5818    0.93608
 4.6015    0.91132
 4.6133    0.88621
 4.6329    0.86145
 4.6409    0.82335
 4.6608    0.74732
 4.6802    0.77383
 4.7023     1.1081
 4.7178     1.1473
 4.7427     1.7381
 4.7545     1.7002
 4.7664     1.6751
 4.7789     1.4961
 4.7990     1.3560
 4.8188     1.2928
 4.8384     1.2681
 4.8579     1.2946
 4.8806     1.4622
 4.9016     1.1171
 4.9171     1.1562
 4.9365     1.1827
 4.9598     1.2222
 4.9838     1.1079
 4.9990     1.2111
 5.0226     1.1609
 5.0382     1.1873
 5.0630     1.7909
 5.0813     1.1636
 5.1009     1.1388
 5.1204     1.1525
 5.1401     1.1149
 5.1633     1.1800
 5.1750     1.1934
 5.1907     1.1813
 5.2062     1.1948
 5.2258     1.1957
 5.2452     1.2222
 5.2644     1.3128
 5.2828     1.5828
 5.3072     2.3018
 5.3176     1.6869
 5.3298    0.63625
 5.3332    0.73897
 5.3443    0.89330
 5.3556    0.99636
 5.3664     1.2148
 5.3697     1.3816
 5.3774     2.3306
 5.3806     2.4974
 5.3813     4.2153
 5.3855     6.9589
 5.3926     3.3825
 5.3941     5.8311
 5.3980     9.5875
 5.3991     2.7546
 5.4017     2.1394
 5.4071     1.7679
 5.4220     1.0122
 5.4416     1.0130
 5.4609     1.0652
 5.4880     1.1305
 5.5039     1.0671
 5.5265     1.2604
 5.5518     1.7615
 5.5590     1.9029
 5.5663     2.0442
 5.5842    0.55791
 5.5916    0.66080
 5.6029    0.75104
 5.6260    0.84181
 5.6456    0.82987
 5.6576    0.77913
 5.6656    0.72821
 5.6862     1.4214
 5.7090     2.5121
 5.7280    0.75664
 5.7359    0.73136
 5.7439    0.70607
 5.7666     1.8096
 5.7875     3.3617
 5.8020     1.7599
 5.8229    0.49168
 5.8264    0.59439
 5.8376    0.72309
 5.8606    0.83950
 5.8799    0.89164
 5.8993    0.94379
 5.9182     1.0985
 5.9404     2.3302
 5.9609     3.9720
 5.9883     3.0246
 6.0206     1.0376
 6.0443    0.68478
 6.0619    0.53529
 6.0831     3.5082
 6.1021     1.5168
 6.1214     3.0052
 6.1432     1.2703
 6.1605     1.5301
 6.1816    0.66499
 6.1990    0.82249
 6.2195    0.77600
 6.2399    0.83184
 6.2594     2.1156
 6.2779    0.89168
 6.2984    0.84519
 6.3188    0.84987
 6.3384     1.9802
 6.3570    0.65389
 6.3800     1.1709
 6.4006    0.86856
 6.4184    0.61674
 6.4415    0.87791
 6.4560     1.0859
 6.4765     1.0394
 6.4970    0.99292
 6.5169     1.7139
 6.5379    0.95110
 6.5585    0.75112
 6.5789    0.85812
 6.6006     3.1659
 6.6165     9.2591
 6.6196     5.0636
 6.6261     4.1440
 6.6280     1.6881
 6.6403    0.76981
 6.6605     1.1838
 6.6777     1.5971
 6.6979     1.9600
 6.7179     2.5274
 6.7395     5.0398
 6.7595     5.5562
 6.7702     6.8891
 6.7806     8.6825
 6.7892     8.8380
 6.7997     6.5376
 6.8094     5.2605
 6.8185     4.8532
 6.8274     8.5397
 6.8400     11.306
 6.8472     9.4654
 6.8599     4.2486
 6.8784     2.9223
 6.8937     2.0047
 6.9170     2.0612
 6.9384    0.83792
 6.9579     2.1217
 6.9781     2.3822
 6.9987     2.2845
 7.0182     3.4660
 7.0367     2.1909
 7.0544     2.0414
 7.0778     2.0467
 7.0957     1.4879
 7.1168    0.67398
 7.1338     1.3431
 7.1542     1.4501
 7.1767     2.6323
 7.1942     2.6874
 7.2148     2.4363
 7.2383     2.3393
 7.2562     1.7805
 7.2772     1.0689
 7.2989     3.3766
 7.3167     3.0225
 7.3339     7.3761
 7.3426     7.4293
 7.3495     6.0492
 7.3572     3.4923
 7.3767    0.83573
 7.3945    0.48159
 7.4171     1.5102
 7.4370     2.3847
 7.4569     3.1057
 7.4793     8.3305
 7.4981     6.5437
 7.5208     7.5724
 7.5408     8.1398
 7.5603     9.4748
 7.5801     10.298
 7.5999     11.173
 7.6168     4.2169
 7.6384     6.6269
 7.6594     9.7021
 7.6819     10.987
 7.6999     6.3340
 7.7212     17.085
 7.7382     2.0441
 7.7592     1.2814
 7.7817     2.5658
 7.7997     9.7342
 7.8232     9.5860
 7.8465     29.344
 7.8633     14.610
 7.8850     9.0373
 7.9024     1.3652
 7.9245     14.829
 7.9413     7.9755
 7.9620     3.7328
 7.9812     1.4344
 8.0019     1.1833
 8.0196    0.93146
 8.0428     1.0903
 8.0604     1.0431
 8.0833     5.6028
 8.0924     5.2466
 8.1043     4.8400
 8.1220     8.6309
 8.1451     28.543
 8.1623     9.3565
 8.1818     10.640
 8.2024     6.6023
 8.2214     8.6024
 8.2416     4.9225
 8.2627     8.0489
 8.2858     20.131
 8.3047     14.455
 8.3253     10.315
 8.3458     14.106
 8.3637     13.650
 8.3829     7.4623
 8.4025     4.7546
 8.4243     2.9685
 8.4424     10.086
 8.4647     11.524
 8.4838     9.3276
 8.5029     15.166
 8.5265     34.463
 8.5447     17.836
 8.5648     26.182
 8.5866     20.456
 8.6042     16.468
 8.6246     20.413
 8.6471     9.8255
 8.6637     15.049
 8.6844     22.576
 8.7040     27.596
 8.7269     24.275
 8.7442     24.586
 8.7635     6.5258
 8.7831     3.8693
 8.8048     9.9639
 8.8220     2.5477
 8.8423     2.8082
 8.8636     9.4656
 8.8847     12.541
 8.9016     13.363
 8.9238     26.725
 8.9449     25.962
 8.9623     22.179
 8.9842     8.5208
 9.0008     13.591
ENDDATA            339
ENDSUBENT          353
SUBENT        D0155006   20040716   20050810                  D039
BIB                  3          4
REACTION   (17-CL-0(A,EL)17-CL-0,,DA,,RTH)
SAMPLE    The Cl target is a natural abundant BaCl2 (50 nm) film
          evaporated on a self-supirting carbon film.
STATUS     (CURVE) Curve from fig.6
ENDBIB               4
COMMON               1          3
ANG
ADEG
  165.
ENDCOMMON            3
DATA                 2        256
EN         DATA
MEV        NO-DIM
 2.0753    0.99258
 2.5294    0.98968
 3.0246    0.98954
 3.0732    0.97952
 3.1278    0.99005
 3.1756     1.0005
 3.2245    0.98027
 3.2781     1.0190
 3.3197     1.0115
 3.3816     1.0092
 3.4238    0.98381
 3.4714    0.99942
 3.5271    0.98175
 3.5753    0.97942
 3.6237    0.97197
 3.6712    0.99015
 3.7187     1.0083
 3.7672     1.0009
 3.8147     1.0191
 3.8638    0.99109
 3.9114     1.0067
 3.9671    0.98903
 4.0152    0.98927
 4.0358    0.98937
 4.0555     1.0177
 4.0833     1.0076
 4.0975    0.99480
 4.1105     1.0179
 4.1530    0.98225
 4.1803    0.99008
 4.1944    0.97989
 4.2144    0.99794
 4.2285    0.98775
 4.2358    0.97497
 4.2698    0.98539
 4.2965     1.0086
 4.3171     1.0113
 4.3378     1.0088
 4.3528    0.97298
 4.3732    0.98077
 4.3868    0.98596
 4.4211    0.98870
 4.4420    0.98111
 4.4695    0.98124
 4.5107    0.98144
 4.5311    0.98924
 4.5724    0.98944
 4.5936    0.97159
 4.6281    0.96920
 4.6556    0.96933
 4.6700    0.95146
 4.6901    0.96694
 4.7099    0.99011
 4.7308    0.98252
 4.7585    0.97753
 4.7726    0.96734
 4.7935    0.95975
 4.8077    0.94957
 4.8342    0.97790
 4.8547    0.98057
 4.8764    0.94990
 4.8905    0.93972
 4.9102    0.96802
 4.9177    0.95011
 4.9378    0.96559
 4.9450    0.95537
 4.9653    0.96572
 4.9660    0.94522
 4.9847    0.99915
 5.0078    0.93004
 5.0209    0.94805
 5.0428    0.91226
 5.0700    0.92265
 5.0828    0.95092
 5.1044    0.92282
 5.1056    0.88949
 5.1248    0.92805
 5.1328    0.89732
 5.1608    0.88464
 5.1806    0.90781
 5.2117     1.0003
 5.2286    0.91061
 5.2294    0.89010
 5.2494    0.90815
 5.2641    0.88001
 5.2880    0.78783
 5.3047    0.89816
 5.3198    0.85978
 5.3501    0.97787
 5.3648    0.94974
 5.3817    0.86008
 5.3942    0.89604
 5.4283    0.90646
 5.4564    0.88865
 5.4644    0.85792
 5.4896    0.92214
 5.5044    0.89401
 5.5052    0.87094
 5.5307    0.92747
 5.5457    0.89165
 5.5513    0.92757
 5.5704    0.97126
 5.5882    0.85853
 5.6159    0.85354
 5.6330    0.95105
 5.6424    0.88187
 5.6518    0.81012
 5.6594    0.78965
 5.6934    0.80007
 5.7157    0.94889
 5.7306    0.72077
 5.7424    0.77724
 5.7613    0.63118
 5.7897    0.80054
 5.8101    0.80834
 5.8201    0.71865
 5.8502    0.83930
 5.8695    0.87785
 5.8901    0.88052
 5.9060    0.81906
 5.9182    0.66785
 5.9334    0.82176
 5.9567    0.93982
 5.9849    0.92201
 6.0065    0.69905
 6.0220    0.65041
 6.0415    0.68127
 6.0595    0.75828
 6.0891    0.89175
 6.0985    0.82257
 6.0992    0.80206
 6.1263    0.81245
 6.1388    0.84841
 6.1596    0.64852
 6.1907    0.93840
 6.2036    0.96154
 6.2207    0.67189
 6.2420    0.84891
 6.2627    0.65159
 6.2852    0.79272
 6.3049    0.82102
 6.3192    0.61084
 6.3462    0.81866
 6.3584    0.67001
 6.3868    0.83937
 6.3999    0.66252
 6.4168    0.76772
 6.4383    0.54989
 6.4679    0.88079
 6.4784    0.77828
 6.5048    0.80918
 6.5180    0.62976
 6.5353    0.52985
 6.5444    0.66066
 6.5587    0.84021
 6.5787    0.66339
 6.6063    0.66096
 6.6169    0.36103
 6.6456    0.91243
 6.6603    0.68943
 6.6831    0.62801
 6.7016    0.68964
 6.7352     1.1026
 6.7702    0.88996
 6.7920     1.0516
 6.8127    0.65941
 6.8224    0.57998
 6.8470    0.66215
 6.8641    0.76222
 6.8885    0.85208
 6.9030    0.83164
 6.9239    0.82149
 6.9451    0.61135
 6.9595    0.39861
 6.9879    0.56797
 7.0025    0.54496
 7.0265    0.45021
 7.0563     1.1631
 7.0713    0.93503
 7.0893     1.0095
 7.1163     1.0224
 7.1263    0.74043
 7.1551     1.0944
 7.1742    0.94322
 7.1934    0.98178
 7.2141    0.98188
 7.2319    0.86659
 7.2504    0.73335
 7.2749    0.62322
 7.2866    0.68225
 7.3135    0.89263
 7.3296    0.63118
 7.3510    0.61077
 7.3685    0.50317
 7.3805    0.55451
 7.4221     1.3239
 7.4368     1.1035
 7.4779    0.91394
 7.4970     1.1525
 7.5146    0.65260
 7.5300    0.80138
 7.5451    0.76300
 7.5719    0.78364
 7.5971     1.0427
 7.6091    0.70434
 7.6527    0.83275
 7.6739    0.62261
 7.6830    0.75342
 7.7086    0.61253
 7.7140    0.65358
 7.7409    0.67166
 7.7414    0.65884
 7.7788    0.96413
 7.7901    0.64369
 7.8077    0.53353
 7.8259    0.60284
 7.8506    0.68245
 7.8698    0.72357
 7.9024     1.1647
 7.9361    0.79312
 7.9566    0.99321
 7.9759    0.64204
 8.0015    0.89087
 8.0243    0.82945
 8.0350    0.91411
 8.0699    0.51174
 8.0955    0.76057
 8.1179    0.90426
 8.1428    0.78388
 8.1672     1.2635
 8.1786     1.1353
 8.1962    0.63543
 8.2216     1.0842
 8.2367    0.65614
 8.2528    0.59212
 8.2693    0.51272
 8.2879    0.57178
 8.3146    0.59498
 8.3341    0.62585
 8.3589    0.70289
 8.3685    0.62602
 8.3806    0.67223
 8.3929    0.71331
 8.4234     1.2134
 8.4443    0.81612
 8.4574    0.83670
 8.5082     1.3446
 8.5349    0.39351
 8.5570    0.93718
 8.5824    0.80142
 8.5977    0.56304
 8.6216     1.0554
 8.6370    0.81450
 8.6538    0.53255
 8.6825     1.0839
 8.6982    0.83532
ENDDATA            258
ENDSUBENT          271
ENDENTRY             6
