ENTRY            D0178   20061208   20070924   20070920       D055
SUBENT        D0178001   20061208   20070924   20070920       D055
BIB                 11         27
TITLE      One-neutron transfer reaction and refractive effects
           in the 16O+ 16O system
AUTHOR     (H.G.Bohlen,Dao T.Khoa,W.Von Oertzen,B.Gebauer,
           F.Nuoffer,G.Bartnitzky,A.Blazevic,W.Mittig,
           P.Roussel-Chomaz)
INSTITUTE  (2FR GAN,2GERBER,3VN NNR,2GERTUE)
REFERENCE  (J,NP/A,703,573,2002)
FACILITY   (CYCLO,2GERBER) Cyclotron in Hahn-Meitner-Inst., used
           for energies 250-480MeV
           (CYCLO,2FR GAN) Grand Accelerateur National d'Ions
           Lourds (GANIL) used formeasurements at 704 and 1120 MeV
METHOD     (EDE,TOF)
SAMPLE     For the oxygen targets different compounds have been
           used: 6Li2O,  CaO and V2O5. The latter two were
           prepared as self-supporting foils in  the range of
           0.2-1.4 mg/cm2 thickness and the former on a
           carbon-backing of 60 mu-g/cm2 thickness.
DETECTOR   (SPEC) Q3D magnetic spectrograph at Hahn-Meitner-Inst.
           for the incident energies Elab  = 250-480 MeV and at
           the SPEG  spectrograph at GANIL for the energies of
           704 and 1120 MeV.
ERR-ANALYS (ANG-ERR-D)  Digitizing error
           (ERR-DIG)    Digitizing error
           (DATA-ERR)  Nothing said about uncertainties
STATUS     (CURVE) Data were digitized from figures.
                   No any response from the authors.
HISTORY    (20060609C) SD
ENDBIB              27
COMMON               2          3
ANG-ERR-D  ERR-DIG
ADEG       PER-CENT
 0.2          0.5
ENDCOMMON            3
ENDSUBENT           34
SUBENT        D0178002   20060609   20070924   20070920       D055
BIB                  4          5
REACTION   (8-O-16(8-O-16,8-O-15)8-O-17,PAR,DA)
EN-SEC     (E-LVL1,8-O-17)
           (E-LVL2,8-O-15)
LEVEL-PROP (8-O-15,E-LVL=0.0,SPIN=0.5,PARITY=-1.)
STATUS     (CURVE) Points were digitized from fig.3
ENDBIB               5
COMMON               2          3
E-LVL1     E-LVL2
MEV        MEV
  0.0        0.0
ENDCOMMON            3
DATA                 4        389
EN         ANG-CM     DATA-CM    DATA-ERR
MEV        ADEG       MB/SR      MB/SR
       250.     6.5329     15.174
       250.     7.0903     13.159
       250.     7.7411     10.519     1.2107
       250.     8.3892      11.89
       250.     9.0404     8.9408
       250.     9.3178      9.901     4.0719
       250.     9.6918     6.5875
       250.     10.063     6.5884    0.87593
       250.     10.344     4.2949    0.71975
       250.     10.901     4.1242    0.76028
       250.     11.458     3.6503    0.61162
       250.     12.201     3.1658    0.53053
       250.     12.853     2.2394
       250.     13.504      1.754
       250.     14.154     1.4604
       250.     14.712     1.1438
       250.     15.083     1.1915
       250.     15.825     1.0986
       250.     16.474     1.0988
       250.     17.031    0.97255
       250.     17.682    0.76173
       250.     18.333    0.62144
       250.     18.983    0.56137
       250.     19.632    0.51755
       250.     20.283    0.41371
       250.     20.842    0.31748
       250.     21.585    0.24867
       250.     22.142    0.22463
       250.     22.793    0.18326  2.1087E-2
       250.     23.447  9.9457E-2  1.3226E-2
       250.     24.095    0.10793  1.4349E-2
       250.     25.763    0.11717
       250.     26.413    0.11483
       250.      26.97  9.5609E-2
       250.     27.619  9.5632E-2
       250.     28.269  8.9982E-2
       250.     28.919  7.6463E-2
       250.     29.569  7.1946E-2
       250.     30.219  5.8695E-2
       250.     30.869  5.1952E-2
       250.     31.427  4.5981E-2
       250.     32.077  3.9878E-2
       250.     32.821  3.0605E-2
       250.     33.377  2.8796E-2
       250.     34.028  2.3492E-2
       250.      34.77  2.2105E-2
       250.     35.605  2.0800E-2
       250.     36.161  2.0805E-2
       250.     36.811  1.8414E-2
       250.     37.368  1.8797E-2
       250.     38.109  2.0399E-2
       250.     38.666  1.7691E-2
       250.     39.317  1.4142E-2
       250.     39.967  1.2264E-2
       250.     40.524  1.0855E-2  8.4979E-4
       250.     41.266  1.0639E-2
       250.     42.009  9.2270E-3  1.0623E-3
       250.     42.568  6.5265E-3  7.5101E-4
       250.     42.756  4.5227E-3  4.3816E-4
       250.       43.5  3.5425E-3  5.3304E-4
       250.     44.056  3.7666E-3  5.0077E-4
       250.     44.612  3.8449E-3  5.1119E-4
       250.     45.354  3.5449E-3  4.7130E-4
       250.     46.003  3.8469E-3  4.4278E-4
       250.     46.653  3.2030E-3  3.6876E-4
       250.     47.394  3.6952E-3  4.2531E-4
       250.     47.951  3.4767E-3  4.6223E-4
       250.     48.602  2.6682E-3  3.5481E-4
       250.     49.252  2.2673E-3  3.7989E-4
       250.     49.902  2.1333E-3  3.2094E-4
       250.     50.642  2.6163E-3  3.0122E-4
       250.       51.2  2.1344E-3  3.5762E-4
       250.      51.85  1.8137E-3  3.0389E-4
       250.     52.686  1.5413E-3  2.8422E-4
       250.     53.427  1.7423E-3  2.6216E-4
       250.     53.983  1.7426E-3  3.0859E-4
       250.     54.725  1.5742E-3  2.6381E-4
       250.     55.281  1.6401E-3  2.7485E-4
       250.      55.93  1.7798E-3  2.7291E-4
       250.     56.487  1.7091E-3  2.6206E-4
       250.     57.137  1.5127E-3  2.3190E-4
       250.     57.878  1.4826E-3  1.9284E-4
       250.     58.623  1.0924E-3  1.9340E-4
       250.      59.18  9.8677E-4  2.1408E-4
       250.     59.828  1.0708E-3  2.1549E-4
       250.     60.572  8.2183E-4  1.7830E-4
       250.     61.129  7.4236E-4  1.6106E-4
       250.     62.059  5.4702E-4  9.6846E-5
       250.      62.62  2.8501E-4  7.5070E-5
       250.     63.269  2.8508E-4  7.5088E-5
       250.     64.007  4.3748E-4  9.4922E-5
       250.     64.564  4.0331E-4  8.0996E-5
       250.     65.302  6.5793E-4  1.1026E-4
       250.     65.954  4.6539E-4  1.0520E-4
       250.     66.509  5.2603E-4  9.6987E-5
       250.     67.249  6.8580E-4  1.1495E-4
       350.      3.935     189.69     29.086
       350.     4.1222      151.6      26.84
       350.     4.3087     131.46     20.163
       350.     4.4952     113.99     20.185
       350.     4.7757     83.973     18.982
       350.      5.058     49.438     15.874
       350.     5.3349     58.199     7.5676
       350.     6.0796     39.524     7.2873
       350.     6.6355     42.025     9.1174
       350.     7.2856     36.446     6.7198
       350.     7.6557     40.362      6.189
       350.     8.3998     29.739
       350.      8.959     20.611
       350.     9.6092     17.514
       350.     10.449     8.7619
       350.     11.191     8.0782
       350.     12.028     5.9523
       350.     12.774     3.6507      0.475
       350.     13.703     2.6358    0.35043
       350.     14.259     2.9793
       350.     14.724     2.4804
       350.     15.281     2.1077
       350.     15.747     1.5528
       350.     16.305     1.4027
       350.      16.77     1.1442
       350.     17.326     1.1214
       350.     17.792    0.87826  8.5086E-2
       350.      18.72    0.79345
       350.     19.184    0.70224
       350.     19.648    0.64738
       350.     20.206    0.52813
       350.     20.763    0.49691
       350.     21.228     0.4137
       350.     21.785    0.36616
       350.     22.343    0.31114
       350.     22.808    0.26438
       350.     23.272     0.2388
       350.     23.921    0.23404
       350.     24.386    0.20296
       350.     24.852    0.15896
       350.     25.408    0.15264
       350.     25.874    0.11477
       350.      26.43    0.11248
       350.     27.079    0.11482
       350.     28.101  8.6352E-2
       350.     29.216  6.3634E-2
       350.     30.237  5.6331E-2
       350.     30.794  5.5206E-2
       350.     31.723  4.0679E-2
       350.     32.745  3.4572E-2
       350.     33.859  2.7083E-2
       350.      34.88  2.3975E-2
       350.      35.81  1.7310E-2
       350.     37.018  1.2247E-2  1.1861E-3
       350.     38.039  1.0622E-2
       350.     39.153  7.9889E-3
       350.     40.175  6.1318E-3
       350.     41.198  4.6115E-3
       350.     42.311  3.9193E-3
       350.     43.334  2.8298E-3  3.2571E-4
       350.     44.539  3.0096E-3  3.4640E-4
       350.     45.467  2.5061E-3  2.4279E-4
       350.      46.58  2.4566E-3  2.8275E-4
       350.     47.694  2.0045E-3  2.3077E-4
       350.     48.437  1.8480E-3  2.7803E-4
       350.     48.808  1.7745E-3  1.9035E-4
       350.     49.458  1.5706E-3  2.3638E-4
       350.     50.293  1.4481E-3  2.5638E-4
       350.     50.757  1.3350E-3  2.2372E-4
       350.     51.312  1.5717E-3  2.7832E-4
       350.     52.335  1.1348E-3  2.2790E-4
       350.     53.262  1.0898E-3  2.0094E-4
       350.     54.284  8.1962E-4  2.0345E-4
       350.     55.212  8.3679E-4  1.6805E-4
       350.     56.232  7.7157E-4  1.7956E-4
       350.     57.254  6.0441E-4  1.2138E-4
       350.     58.184  4.0222E-4  1.7948E-4
       350.     59.205  3.7087E-4  1.2913E-4
       350.     60.228  2.4681E-4  1.0445E-4
       350.     61.247  2.8476E-4  1.1016E-4
       350.     63.015  1.2356E-4  4.4182E-5
       350.     65.055  1.2365E-4  5.0864E-5
       350.     67.007  6.1886E-5  4.0873E-5
       480.     3.4919     131.37     17.087
       480.     3.8646     102.88     17.241
       480.     4.2374     80.574     10.484
       480.     4.4237     71.305      12.63
       480.      4.703     61.831      10.36
       480.     4.9854     35.668     5.4693
       480.     5.3567     33.557     5.1456
       480.     5.6369      25.75     2.7622
       480.     5.8244     19.758     3.0296
       480.     6.1035     17.485
       480.     6.2872     21.881     2.8469
       480.     6.2902     14.856
       480.     6.4773     11.873     1.9901
       480.     6.8434     22.336
       480.     7.0312     16.454     2.9131
       480.     7.2188     12.371      1.645
       480.     7.7745     13.424     2.0584
       480.       8.24     10.513
       480.     8.7977     8.7534
       480.     9.3553     7.4381
       480.      9.913     6.1929
       480.     10.379     4.7523
       480.     10.843      4.381
       480.     11.401     3.6476
       480.     11.958     3.2284
       480.     12.515     2.7433
       480.     12.982     1.9012
       480.     13.539     1.6488
       480.     14.097     1.4593
       480.      14.56     1.5516
       480.     15.118     1.1201
       480.     15.583    0.99133
       480.     16.234    0.74543  7.9965E-2
       480.     16.698    0.68719
       480.     17.163    0.64655  8.4097E-2
       480.      17.72    0.53831  5.7725E-2
       480.     18.186    0.43028  5.5966E-2
       480.     18.743    0.36562  6.4745E-2
       480.     19.207    0.34399
       480.     19.856    0.33714
       480.      20.32    0.32373
       480.     20.878    0.28652
       480.     21.343    0.23855
       480.     21.808    0.19067
       480.     22.365     0.1794
       480.     22.922     0.1688
       480.      23.48     0.1322  1.4182E-2
       480.     23.944    0.12188  1.1807E-2
       480.     24.503  8.4467E-2  1.1230E-2
       480.     24.873  9.1654E-2  9.8284E-3
       480.     25.617  6.7532E-2  8.7839E-3
       480.     26.082  6.2255E-2  9.5461E-3
       480.      26.64  4.7775E-2  7.3239E-3
       480.     27.104  4.7784E-2  9.6178E-3
       480.     27.846  4.2295E-2  9.1760E-3
       480.     28.587  4.6845E-2  1.0588E-2
       480.     29.329  4.4987E-2  1.0168E-2
       480.     30.072  3.8229E-2  8.6386E-3
       480.     30.723  3.1830E-2  8.8189E-3
       480.     31.466  2.5445E-2  7.0497E-3
       480.     32.209  2.3942E-2  6.3062E-3
       480.      32.95  2.5459E-2  7.4547E-3
       480.     33.692  2.3956E-2  7.3557E-3
       480.      34.44  1.0823E-2  4.9504E-3
       480.     35.186  6.5041E-3  3.7965E-3
       480.     35.557  5.7563E-3  6.6254E-4
       480.     36.301  4.6015E-3  5.2977E-4
       480.      36.95  4.5098E-3  5.1920E-4
       480.     37.786  3.6052E-3  4.7942E-4
       480.     38.438  2.6027E-3  3.9155E-4
       480.     39.181  2.2117E-3  4.0778E-4
       480.     39.922  2.4002E-3  4.0230E-4
       480.     40.672  8.8446E-4  2.3294E-4
       480.     41.412  9.9977E-4  2.3269E-4
       480.     42.157  7.0722E-4  2.0708E-4
       480.     42.901  4.8029E-4  1.7354E-4
       480.     43.551  4.2511E-4  1.6444E-4
       480.     44.388  3.0692E-4  1.4039E-4
       480.     44.947  2.3078E-4  1.1769E-4
       480.     46.062  1.7357E-4  1.0131E-4
       480.     47.085  1.1318E-4  7.9858E-5
       704.     2.4006     80.491     8.6314
       704.     3.2405     39.455     6.0483
       704.     3.5242     19.336
       704.     3.9887     17.113     3.7122
       704.     4.3599     16.432
       704.     4.9203     9.6751
       704.      5.294      6.705
       704.     5.6641     7.4252
       704.     6.1285      6.707
       704.     6.5944     4.9413    0.56889
       704.     6.9645     5.4721    0.71176
       704.     7.4308     3.8705
       704.     7.5216      4.943    0.75815
       704.     7.8007     4.3745    0.56899
       704.     8.2665     3.2892    0.50449
       704.     8.6389     2.6831    0.28793
       704.     8.7303     3.2234    0.49427
       704.     9.1033     2.4236    0.37153
       704.     9.1061     1.6794    0.21844
       704.     9.5671     2.3751     0.3641
       704.     9.7538     2.0179    0.26255
       704.     9.8482     1.6127    0.29735
       704.      10.22     1.4567    0.31599
       704.     10.779     1.0732    0.11513
       704.     11.243    0.96942    0.12609
       704.     11.615    0.85796  9.8777E-2
       704.     12.174    0.55936  7.2734E-2
       704.     12.454    0.47525  7.9658E-2
       704.     12.822    0.63226  8.2238E-2
       704.     13.381    0.45643
       704.     13.661    0.39579  6.0705E-2
       704.     14.032    0.35028  4.5588E-2
       704.      14.59    0.29764  5.9909E-2
       704.     14.962    0.26342  4.0392E-2
       704.     15.334    0.21931
       704.     15.891    0.19019  2.4745E-2
       704.     16.728    0.14597  2.2377E-2
       704.     17.192    0.13733  1.7858E-2
       704.      17.75    0.11204  1.7179E-2
       704.     18.029  9.7151E-2  1.2922E-2
       704.     18.678    0.10543  1.1310E-2
       704.     18.865  8.0895E-2  8.6809E-3
       704.     19.515  7.3076E-2  1.4715E-2
       704.     19.979  6.7367E-2  1.1927E-2
       704.     20.166  5.6081E-2  6.0181E-3
       704.     20.816  4.8637E-2  8.6108E-3
       704.     20.817  4.3039E-2
       704.     21.283  3.1068E-2  5.2065E-3
       704.     21.374  3.9678E-2  6.0856E-3
       704.     21.748  2.7497E-2  4.8682E-3
       704.     22.027  2.3844E-2  3.6561E-3
       704.       22.4  1.8673E-2  2.4821E-3
       704.     22.584  2.1982E-2
       704.     22.675  2.5875E-2
       704.     23.049  1.9063E-2  2.5344E-3
       704.     23.422  1.2944E-2  1.6831E-3
       704.      23.61  9.7317E-3  1.4919E-3
       704.     23.983  7.7784E-3  1.6877E-3
       704.     24.258  1.1000E-2  1.9480E-3
       704.     24.629  1.0780E-2  1.9093E-3
       704.     24.817  8.4416E-3  1.6951E-3
       704.     25.285  4.2225E-3  1.1697E-3
       704.      25.75  3.6617E-3  7.3718E-4
       704.      26.03  2.9267E-3  5.1826E-4
       704.     26.309  2.5901E-3  8.5533E-4
       704.     26.777  1.5250E-3  5.4515E-4
       704.     27.244  9.9419E-4  1.3218E-4
       704.     27.706  1.1010E-3  1.1807E-4
       704.      28.08  8.2784E-4  1.2694E-4
       704.     28.545  6.7532E-4  8.7813E-5
       704.     28.919  4.4025E-4  8.8415E-5
       704.     29.387  2.4886E-4  6.1779E-5
       704.     29.757  2.9297E-4  8.1181E-5
       704.      30.22  2.8710E-4  6.2303E-5
       704.     30.592  2.7011E-4  7.1166E-5
       704.      31.06  1.4073E-4  4.5186E-5
       704.     31.427  2.3910E-4  5.4049E-5
       704.     31.894  1.5909E-4  5.1076E-5
       704.     32.734  7.9586E-5  3.6405E-5
       704.     33.102  1.0588E-4  3.6867E-5
       704.     33.471  1.4376E-4  4.4145E-5
  1.1200E+3     3.7328     9.2812     1.6428
  1.1200E+3     4.2903     8.0489     1.4253
  1.1200E+3      4.664      5.578    0.93493
  1.1200E+3     5.1279     5.3562    0.89744
  1.1200E+3     5.4093     3.4916    0.37456
  1.1200E+3     5.8735     3.2188    0.53951
  1.1200E+3      6.339     2.5209    0.33524
  1.1200E+3     6.6189     2.0149    0.30318
  1.1200E+3     6.9885      2.372    0.36362
  1.1200E+3     7.3616     1.7835    0.35912
  1.1200E+3     7.5481     1.5464    0.31133
  1.1200E+3     7.7345     1.3685    0.27488
  1.1200E+3     8.0144     1.0938    0.21973
  1.1200E+3     8.2913     1.2876
  1.1200E+3     8.3826     1.5469
  1.1200E+3     9.0356    0.92961     0.2308
  1.1200E+3     9.1258      1.288    0.25936
  1.1200E+3     9.5922    0.89267    0.15808
  1.1200E+3     9.6868    0.69903  9.2936E-2
  1.1200E+3     10.244    0.60621    0.13701
  1.1200E+3     10.527    0.32896  4.3735E-2
  1.1200E+3     10.802    0.48457  6.3028E-2
  1.1200E+3      10.99    0.36431  6.1062E-2
  1.1200E+3     11.639     0.3719  6.2324E-2
  1.1200E+3      11.92    0.24244  3.7175E-2
  1.1200E+3       12.2    0.20599  3.1586E-2
  1.1200E+3     12.479    0.16803  3.3744E-2
  1.1200E+3     12.849    0.18991  3.3629E-2
  1.1200E+3     13.037     0.1399  2.8170E-2
  1.1200E+3     13.409    0.12131  1.8607E-2
  1.1200E+3     13.688    0.10736  1.9798E-2
  1.1200E+3     13.969  8.0720E-2  1.6250E-2
  1.1200E+3     14.248  6.8583E-2  8.9207E-3
  1.1200E+3     14.527  5.7096E-2  7.4243E-3
  1.1200E+3     15.084  5.3721E-2  5.2061E-3
  1.1200E+3      15.18  3.6475E-2  4.7428E-3
  1.1200E+3     15.644  3.5745E-2  6.3284E-3
  1.1200E+3     15.832  2.4770E-2  3.7972E-3
  1.1200E+3     16.111  2.1479E-2  2.7946E-3
  1.1200E+3      16.39  1.9400E-2  2.9748E-3
  1.1200E+3     16.576  1.7522E-2  3.2301E-3
  1.1200E+3     16.858  1.1898E-2  2.3894E-3
  1.1200E+3     17.416  8.5888E-3  1.3166E-3
  1.1200E+3     17.418  7.1495E-3  1.6640E-3
  1.1200E+3     17.878  1.1196E-2  2.2545E-3
  1.1200E+3     18.351  3.4339E-3  1.3284E-3
  1.1200E+3     18.717  5.8341E-3  1.6161E-3
  1.1200E+3     19.004  1.9412E-3  9.7672E-4
ENDDATA            391
ENDSUBENT          405
SUBENT        D0178003   20061208   20070924   20070920       D055
BIB                  4          5
REACTION   (8-O-16(8-O-16,8-O-15)8-O-17,PAR,DA)
EN-SEC     (E-LVL1,8-O-17)
           (E-LVL2,8-O-15)
LEVEL-PROP (8-O-15,E-LVL=6.18,SPIN=1.5,PARITY=-1.)
STATUS     (CURVE) Points were digitized from fig.5
ENDBIB               5
COMMON               2          3
E-LVL1     E-LVL2
MEV        MEV
  0.0        6.18
ENDCOMMON            3
DATA                 4        364
EN         ANG-CM     DATA-CM    DATA-ERR
MEV        ADEG       MB/SR      MB/SR
       250.     7.3192      8.081    0.93153
       250.     8.1555     7.4527    0.85857
       250.     9.0917     4.5698    0.52709
       250.     9.9313     3.5072    0.52865
       250.     10.953     3.3017    0.43962
       250.     11.696     3.0448    0.51099
       250.     12.538     2.1101    0.35426
       250.     13.377     1.6528    0.35909
       250.     14.306     1.4936    0.34813
       250.     15.141     1.4645    0.25979
       250.     15.333     1.0143
       250.     16.076    0.97438
       250.     16.539     1.0363
       250.     17.286    0.77922
       250.     18.028    0.81221
       250.     18.587    0.69016
       250.     19.237    0.64953
       250.     19.888    0.61129
       250.     20.542    0.47874
       250.     21.194    0.40684
       250.     21.846    0.33875
       250.     22.495    0.36034
       250.     23.055    0.28801
       250.       23.8    0.23982  2.0404E-2
       250.     24.453    0.19969  2.1440E-2
       250.     25.106    0.15962  1.7137E-2
       250.     25.758    0.14129  1.5183E-2
       250.     26.226    0.11292  1.7013E-2
       250.     26.782    0.11531
       250.     27.435  9.4068E-2
       250.     28.084  9.4120E-2
       250.     28.828  8.3324E-2
       250.     29.386  7.6827E-2
       250.     30.039  6.3969E-2
       250.     30.691  5.5482E-2
       250.     31.342  4.9114E-2
       250.     31.995  4.0894E-2
       250.     32.645  4.0090E-2
       250.     33.296  3.4771E-2
       250.      33.95  2.7232E-2
       250.     34.877  2.8975E-2
       250.     35.524  3.2768E-2
       250.      36.08  3.2784E-2
       250.     36.638  3.0851E-2
       250.     37.288  3.0244E-2
       250.     38.031  2.9053E-2
       250.     38.773  2.7908E-2
       250.     39.426  2.3717E-2
       250.     39.982  2.3728E-2
       250.     40.634  2.0580E-2
       250.     41.379  1.7851E-2
       250.     41.938  1.5482E-2
       250.     42.682  1.3429E-2
       250.     43.241  1.2132E-2
       250.     43.894  9.5012E-3  1.0209E-3
       250.      44.64  7.9116E-3  7.6821E-4
       250.     45.477  7.0046E-3
       250.     46.312  6.8680E-3
       250.     47.239  7.1598E-3
       250.     48.078  5.6083E-3
       250.     49.006  5.4993E-3
       250.     49.847  3.8897E-3  3.7741E-4
       250.     50.681  4.1383E-3  4.7674E-4
       250.     51.611  3.5176E-3  4.0548E-4
       250.     52.354  3.4487E-3  3.9730E-4
       250.     52.826  2.2019E-3  2.1348E-4
       250.     53.937  2.4408E-3  2.3683E-4
       250.     55.049  2.5974E-3  2.5202E-4
       250.     56.169  1.7641E-3  2.0347E-4
       250.     57.186  2.1654E-3  2.4961E-4
       250.     58.303  1.7673E-3  2.0372E-4
       250.      59.42  1.3846E-3  1.8436E-4
       250.     60.538  1.0848E-3  1.6337E-4
       250.     61.653  9.4130E-4  1.4182E-4
       250.     62.769  8.3358E-4  1.3990E-4
       350.     4.0635     134.24     27.073
       350.     4.2504     123.74     24.942
       350.     4.4381     109.49     19.423
       350.     4.6276     87.484     19.803
       350.     4.9124     60.598     17.771
       350.     5.3762     60.622     6.5141
       350.     6.0295     48.457     7.4386
       350.     6.5853       50.5     7.7522
       350.     7.3361      30.96     7.0111
       350.     7.6169     26.844     5.4163
       350.     7.6216     20.588
       350.     8.2738     17.496
       350.     8.9267     14.273
       350.     9.5797     11.644     1.5171
       350.     10.232     9.8953     1.2893
       350.     10.885     8.0727     1.4313
       350.     11.537     6.8602    0.73776
       350.     12.096     5.9496    0.77518
       350.     12.285      5.054     1.0983
       350.     12.748      5.056    0.77615
       350.     13.497     3.5758     0.7771
       350.     13.959     3.8032    0.58451
       350.     14.335     2.9778    0.64641
       350.     14.705     3.1669    0.63807
       350.     15.267     2.2394    0.45163
       350.     15.733     2.0229    0.31073
       350.      16.29     1.9429     0.2086
       350.      16.85     1.5849     0.2065
       350.     17.408     1.5223    0.16357
       350.      18.06     1.3203    0.14187
       350.     18.711     1.1451    0.12305
       350.     19.177     1.0344    0.11125
       350.     19.829    0.89721    0.11682
       350.     20.201    0.84418    0.10991
       350.     20.761    0.71733
       350.      21.32    0.59723
       350.     21.973    0.49727
       350.     22.439     0.4492
       350.     22.906    0.36641
       350.     23.556    0.35194
       350.     24.022     0.3052
       350.     25.236    0.19901  3.0568E-2
       350.     25.608    0.18346  1.9714E-2
       350.     26.167    0.16239  1.8719E-2
       350.     26.727    0.13247  1.9959E-2
       350.     27.374    0.14981  1.9947E-2
       350.     28.492     0.1198  1.1632E-2
       350.     29.887  9.5818E-2  1.0288E-2
       350.     30.913  7.0607E-2  1.0845E-2
       350.      32.03  5.6461E-2  1.0016E-2
       350.     33.146  4.8000E-2  8.5147E-3
       350.     34.078  3.6841E-2  7.4334E-3
       350.      35.29  2.6066E-2  4.6239E-3
       350.     36.319  1.6314E-2  2.8970E-3
       350.     37.338  1.7359E-2  3.0778E-3
       350.     38.455  1.4168E-2  2.5145E-3
       350.     39.479  1.1800E-2  2.3786E-3
       350.     40.505  8.3475E-3  1.6827E-3
       350.     41.621  7.2430E-3  1.4607E-3
       350.     42.648  4.9188E-3  9.9151E-4
       350.     43.671  4.1813E-3  8.4286E-4
       350.     44.786  3.8572E-3  7.7751E-4
       350.       45.9  3.5581E-3  8.0540E-4
       350.     46.833  2.6758E-3  5.3989E-4
       350.     47.949  2.2748E-3  4.5876E-4
       350.     49.159  1.8567E-3  3.7409E-4
       480.     3.3509     251.58      38.62
       480.     3.6346     185.27     37.261
       480.     3.9125     189.14     38.143
       480.     4.0132     120.72
       480.     4.1031     142.14
       480.     4.1937     160.68     20.935
       480.     4.4773     118.33     13.648
       480.     4.6596     142.21     18.529
       480.     5.1263     120.83     13.929
       480.     5.4104     87.187     13.136
       480.     5.6966     55.657     8.5439
       480.     5.9792     43.576     7.7258
       480.     6.2636     30.806     4.0138
       480.     6.8277     20.076     3.0261
       480.     7.2883     24.134     4.2835
       480.      7.663     19.684     3.9698
       480.     7.9445     16.385     4.0728
       480.     8.1275     18.905
       480.     8.6873     15.739
       480.     9.2468     13.374
       480.     9.8062     11.365
       480.     10.274     8.8992
       480.     10.833     8.0395
       480.     11.392     6.9724
       480.     11.858     6.1711
       480.     12.418     5.0341
       480.     13.072     3.9426
       480.     13.537     3.5614
       480.     14.096     3.2174
       480.     14.563     2.5713
       480.     15.122      2.276
       480.     15.588     2.0145
       480.     16.152     1.3399
       480.     16.709     1.3134
       480.     17.174     1.2109
       480.     17.826     1.0719
       480.     18.292    0.94874
       480.     18.851    0.80618
       480.     19.317    0.69912
       480.     19.877    0.59407
       480.     20.436     0.5048
       480.     20.902      0.456
       480.     21.461    0.38748
       480.      21.93    0.29128
       480.     22.488    0.26857
       480.     22.954    0.24261
       480.     23.513    0.20615
       480.     24.163    0.20627
       480.     24.727    0.13442
       480.     25.191    0.13176  1.2784E-2
       480.     25.846  9.3178E-2
       480.     26.495  9.5153E-2
       480.     27.334  7.6070E-2
       480.      28.08  6.3344E-2  6.1461E-3
       480.     28.821  6.4691E-2  6.2768E-3
       480.     29.569  4.7659E-2  5.4938E-3
       480.     30.318  3.1704E-2  4.1308E-3
       480.     31.154  2.9842E-2  3.8855E-3
       480.     31.806  2.5883E-2  3.4445E-3
       480.     32.547  2.7535E-2  4.2294E-3
       480.       33.2  2.2010E-2  3.3787E-3
       480.      34.04  1.6892E-2  2.5946E-3
       480.     34.789  1.1237E-2  1.9954E-3
       480.     35.446  7.1756E-3  1.6249E-3
       480.     36.285  5.8548E-3  1.6245E-3
       480.       37.4  5.1849E-3  5.5668E-4
       480.     37.956  5.5149E-3  5.9259E-4
       480.     38.795  4.3198E-3  6.6314E-4
       480.     39.547  2.4407E-3  4.0978E-4
       480.     40.289  2.4926E-3  3.8287E-4
       480.     40.941  2.1183E-3  3.9098E-4
       480.     41.785  1.2725E-3  3.3570E-4
       480.     42.533  8.9998E-4  2.6393E-4
       480.     43.282  6.1104E-4  2.2110E-4
       480.     43.936  4.5941E-4  1.9466E-4
       480.     44.686  3.0561E-4  1.5601E-4
       480.     46.454  2.1633E-4  8.9101E-5
       480.     47.478  1.8018E-4  8.0499E-5
       480.     48.514  7.1972E-5  5.1252E-5
       480.     49.627  7.3526E-5  5.2788E-5
       704.     1.3536     212.44
       704.     2.1914     180.57
       704.     3.0378     94.029     10.104
       704.     3.5073     67.856
       704.     3.8816     56.486     8.6815
       704.     4.3483     47.995
       704.     4.6335     32.573     5.4666
       704.      4.815      40.78
       704.     5.1886     35.361     3.7997
       704.     5.5625     30.043     4.6146
       704.     6.0281     27.139
       704.     6.1245      22.13
       704.     6.5916     18.423
       704.     6.9644     16.641     1.7881
       704.     7.2441      15.34     2.3562
       704.      7.617     13.856     1.8065
       704.     7.8978     12.014      2.424
       704.      8.179     10.206     1.8114
       704.      8.275     8.4939     1.1067
       704.     8.5579     6.5157
       704.     8.6467     8.1567     1.8463
       704.     9.1138     6.7905     1.8848
       704.     9.3026     5.6518    0.86811
       704.     9.4014      3.995     0.6019
       704.     9.5834     4.9004    0.75271
       704.     10.143     4.0799     1.0267
       704.     10.239     3.4655     1.0528
       704.     10.613     2.9443    0.45252
       704.     11.174     2.3057    0.35416
       704.     11.638       2.26    0.34714
       704.     11.919     1.8812
       704.     12.293     1.6649    0.14193
       704.     12.665     1.5038    0.19593
       704.     13.224     1.3585    0.17701
       704.     13.506     1.0856
       704.     13.694    0.96059
       704.     13.697    0.78323    0.10212
       704.     14.071    0.66543     0.1342
       704.     14.631    0.55402
       704.     14.912    0.49027
       704.     15.192    0.42509
       704.     15.566    0.36116
       704.     15.846     0.3262  5.0104E-2
       704.      16.22    0.27714  6.9741E-2
       704.       16.5    0.25547
       704.     16.968    0.20417
       704.     17.526    0.18825
       704.     17.994    0.14443
       704.     18.275    0.12781  2.2661E-2
       704.     18.648    0.11312  1.8976E-2
       704.     19.018     0.1203  1.8478E-2
       704.     19.489  8.0007E-2  1.4193E-2
       704.     19.953  8.0039E-2  1.4198E-2
       704.     20.141  6.7991E-2  1.2549E-2
       704.     20.606  6.3977E-2  1.2902E-2
       704.     20.888  5.1123E-2  9.0687E-3
       704.     21.168  4.6173E-2  6.0202E-3
       704.     21.542  3.9229E-2  5.1148E-3
       704.     21.823  3.4715E-2  7.8614E-3
       704.     22.196  3.1357E-2  3.3694E-3
       704.     22.385  2.5571E-2  3.3294E-3
       704.     22.665  2.2629E-2  4.0142E-3
       704.     23.039  1.9226E-2  2.0642E-3
       704.     23.413  1.6671E-2  2.2220E-3
       704.     23.789  1.2531E-2  2.1030E-3
       704.     23.879  1.4457E-2  2.2206E-3
       704.     24.254  1.1320E-2  2.0080E-3
       704.     24.537  8.8625E-3  1.9255E-3
       704.     24.814  9.6188E-3  1.4766E-3
       704.      25.28  8.3414E-3  1.8873E-3
       704.      26.03  5.3270E-3  8.1823E-4
       704.     26.498  4.1713E-3  3.5488E-4
       704.      26.69  2.9487E-3  8.9614E-4
       704.     27.154  2.9499E-3  5.2274E-4
       704.     27.525  2.8912E-3  2.8053E-4
       704.     27.904  1.8839E-3  2.8919E-4
       704.     28.648  1.7022E-3  2.2664E-4
       704.      29.12  1.0433E-3  1.7502E-4
       704.      29.49  1.1324E-3  1.4754E-4
       704.     29.966  5.6594E-4  1.2816E-4
       704.     30.422  8.8710E-4  1.5720E-4
       704.      30.81  3.3998E-4  9.4329E-5
       704.     31.268  4.6195E-4  1.2813E-4
       704.     31.549  4.0054E-4  1.1121E-4
       704.     32.021  2.5573E-4  7.7718E-5
       704.     32.862  1.7364E-4  7.1510E-5
       704.      33.32  2.5084E-4  9.6888E-5
       704.     33.697  1.7377E-4  7.1561E-5
  1.1200E+3     2.4313     82.808     8.9053
  1.1200E+3     2.9958     52.875     6.8844
  1.1200E+3      3.561     32.411     7.3427
  1.1200E+3     4.1219     25.382     6.3922
  1.1200E+3     4.6846     17.948     5.4545
  1.1200E+3     4.9697     12.181
  1.1200E+3     5.5292     10.351
  1.1200E+3     5.8132     7.4685
  1.1200E+3      6.373      6.218     1.1024
  1.1200E+3     6.6549     5.0711    0.49204
  1.1200E+3     6.9411     3.2373    0.43104
  1.1200E+3     7.2176      3.586    0.55048
  1.1200E+3     7.7763     3.1741    0.48755
  1.1200E+3     8.0575     2.6965    0.35158
  1.1200E+3     8.5246     2.2449    0.34481
  1.1200E+3     8.8079     1.6873    0.28305
  1.1200E+3      9.084     1.9075    0.29283
  1.1200E+3     9.4662     1.0134     0.2294
  1.1200E+3      9.747    0.87871
  1.1200E+3     10.121    0.76195
  1.1200E+3     10.405    0.54978
  1.1200E+3     10.592    0.48648
  1.1200E+3     10.966    0.42184
  1.1200E+3     11.247    0.36576
  1.1200E+3     11.438    0.26389
  1.1200E+3     11.718    0.23834
  1.1200E+3     11.995    0.26402
  1.1200E+3     12.278    0.19844
  1.1200E+3      12.56    0.16184
  1.1200E+3     12.843    0.11918
  1.1200E+3     13.025    0.14921
  1.1200E+3     13.313  8.7780E-2
  1.1200E+3     13.586    0.11925
  1.1200E+3     13.962  8.7829E-2
  1.1200E+3     13.966  6.8747E-2
  1.1200E+3     14.061  6.3362E-2
  1.1200E+3      14.25  5.0627E-2
  1.1200E+3     14.346  4.3003E-2
  1.1200E+3     14.717  4.1296E-2
  1.1200E+3     14.815  3.1033E-2
  1.1200E+3     15.097  2.5831E-2
  1.1200E+3     15.382  1.7893E-2
  1.1200E+3     15.935  2.1077E-2
  1.1200E+3     16.032  1.6839E-2
  1.1200E+3     16.225  1.0749E-2
  1.1200E+3     16.413  9.3190E-3
  1.1200E+3     16.695  7.7569E-3  1.1915E-3
  1.1200E+3     16.977  6.1983E-3  1.2494E-3
  1.1200E+3     17.444  5.3752E-3  9.5351E-4
  1.1200E+3     17.818  4.4745E-3  1.0128E-3
  1.1200E+3     18.102  3.2951E-3  8.2953E-4
  1.1200E+3     18.474  2.9763E-3  4.5771E-4
  1.1200E+3      18.76  1.9792E-3  6.5491E-4
  1.1200E+3     19.144  9.6905E-4  4.8858E-4
  1.1200E+3     19.427  7.2834E-4  4.1934E-4
ENDDATA            366
ENDSUBENT          380
ENDENTRY             3
