ENTRY            D0176   20060609
SUBENT        D0176001   20060609              20060811       D047
BIB                  9         21
TITLE      The Potential of the Loosely Bound 9Be from 209Bi
           Elastic Scattering:  Unusual behaviour at near
           threshold energy
AUTHOR     (C.Signorini,A.Andrighetto,J.Y.Guo,M.Ruan,L.Stroe,
           F.Soramel,K.E.G.Lobner,L.Muller,D.Pierroutsakou,
           M.Romoli,K.Rudolph,I.Thompson,M.Trotta,A.Vitturi)
INSTITUTE  (2ITYPAD,2GERLMU,2ITYNAP,2UK SUR)
           (2ITYITY) Physics Department of University and INFN,
           I-33100 Udine, Italy
REFERENCE  (J,NP/A,701,23,2002)
FACILITY   (VDGT,2GERMUU)
ERR-ANALYS (ANG-ERR-D)  Digitizing error
           (ERR-DIG)    Digitizing error
DETECTOR   (TELES) The angular distributions were measured in
           3.5. step with a setup of 7  detectors, each one
           subtending a solid angle of 0.45 msr corresponding to
           an  angular aperture of 1.4 degr. Two monitors with
           solid angle of 0.2 msr were positioned at +-20 degr.
           Nothing said about type of detectors.
STATUS     No any response from the authors.
HISTORY    (20060609C) SD
ENDBIB              21
COMMON               2          3
ANG-ERR-D  ERR-DIG
ADEG       PER-CENT
    0.5      0.3
ENDCOMMON            3
ENDSUBENT           28
SUBENT        D0176002   20060609              20060811       D047
BIB                  3          4
REACTION   (83-BI-209(4-BE-9,EL)83-BI-209,,DA,,RTH)
ERR-ANALYS (DATA-ERR) The overall accuracy, including the
           statistical uncertainties, was  estimated around +-5%.
STATUS     (CURVE) Points were digitized from fig. 1
ENDBIB               4
COMMON               1          3
DATA-ERR
PER-CENT
  5.
ENDCOMMON            3
DATA                 3        146
EN         ANG-CM     DATA-CM
MEV        ADEG       NO-DIM
 40.000     37.704    0.84426
 40.000     45.194    0.93814
 40.000     48.694    0.96600
 40.000     52.445    0.99512
 40.000     55.959    0.95630
 40.000     59.704     1.0081
 40.000     63.214    0.99129
 40.000     66.969    0.99794
 40.000     73.988    0.96501
 40.000     77.503    0.92736
 40.000     81.003    0.95489
 40.000     84.762    0.93942
 40.000     88.002     1.0124
 40.000     91.767    0.97337
 40.000     95.031    0.93497
 40.000     98.796    0.89889
 40.000     102.30    0.92558
 40.000     105.55    0.95264
 40.000     116.11    0.77105
 40.000     119.62    0.74097
 40.000     122.90    0.67972
 40.000     126.43    0.60961
 40.000     129.94    0.58582
 40.000     133.47    0.51345
 40.000     136.98    0.50490
 40.000     147.02    0.46877
 40.000     150.54    0.44023
 40.000     153.83    0.36831
 40.000     157.33    0.37925
 42.000     37.696    0.88396
 42.000     41.677    0.99885
 42.000     45.192    0.95985
 42.000     48.932     1.0353
 42.000     52.447    0.99492
 42.000     55.956    0.97833
 42.000     59.716    0.96245
 42.000     63.216    0.99100
 42.000     66.726    0.97448
 42.000     70.476     1.0038
 42.000     73.990    0.96464
 42.000     77.485     1.0164
 42.000     81.000    0.97669
 42.000     84.755    0.98321
 42.000     88.005     1.0119
 42.000     91.774    0.95071
 42.000     95.298    0.87248
 42.000     98.822    0.80070
 42.000     102.33    0.78735
 42.000     105.60    0.73906
 42.000     109.14    0.61859
 42.000     112.69    0.51776
 42.000     116.20    0.49754
 42.000     119.77    0.37116
 42.000     123.03    0.36481
 42.000     125.54    0.34995
 42.000     126.32    0.30521
 42.000     129.86    0.26141
 42.000     132.35    0.28134
 42.000     136.66    0.21505
 42.000     139.16    0.22619
 42.000     140.22    0.17190
 42.000     143.48    0.16512
 42.000     145.97    0.17771
 42.000     146.97    0.17397
 42.000     150.52    0.14230
 42.000     152.80    0.12734
 42.000     153.54    0.13662
 42.000     157.06    0.12830
 42.000     159.56    0.12594
 44.000     38.186    0.88241
 44.000     45.431    0.95841
 44.000     52.680     1.0172
 44.000     56.185     1.0238
 44.000     59.945     1.0074
 44.000     63.450     1.0139
 44.000     66.960    0.99717
 44.000     70.690     1.1269
 44.000     74.214     1.0342
 44.000     77.714     1.0652
 44.000     81.229     1.0237
 44.000     85.004    0.93991
 44.000     88.263    0.92398
 44.000     92.058    0.77350
 44.000     95.352    0.64694
 44.000     98.887    0.56691
 44.000     102.42    0.50838
 44.000     105.97    0.41568
 44.000     109.29    0.30270
 44.000     112.82    0.27145
 44.000     116.36    0.23787
 44.000     119.91    0.19006
 44.000     123.20    0.16267
 44.000     124.70    0.16312
 44.000     126.74    0.13930
 44.000     130.03    0.11650
 44.000     131.78    0.11961
 44.000     137.09    0.95877E-01
 44.000     138.61    0.85662E-01
 44.000     143.93    0.65567E-01
 44.000     145.46    0.58582E-01
 44.000     150.76    0.49177E-01
 44.000     151.97    0.57935E-01
 44.000     157.53    0.45401E-01
 44.000     158.75    0.53487E-01
 46.000     37.946    0.85779
 46.000     45.426    0.99901
 46.000     52.681     1.0361
 46.000     56.195    0.99566
 46.000     59.955    0.97964
 46.000     63.445     1.0567
 46.000     66.945     1.0884
 46.000     70.690     1.1478
 46.000     74.215     1.0532
 46.000     81.274    0.84670
 46.000     85.039    0.81404
 46.000     88.348    0.63511
 46.000     91.907    0.49574
 46.000     95.462    0.39600
 46.000     99.031    0.29514
 46.000     102.33    0.24116
 46.000     105.87    0.20646
 46.000     116.53    0.10523
 46.000     119.85    0.80227E-01
 46.000     123.39    0.68686E-01
 46.000     126.72    0.48857E-01
 46.000     133.55    0.34178E-01
 46.000     147.43    0.21576E-01
 46.000     154.00    0.16169E-01
 48.000     37.938    0.81137
 48.000     45.402     1.0138
 48.000     52.657     1.0518
 48.000     56.177    0.98763
 48.000     63.411     1.1242
 48.000     66.921     1.1057
 48.000     70.686     1.0631
 48.000     74.231    0.88901
 48.000     84.878    0.49633
 48.000     88.469    0.33691
 48.000     91.759    0.28821
 48.000     95.360    0.18677
 48.000     102.47    0.12184
 48.000     109.40    0.54826E-01
 48.000     116.52    0.34144E-01
 48.000     123.12    0.22252E-01
 48.000     137.12    0.80472E-02
 48.000     143.86    0.87369E-02
ENDDATA            148
ENDSUBENT          161
SUBENT        D0176003   20060609              20060811       D047
BIB                  4          9
REACTION   (83-BI-209(4-BE-9,INL)83-BI-209,PAR,DA)
ERR-ANALYS (DATA-ERR) Experimental error
COMMENT    The only inelastic excitation observed was the
           collective multiplet [208Pb(3-)x h9/2]J(Pi) at
           approx. 2.6 MeV and its angular distribution
           could be obtained only at 48 MeV. The first two
           excited 209Bi levels of single particle nature
           have much smaller cross sections.
STATUS     (CURVE) Points were digitized from fig. 2
ENDBIB               9
COMMON               2          3
EN         E-LVL
MEV        MEV
 48.         2.6
ENDCOMMON            3
DATA                 3          8
ANG-CM     DATA-CM    DATA-ERR
ADEG       MB/SR      MB/SR
 91.985    0.69755    0.49352
 95.347    0.98730    0.33345
 102.29    0.88230    0.30397
 109.24    0.55191    0.13152
 116.20    0.30847    0.11913
 123.14    0.27308    0.11613
 136.83    0.11848    0.85735E-01
 143.57    0.86937E-010.61509E-01
ENDDATA             10
ENDSUBENT           28
ENDENTRY             3
