ENTRY            23027   20110206   20110905   20110902       2226
SUBENT        23027001   20110206   20110905   20110902       2226
BIB                 20        138
TITLE      .Capture cross section measurements of 186,187,188Os
            at n-TOF: The resolved resonance region
REFERENCE  (C,2007NICE,1,599,200705) ND2007 report #519.
           #doi:10.1051/ndata:07519
           Main reference
REL-REF    (I,,C.Borcea+,J,NIM/A,513,524,2003)  Experimental
                                                details
AUTHOR     (K.Fujii, M.Mosconi, P.M.Milazzo, C.Domingo-Pardo,
           F.Kaeppeler, A.Mengoni, U.Abbondanno, G.Aerts,
           H.Alvarez-Pol, F.Alvarez-Velarde, S.Andriamonje,
           J.Andrzejewski, P.Assimakopoulos, L.Audouin, G.Badurek,
           P.Baumann, F.Becvar, E.Berthoumieux, M.Calviani,
           F.Calvino, D.Cano-Ott, R.Capote, R.Capote,
           C.Carrapicoe, P.Cennini, V.Chepel, N.Colonna, G.Cortes,
           A.Couture, J.Cox, M.Dahlfors, S.David, I.Dillman,
           W.Dridi, I.Duran, C.Eleftheriadis, L.Ferrant,
           A.Ferrari, R.Ferreira-Marques, W.Furman, I.Goncalves,
           E.Gonzalez-Romero, F.Gramegna, C.Guerrero, F.Gunsing,
           B.Haas, R.Haight, M.Heil, A.Herrera-Martinez,
           M.Igashira, A.J.Praena-Rodriguez, E.Jericha, Y.Kadi,
           D.Karadimos, D.Karamanis, M.Kerveno, P.Koehler,
           E.Kossionides, M.Krticka, C.Lamboudis, H.Leeb,
           A.Lindote, I.Lopes, M.Lozano, S.Lukic, J.Marganiec,
           S.Marrone, T.Martinez, C.Massimi, P.Mastinu, F.Neves,
           S.O'Brien, H.Oberhummer, J.Pancin, C.Papachristodoulou,
           C.Papadopoulos, C.Paradela, N.Patronis, A.Pavlik,
           P.Pavlopoulos, L.Perrot, R.Plag, A.Plompen, A.Plukis,
           A.Poch, C.Pretel, J.Quesada, T.Rauscher, R.Reifarth,
           C.Rubbia, G.Rudolf, P.Rullhusen, J.Salgado, C.Santos,
           L.Sarchiapone, I.Savvidis, C.Stephan, M.T.Pigni,
           G.Tagliente, J.Tain, L.Tassan-Got, L.Tavora,
           R.Terlizzi, G.Vannini, P.Vaz, A.Ventura, D.Villamarin,
           M.C.Vincente, V.Vlachoudis, R.Vlastou, F.Voss,
           S.Walter, M.Wiescher, K.Wisshak)
INSTITUTE  (2ITYTRI)  Istituto Nazionale di Fisica Nucleare,
             Trieste, Italy; K.Fujii,  e-mail: kfujii@ts.infn.it;
             P.M.Milazzo, U.Abbondanno
           (2GERKFK)  Forschungszentrum Karlsruhe GmbH (FZK),
             Institut fuer Kernphysik, Germany; M.Mosconi,
             C.Domingo-Pardo, F.Kaeppeler, R.Plag, F.Voss,
             S.Walter, I.Dillman, L.Audouin, M.Heil, K.Wisshak
           (3ZZZIAE)  International Atomic Energy Agency (IAEA),
            NAPC-Nuclear Data Section ; A.Mengoni, R.Capote
           (2ZZZCER)  CERN, Geneva, Switzerland; M.Dahlfors,
             A.Herrera-Martinez, A.Ferrari,P.Cennini,V.Vlachoudis,
             L.Sarchiapone, Y.Kadi. Experimental site.
           .The n-TOF Collaboration. In addition to above given
            Institutes:
           .----------------------------------------------------
           .CEA/Saclay -DSM, Gif-sur-Yvette, France;
           .Universidade de Santiago de Compostela, Spain;
           .Centro de Investigaciones Energeticas Medioambientales
            y Technologicas, Madrid, Spain;
           .University of Lodz, Lodz, Poland
           .University of Ioannina, Greece;
           .Atominstitut der Osterreichischen Universitaeten,
            Technische Universitaet Wien, Austria
           .Centre National de la Recherche Scientifique/IN2P3
            - IReS, Strasbourg, France;
           .Charles University, Prague, Czech Republic
           .Laboratori Nazionali di Legnaro, Italy;
           .Universitat Politecnica de Catalunya, Barcelona, Spain
           .Instituto Tecnologico e Nuclear(ITN), Lisbon, Portugal
           .LIP -Coimbra & Departamento de Fisica da Universidade
            de Coimbra, Portugal;
           .Istituto Nazionale di Fisica Nucleare, Bari, Italy
           .University of Notre Dame, Notre Dame, USA;
           .Aristotle University of Thessaloniki, Greece
           .Centre National de la Recherche Scientifique/IN2P3 -
            IPN, Orsay, France
           .Joint Institute for Nuclear Research, Frank Laboratory
            of Neutron Physics, Dubna, Russia
           .Centre National de la Recherche Scientifique/IN2P3 -
             CENBG, Bordeaux, France
           .Los Alamos National Laboratory, New Mexico, USA;
           .Tokyo Institute of Technology, Tokyo, Japan
           .Oak Ridge National Laboratory, Physics Division,
            Oak Ridge, USA;
           .NCSR, Athens, Greece;
           .Universidad de Sevilla, Spain
           .Dipartimento di Fisica, Universita di Bologna, and
            Sezione INFN di Bologna, Italy;
           .National Technical University of Athens, Greece
           .Institut fuer Isotopenforschung und Kernphysik,
            Universitaet Wien, Austria;
           .Pole Universitaire Leonard de Vinci, Paris La Defense,
            France
           .CEC-JRC-IRMM, Geel, Belgium;
           .Department of Physics and Astronomy -University of
            Basel, Basel, Switzerland
           .Universita degli Studi Pavia, Pavia, Italy;
           .Instituto de Fisica Corpuscular, CSIC-Universidad de
            Valencia, Spain
           .ENEA, Bologna, Italy;
           .Gesellschaft fuer Schwerionenforschung (GSI), Germany
FACILITY   (SYNCY,2ZZZCER)  Proton Synchrotron of CERN, 20 GeV
               protons in bunches up to 7.E+12 particles,
               repetition rate 0.4 Hz
INC-SOURCE (SPALL)    Spallation reaction of 20-GeV protons on
                      the lead target
INC-SPECT  .The generated neutrons are slowed down in the lead
            spallation target and moderated in the surrounding
            cooling water. An evacuated flight path with collima-
            tors at 135 and 175 m leads to the measuring station
            at a distance of 185.2 m from the spallation target.
            The available neutron energy in the experimental area
            runs from 1 eV up to 250 MeV with a nearly 1/E iso-
            lethargic fluence up to 1 MeV.
METHOD     (TOF)      Time-of-flight method, flight base is
                      185.2 m
           (PHD)      Pulse-height weighting technique
MONITOR    (3-LI-6(N,T)2-HE-4,,SIG) Li-6 monitor surrounded by
             four silicon detectors was used for relative neutron
             flux monitoring
MONIT-REF  (,S.Marrone+,J,NIM/A,517,389,2004)
DETECTOR   (SCIN)     C6-D6 liquid scintillator for gamma-ray
                      detection
           (SI)   Four unspecified silicon detectors for neutron
                  flux determination
ANALYSIS   (RFN)  Resonance parameters have been extracted from
              a full R-matrix fit of the capture yields with the
              SAMMY code.
SAMPLE     .Metallic Os powder enriched in main isotope, aprx. two
            gram weight, 14.9 mm in diameter, sealed in the thin-
            walled cylindrical aluminium can
DECAY-DATA (75-RE-187,4.12E+10YR,B-)
ADD-RES    (DECAY)   Half-life error of Re-187
           (THEO)    Hauser-Feshbach statistical theory used
CORRECTION .Correction made for background and gamma-ray in-beam
            scattering
ERR-ANALYS (ERR-HL)   Error of the Re-187 B- decay half-life
                      determined in this experiment
STATUS     (PRELM)    By the authors, A.Mengoni, 2005-05-03
           (COREL,22796001) Part I.Measurement of (n,gamma) cross
            sections of Os-186,-187,-188 at CERN n-TOF facility.
HISTORY    (20080729C)    SM
           (20081112U)    Main reference corrected - SM
           (20110206U) SD: DOI was corrected.
ENDBIB             138
COMMON               1          3
ERR-HL
YR
    5. E+08
ENDCOMMON            3
ENDSUBENT          145
SUBENT        23027002   20101020   20110216   20110208       2223
BIB                  5         13
REACTION   (76-OS-186(N,G),,WID,,AV)  Averaged gamma width
SAMPLE     Os-186 sample of 1999.9mg mass, 3.714E-3at/b thickness.
           Isotopic composition:
           Os-186 - 78.48%, Os-187 - 0.91%, Os-188 - 4.88%,
           Os-189 - 4.29%, Os-190 - 5.09%, Os-192 - 5.32%.
ANALYSIS   Number of analyzed resonances 186 for maximum energy
           5.0 keV.
           Used in statistical analysis:
            levels - 126 for maximal energy 3.4 keV,
            widths - 122 for maximum energy 3.4 keV.
ERR-ANALYS (ERR-S)    Statistical error only
STATUS     (TABLE)    From Table III of J,PR/C,82,015804,2010.
           (DEP,23027009)
ENDBIB              13
COMMON               1          3
EN-RES-MAX
KEV
     5.0
ENDCOMMON            3
DATA                 2          1
DATA       ERR-S
MILLI-EV   MILLI-EV
  50.0         1.5
ENDDATA              3
ENDSUBENT           25
SUBENT        23027003   20101020   20110216   20110208       2223
BIB                  5         13
REACTION   (76-OS-187(N,G),,WID,,AV)  Averaged gamma width
SAMPLE     Os-187 sample of 1921.2mg mass, 3.549E-3at/b thickness.
           Isotopic composition:
           Os-186 - 1.06%, Os-187 - 70.43%, Os-188 - 12.73%,
           Os-189 - 5.13%, Os-190 - 5.42%, Os-192 - 5.21%.
ANALYSIS   Number of analyzed resonances 480 for maximum energy
           3.0 keV.
           Used in statistical analysis:
            levels - 179 for maximal energy 1.0 keV,
            widths - 327 for maximum energy 2.0 keV.
ERR-ANALYS (ERR-S)    Statistical error only
STATUS     (TABLE)    From Table III of J,PR/C,82,015804,2010.
           (DEP,23027010)
ENDBIB              13
COMMON               1          3
EN-RES-MAX
KEV
     3.0
ENDCOMMON            3
DATA                 2          1
DATA       ERR-S
MILLI-EV   MILLI-EV
  64.9         2.3
ENDDATA              3
ENDSUBENT           25
SUBENT        23027004   20101020   20110216   20110208       2223
BIB                  5         13
REACTION   (76-OS-188(N,G),,WID,,AV)  Averaged gamma width
SAMPLE     Os-186 sample of 1996.7mg mass, 3.669E-3at/b thickness.
           Isotopic composition:
           Os-186 - 0.11%, Os-187 - 0.12%, Os-188 - 94.99%,
           Os-189 - 2.55%, Os-190 - 1.27%, Os-192 - 0.97%.
ANALYSIS   Number of analyzed resonances 199 for maximum energy
           8.0 keV.
           Used in statistical analysis:
            levels - 125 for maximal energy 5.0 keV,
            widths - 125 for maximum energy 5.0 keV.
ERR-ANALYS (ERR-S)    Statistical error only
STATUS     (TABLE)    From Table III of J,PR/C,82,015804,2010.
           (DEP,23027011)
ENDBIB              13
COMMON               1          3
EN-RES-MAX
KEV
     8.0
ENDCOMMON            3
DATA                 2          1
DATA       ERR-S
MILLI-EV   MILLI-EV
  51.1         1.4
ENDDATA              3
ENDSUBENT           25
SUBENT        23027005   20101020   20110216   20110208       2223
BIB                  5         21
REACTION  1(76-OS-186(N,0),,D)        Mean level spacing
          2(76-OS-186(N,EL),,WID/RED,,G/AV) Averaged reduced
                                elastic width  times 'g'
          3(76-OS-186(N,EL),,STF)     Elastic strength function
SAMPLE     Os-186 sample of 1999.9mg mass, 3.714E-3at/b thickness.
           Isotopic composition:
           Os-186 - 78.48%, Os-187 - 0.91%, Os-188 - 4.88%,
           Os-189 - 4.29%, Os-190 - 5.09%, Os-192 - 5.32%.
ANALYSIS   Number of analyzed resonances 186 for maximum energy
           5.0 keV.
           Used in statistical analysis:
            levels - 126 for maximal energy 3.4 keV,
            widths - 122 for maximum energy 3.4 keV.
ERR-ANALYS1(DATA-ERR) Error not specified
          2(DATA-ERR) Error not specified
          3(DATA-ERR) The uncertainty in S0 is derived assuming a
             Porter-Thomas distribution for the reduced neutron
             widths and a Wigner distribution for the level
             spacing
STATUS     (TABLE)    From Table III of J,PR/C,82,015804,2010.
           (DEP,23027009)
ENDBIB              21
COMMON               2          3
EN-RES-MAX MOMENTUM L
KEV        NO-DIM
     5.0          0.
ENDCOMMON            3
DATA                 6          1
DATA      1DATA-ERR  1DATA      2DATA-ERR  2DATA      3DATA-ERR  3
EV         EV         MILLI-EV   MILLI-EV   NO-DIM     NO-DIM
  26.6         0.2       6.2          0.7      2.33E-04   0.32E-04
ENDDATA              3
ENDSUBENT           33
SUBENT        23027006   20101020   20110216   20110208       2223
BIB                  5         20
REACTION  1(76-OS-187(N,0),,D)        Mean level spacing
          2(76-OS-187(N,EL),,WID/RED,,G/AV) Averaged reduced
                                elastic width  times 'g'
          3(76-OS-187(N,EL),,STF)     Elastic strength function
SAMPLE     Os-187 sample of 1921.2mg mass, 3.549E-3at/b thickness.
           Isotopic composition:
           Os-186 - 1.06%, Os-187 - 70.43%, Os-188 - 12.73%,
           Os-189 - 5.13%, Os-190 - 5.42%, Os-192 - 5.21%.
ANALYSIS   Number of analyzed resonances 480 for maximum energy
           3.0 keV.
           Used in statistical analysis:
            levels - 179 for maximal energy 1.0 keV,
            widths - 327 for maximum energy 2.0 keV.
ERR-ANALYS (DATA-ERR) Error not specified
             The uncertainty in S0(DATA 3) is derived assuming a
             Porter-Thomas distribution for the reduced neutron
             widths and a Wigner distribution for the level
             spacing.
STATUS     (TABLE)    From Table III of J,PR/C,82,015804,2010.
           (DEP,23027010)
ENDBIB              20
COMMON               2          3
EN-RES-MAX MOMENTUM L
KEV        NO-DIM
     3.0          0.
ENDCOMMON            3
DATA                 6          1
DATA      1DATA-ERR  1DATA      2DATA-ERR  2DATA      3DATA-ERR  3
EV         EV         MILLI-EV   MILLI-EV   NO-DIM     NO-DIM
   5.7         0.1       2.0          0.2      3.51E-04   0.29E-04
ENDDATA              3
ENDSUBENT           32
SUBENT        23027007   20101020   20110216   20110208       2223
BIB                  5         20
REACTION  1(76-OS-188(N,0),,D)        Mean level spacing
          2(76-OS-188(N,EL),,WID/RED,,G/AV) Averaged reduced
                                elastic width  times 'g'
          3(76-OS-188(N,EL),,STF)     Elastic strength function
SAMPLE     Os-186 sample of 1996.7mg mass, 3.669E-3at/b thickness.
           Isotopic composition:
           Os-186 - 0.11%, Os-187 - 0.12%, Os-188 - 94.99%,
           Os-189 - 2.55%, Os-190 - 1.27%, Os-192 - 0.97%.
ANALYSIS   Number of analyzed resonances 199 for maximum energy
           8.0 keV.
           Used in statistical analysis:
            levels - 125 for maximal energy 5.0 keV,
            widths - 125 for maximum energy 5.0 keV.
ERR-ANALYS (DATA-ERR) Error not specified
             The uncertainty in S0 (DATA 3) is derived assuming a
             Porter-Thomas distribution for the reduced neutron
             widths and a Wigner distribution for the level
             spacing.
STATUS     (TABLE)    From Table III of J,PR/C,82,015804,2010.
           (DEP,23027011)
ENDBIB              20
COMMON               2          3
EN-RES-MAX MOMENTUM L
KEV        NO-DIM
     8.0          0.
ENDCOMMON            3
DATA                 6          1
DATA      1DATA-ERR  1DATA      2DATA-ERR  2DATA      3DATA-ERR  3
EV         EV         MILLI-EV   MILLI-EV   NO-DIM     NO-DIM
  39.0         0.5      10.5          1.5      2.69E-04   0.36E-04
ENDDATA              3
ENDSUBENT           32
SUBENT        23027008   20101020   20110216   20110208       2223
BIB                  5          9
REACTION  1((76-OS-186(N,G)76-OS-187,,SIG,,MXW)/
           (76-OS-187(N,G)76-OS-188,,SIG,,MXW))
          2((76-OS-186(N,G)76-OS-187,,SIG,,MXW)/
           (76-OS-187(N,G)76-OS-188,,SIG,,MXW))
ANALYSIS  1.Ratio measured in the experiment
          2.Value corrected for the stellar enhancement factor
INC-SPECT  .Maxwell neutron energy distribution with kT = 30 keV
ERR-ANALYS (DATA-ERR)  Not specified
STATUS     (TABLE) From text of C,2007NICE,1,599,200705, page 602.
ENDBIB               9
NOCOMMON             0          0
DATA                 5          1
KT         DATA      1DATA-ERR  1DATA      2DATA-ERR  2
KEV        NO-DIM     NO-DIM     NO-DIM     NO-DIM
    30.        0.42       0.02      0.36       0.02
ENDDATA              3
ENDSUBENT           17
SUBENT        23027009   20101020   20110216   20110208       2223
BIB                  6         16
REACTION  1(76-OS-186(N,0),,EN)     Resonance energy.
          2(76-OS-186(N,G),,WID,,RM) Gamma width
          3(76-OS-186(N,EL),,WID,,RM/G) g*Gn .
          4(76-OS-186(N,G),,WID/STR,,RM) g*Gn*Ggamma/G .
SAMPLE     Os-186 sample of 1999.9mg mass, 3.714E-3at/b thickness.
           Isotopic composition:
           Os-186 - 78.48%, Os-187 - 0.91%, Os-188 - 4.88%,
           Os-189 - 4.29%, Os-190 - 5.09%, Os-192 - 5.32%.
ASSUMED    (ASSUM1,76-OS-186(N,G),,WID)
           (ASSUM2,76-OS-186(N,EL),,WID,,G)
           (ASSUM3,76-OS-186(N,G),,WID/STR)
            Gamma width, g*Gn, g*Gn*Ggamma/G fixed in SAMMY fits.
ANALYSIS    First four resonances 22.28, 44.80, 66.25, 89.72 eV
           were fixed in SAMMY fits.
ERR-ANALYS (DATA-ERR) Not specified.
STATUS     (TABLE) Table VII of J,PR/C,82,015804,2010.
ENDBIB              16
NOCOMMON             0          0
DATA                11        182
DATA      1DATA-ERR  1DATA      2DATA-ERR  2DATA      3DATA-ERR  3
DATA      4DATA-ERR  4ASSUM1     ASSUM2     ASSUM3
EV         EV         MILLI-EV   MILLI-EV   MILLI-EV   MILLI-EV
MILLI-EV   MILLI-EV   MILLI-EV   MILLI-EV   MILLI-EV
108.83      1.                               0.35        1.
 0.35        1.        50.0
137.886     3.         41.7        3.
 38.1        3.                  435.0
145.28      1.                               1.5         1.
 1.50        6.        50.0
169.797     2.                               5.32        5.
 4.81        4.        50.0
201.995     3.
 34.8        3.
249.642     3.                               13.5        2.
 10.6        1.        50.0
273.10      1.                               2.08        4.
 2.00        4.        50.0
281.21      1.
 33.0        6.
313.531     4.
 24.4        6.
342.80      2.         42.9        6.
 40.3        6.                   673.
370.14      1.
 33.4        8.
380.25      1.
 30.3        8.
417.06      1.
 25.5        9.
423.39      1.
 29.2        7.
452.32      1.                               19.6        4.
 14.1        3.        50.0
521.36      1.
 42.3        8.
568.26      1.         32.4        5.
 28.6        4.                   243.1
604.93      1.
 38.0        10.
635.17      1.
 42.5        9.
643.95      2.         39.8        7.
 36.9        7.                   509.0
655.66      1.         40.5        8.
 37.3        7.                   462.2
680.16      2.         46.8        8.
 41.2        7.                   342.1
736.35      2.                               13.7        4.
 10.7        3.        50.0
763.50      1.
 38.9        18.
797.17      1.
 25.1        10.
837.71      2.         43.8        8.
 39.1        7.                   362.0
846.18      1.                               37.2        13.
 21.3        7.        50.0
869.15      4.         38.1        9.
 36.2        8.                   724.5
891.71      1.
 42.7        13.
916.01      3.                               5.8         3.
 5.18        23.       50.0
962.84      7.         43.6        11.
 42.4        11.                  1611.
980.83      3.         41.5        11.
 39.5        11.                  819.3
1024.38     2.
 44.3        7.
1038.04     2.
 41.4        7.
1073.72     2.         49.3        14.
 29.4        8.                   73.0
1106.31     1.                               6.6         11.
 5.8         10.       50.0
1171.06     2.                               19.1        6.
 13.8        4.        50.0
1205.01     2.
 22.1        8.
1216.03     6.                               4.7         3.
 4.27        24.       50.0
1224.58     2.
 21.8        9.
1228.76     3.         36.5        9.
 34.2        8.                   556.1
1244.27     1.
 31.5        15.
1264.70     2.
 26.7        11.
1298.61     3.         55.0        10.
 51.6        9.                   855.0
1324.42     2.
 41.0        9.
1344.79     1.                               5.5         10.
 5.0         10.       50.0
1359.99     6.         56.2        13.
 54.4        12.                  1750.
1402.92     6.                               5.1         3.
 4.7         3.        50.0
1405.29     1.                               4.4         8.
 4.0         8.        50.0
1462.99     2.         45.9        9.
 40.0        8.                   311.0
1476.90     2.
 40.4        19.
1504.44     2.         54.5        12.
 41.2        10.                  169.0
1529.16     1.                               13.0        21.
 10.3        17.       50.0
1559.55     4.                               10.1        4.
 8.4         4.        50.0
1597.45     3.         47.9        13.
 35.6        10.                  139.0
1626.87     3.         53.3        11.
 48.1        10.                  489.0
1674.85     1.                               108.        16.
 34.1        51.       50.0
1687.37     2.
 28.2        27.
1713.66     3.
                       50.0       168.0       38.5
1742.42     3.                               49.9        76.
 25.0        38.       50.0
1748.28     3.         43.9        12.
 39.7        11.                  413.1
1790.23     2.                               15.7        30.
 11.9        23.       50.0
1797.56     4.                               23.7        11.
 16.1        7.        50.0
1821.70     3.
 34.3        34.
1860.11     3.
 40.8        13.
1876.08     3.                               3.6         7.
 3.4         7.        50.0
1919.51     3.         53.4        17.
 36.2        11.                  113.0
1936.88     4.                               29.1        15.
 18.4        9.        50.0
1957.36     2.         45.4        17.
 38.5        14.                  253.0
1971.87     10.                              5.4         4.
 4.9         4.        50.0
1991.27     5.         38.8        12.
 35.2        11.                  383.0
2018.32     6.                               11.5        7.
 9.3         5.        50.0
2065.90     4.         56.7        14.
 47.8        12.                  304.0
2091.47     4.         51.6        15.
 42.3        12.                  236.0
2137.45     7.                               7.8         10.
 6.8         9.        50.0
2167.41     4.         55.1        17.
 40.1        12.                  148.0
2186.45     1.                               7.5         15.
 6.5         13.       50.0
2201.59     5.
                       50.0       73.0        29.7
2221.28     5.
                       50.0       78.0        30.5
2229.25     5.
 40.7        37.
2273.50     1.
 24.8        42.
2301.71     6.         53.3        18.
 48.0        17.                  475.0
2309.52     5.         52.3        20.
 42.4        16.                  226.0
2313.20     5.         45.6        18.
 37.4        15.                  207.0
2373.94     5.         53.1        15.
 49.0        14.                  635.0
2391.11     3.         48.9        16.
 42.4        14.                  320.0
2432.34     1.                               5.1         10.
 4.6         9.        50.0
2439.71     6.         45.8        16.
 43.8        15.                  996.0
2473.25     5.         56.4        20.
 45.8        16.                  242.0
2489.42     1.
 28.8        47.
2538.42     6.
                       50.0       94.0        32.4
2586.98     6.         50.3        16.
 46.7        15.                  651.0
2597.51     10.                              12.0        9.
 9.7         7.        50.0
2626.71     8.
 30.5        37.
2655.50     7.
 25.7        22.
2660.57     8.
 44.7        50.
2666.76     1.                               8.5         16.
 7.3         14.       50.0
2733.89     6.         56.9        18.
 48.7        16.                  341.0
2748.05     7.
 37.3        50.
2765.52     6.
 35.2        37.
2807.33     6.         60.5        20.
 56.1        19.                  765.0
2821.50     6.         62.7        22.
 55.3        20.                  471.0
2852.17     6.
 31.3        60.
2882.23     6.         60.4        25.
 44.4        19.                  167.0
2907.66     9.         53.4        19.
 50.7        18.                  994.0
2935.10     7.
 37.0        48.
2941.75     3.                               10.3        20.
 8.6         17.       50.0
2960.70     7.         55.2        30.       145.        27.
 39.9        79.
2968.82     6.         47.6        20.
 40.6        17.                  275.0
2990.61     8.
 30.1        20.
3036.00     10.
 17.8        14.
3059.97     6.         51.8        21.
 40.2        16.                  179.0
3102.31     7.         51.1        19.
 44.7        16.                  359.0
3118.60     7.         45.1        18.
 37.9        15.                  235.0
3138.71     7.         49.0        20.
 40.6        16.                  235.0
3197.47     2.         53.         10.       20.9        41.
 15.0        41.
3207.88     7.         55.2        25.
 44.6        20.                  231.0
3218.33     6.
 45.1        20.
3250.78     23.
                       50.0       2690.       49.1
3317.97     9.
 38.1        56.
3338.33     8.         58.5        25.
 48.0        20.                  268.0
3356.35     13.        49.7        22.
 47.8        21.                  1230.
3419.15     1.
 14.9        29.
3434.51     11.
 22.8        19.
3460.63     9.
 44.2        70.
3489.93     8.
 31.6        56.
3510.80     8.
 44.6        70.
3521.57     23.
 8.3         9.
3537.65     11.
                                              48.8
3549.05     11.
 39.1        57.
3579.68     9.
 35.0        44.
3647.69     13.
                                              47.4
3662.57     11.
 40.3        76.
3681.45     13.
 47.1        64.
3687.20     3.
 14.8        29.
3690.54     2.
 31.4        59.
3725.29     10.
 35.2        41.
3742.40     10.
                                              47.1
3793.53     1.
 33.6        65.
3807.93     20.
 34.5        62.
3847.18     12.
 43.2        80.
3857.62     26.
 8.0         13.
3866.14     10.
 21.2        36.
3883.99     10.
 41.7        67.
3925.83     1.
 40.7        64.
3978.06     1.
 16.0        32.
3995.47     13.
 31.8        38.
4015.38     5.
 45.0        72.
4026.69     14.
 47.0        67.
4055.59     20.
 11.0        19.
4071.20     15.
 44.0        83.
4085.46     12.
 41.4        65.
4142.69     13.
 43.3        73.
4191.41     14.
 30.0        36.
4236.33     15.
                                              47.2
4264.83     5.
 19.8        35.
4296.68     15.
 43.5        76.
4325.54     12.
 44.3        77.
4342.79     17.
 46.4        81.
4376.71     2.
 42.0        70.
4401.94     24.
 15.7        19.
4414.62     16.
 42.6        78.
4424.65     16.
 41.6        70.
4453.98     16.
 35.7        52.
4494.04     16.
 38.1        57.
4523.00     1.
 28.2        54.
4539.57     25.
 35.7        58.
4579.67     16.
 44.6        84.
4630.12     24.
 44.9        91.
4632.61     18.
 44.0        73.
4648.24     11.
 43.7        79.
4673.69     2.
 11.0        22.
4695.93     18.
 42.6        88.
4706.95     15.
 42.7        77.
4747.00     22.
 48.6        59.
4778.82     7.
 40.3        64.
4846.20     19.
 45.4        79.
4881.59     19.
 45.2        78.
4892.19     15.
 42.8        75.
4917.28     5.
 36.6        69.
4967.86     6.
 38.0        67.
4983.79     18.
 45.5        75.
ENDDATA            368
ENDSUBENT          389
SUBENT        23027010   20101020   20110216   20110208       2223
BIB                  6         22
REACTION  1(76-OS-187(N,0),,EN)     Resonance energy.
          2(76-OS-187(N,G),,WID,,RM) Gamma width
          3(76-OS-187(N,EL),,WID,,RM/G) g*Gn .
          4(76-OS-187(N,G),,WID/STR,,RM) g*Gn*Ggamma/G .
SAMPLE     Os-187 sample of 1921.2mg mass, 3.549E-3at/b thickness.
           Isotopic composition:
           Os-186 - 1.06%, Os-187 - 70.43%, Os-188 - 12.73%,
           Os-189 - 5.13%, Os-190 - 5.42%, Os-192 - 5.21%.
ASSUMED    (ASSUM1,76-OS-187(N,G),,WID)
           (ASSUM2,76-OS-187(N,EL),,WID,,G)
           (ASSUM3,76-OS-187(N,G),,WID/STR)
           Res. energy, Gamma width, g*Gn, g*Gn*Ggamma/G fixed in
           SAMMY fits.
ANALYSIS    First three resonances 9.479, 12.700, 20.230 eV
           were fixed in SAMMY fits.
            Resonance energies 39.550, 50.160, 50.600, 78.050,
            83.360, 123.060, 404.880, 589.00, 594.70, 2243.00,
            2343.50, 2615.00 eV were fixed in fit,
            given in DATA block without error ( zero error in
            the Table of article).
ERR-ANALYS (DATA-ERR) Not specified.
STATUS     (TABLE) Table VIII of J,PR/C,82,015804,2010.
ENDBIB              22
NOCOMMON             0          0
DATA                11        477
DATA      1DATA-ERR  1DATA      2DATA-ERR  2DATA      3DATA-ERR  3
DATA      4DATA-ERR  4ASSUM1     ASSUM2     ASSUM3
EV         EV         MILLI-EV   MILLI-EV   MILLI-EV   MILLI-EV
MILLI-EV   MILLI-EV   MILLI-EV   MILLI-EV   MILLI-EV
 26.351      1.
                        61.0      0.25      0.25
 28.322      2.
                        61.0      0.15      0.15
 39.550                                      0.91        1.
 0.89         1.        61.0
 40.567      1.                              10.27       4.
 6.14         2.        61.0
 43.455      1.                              11.07       5.
 6.41         3.        61.0
 47.815      1.
                        61.0      12.51     6.87
 50.160
                        61.0      25.00     9.47
 50.600
                        61.0      1.95      1.87
 62.188      1.
                        61.0      4.50      3.47
 63.846      1.
 7.36         6.
 65.092      2.                              1.00        1.
 0.98         1.        61.0
 71.467      2.                              0.77        1.
 0.76         1.        61.0
 78.050
                        61.0      1.88      1.80
 83.360                                      0.53        1.
 0.52         1.        61.0
 89.975      1.
 14.4         3.
 92.897      1.                              11.19       9.
 6.45         5.        61.0
 99.333      2.
 8.72         15.
105.004      2.                              7.07        9.
 6.13         8.        61.0
108.853      1.
 32.25        34.
110.378      5.                              1.27        2.
 1.24         2.        61.0
114.695      3.                              0.90        1.
 0.88         1.        61.0
118.980      13.                             0.15        1.
 0.15         1.        61.0
123.060                                      4.34        5.
 3.97         4.        61.0
124.416      2.
 12.00        15.
126.944      1.
                                            24.61
132.153      6.                              0.56        1.
 0.55         1.        61.0
138.281      2.        54.4        4.
 30.6         2.                  122.1
145.076      2.
 24.1         2.
155.446      2.                              6.06        6.
 5.35         5.        61.0
164.349      2.                              16.7        2.
 12.2         2.        61.0
168.371      2.                              11.2        1.
 8.98         9.        61.0
171.311      2.                              2.75        4.
 2.33         3.        61.0
175.748      2.                              10.9        2.
 8.79         12.       61.0
176.985      3.
 28.2         10.
178.418      3.                              8.49        9.
 7.16         8.        61.0
188.942      2.                              9.2         1.
 7.64         8.        61.0
196.807      26.                             0.24        2.
 0.24         2.        61.0
201.005      3.                              11.2        1.
 9.01         12.       61.0
207.003      4.
                        61.0      27.5      9.81
211.469      4.                              6.3         1.
 5.53         9.        61.0
213.366      13.
                        61.0      206.3     14.20
213.591      10.
                        61.0      281.3     39.35
217.675      4.                              4.95        8.
 4.47         7.        61.0
226.023      3.
 23.9         5.
227.858      3.                              17.1        2.
 12.4         2.        61.0
233.635      3.                              8.0         1.
 6.84         8.        61.0
236.033      2.        56.2        6.
 30.6         3.                  112.
244.889      4.                              6.86        9.
 5.97         8.        61.0
250.320      3.
 25.9         4.
253.272      5.                              5.23        8.
 4.69         7.        61.0
267.599      4.                              9.5         1.
 7.90         11.       61.0
269.749      5.                              9.1         2.
 5.70         11.       61.0
273.270      6.                              1.9         2.
 1.65         16.       61.0
283.822      18.                             0.60        5.
 0.59         5.        61.0
288.681      3.                              26.9        5.
 17.0         3.        61.0
296.005      4.                              10.7        2.
 8.66         13.       61.0
297.651      5.
 7.19         12.
310.672      8.                              6.8         2.
 4.70         14.       61.0
315.757      6.
 14.7         3.
328.800      5.                              16.4        3.
 12.1         2.        61.0
330.393      3.                              8.8         2.
 7.38         14.       61.0
334.430      2.                              11.7        3.
 9.32         20.       61.0
338.904      4.                              39.6        8.
 21.2         4.        61.0
345.618      16.                             3.0         1.
 2.84         8.        61.0
346.891      5.                              18.3        3.
 13.1         2.        61.0
350.903      5.                              32.2        7.
 10.4         2.        61.0
369.115      6.                              25.6        5.
 16.4         4.        61.0
371.890      4.                              13.3        11.
 10.3         9.        61.0
375.223      4.                              6.20        20.
 4.41         14.       61.0
382.312      6.                              16.1        7.
 11.9         6.        61.0
390.254      6.
                        61.0      90.0      30.3
391.683      9.                              10.4        2.
 8.46         17.       61.0
398.565      4.        64.1        10.
 29.1         5.                  73.5
403.624      9.        39.6        15.
 9.01         35.                 99.97
404.880                                      12.4        3.
 9.75         27.       61.0
408.307      5.
                        61.0      300.      37.7
419.237      13.
 3.21         10.
423.867      44.                             0.72        6.
 0.71         6.        61.0
425.911      4.                              6.46        44.
 5.66         38.       61.0
431.463      8.                              38.4        17.
 20.9         9.        61.0
441.858      7.        76.4        13.
 15.4         3.                  79.5
447.480      20.                             1.53        8.
 1.48         7.        61.0
453.322      6.
 22.4         6.
462.381      6.                              34.1        10.
 19.6         6.        61.0
468.304      11.                             7.76        23.
 5.14         15.       61.0
472.509      10.                             10.3        2.
 8.43         17.       61.0
483.500      7.        54.6        10.
 29.2         5.                  102.
497.703      8.                              19.5        4.
 13.7         3.        61.0
504.88       1.                              13.5        3.
 10.4         2.        61.0
539.46       1.                              14.3        6.
 7.37         29.       61.0
542.19       1.                              15.6        4.
 11.6         3.        61.0
543.70       1.                              11.0        3.
 8.86         26.       61.0
547.66       1.                              11.7        3.
 9.32         22.       61.0
548.86       2.                              4.1         2.
 3.26         14.       61.0
552.40       1.
 19.4         26.
554.15       1.
 35.4         12.
572.28       1.        58.6        11.
 26.1         5.                  64.0
582.41       1.                              15.2        13.
 11.4         10.       61.0
587.04       1.        64.5        15.
 13.2         3.                  72.0
589.00                                       2.9         1.
 2.74         12.       61.0
592.68       1.        56.7        10.
 27.8         5.                  80.5
594.70                                       6.0         2.
 4.31         16.       61.0
598.13       1.                              19.2        5.
 13.5         3.        61.0
599.92       1.                              10.7        2.
 8.79         20.       65.0
606.80       1.                              33.5        9.
 19.3         5.        61.0
608.43       2.                              6.6         4.
 4.63         25.       61.0
610.52       1.
 26.5         10.
622.99       1.                              25.0        6.
 16.2         4.        61.0
625.25       1.                              33.9        10.
 19.5         6.        61.0
628.15       1.
 22.1         8.
636.83       1.                              11.9        3.
 9.43         27.       61.0
638.29       1.                              29.8        9.
 18.0         5.        61.0
640.12       1.        61.0        13.
 29.3         6.                  81.0
648.63       3.                              3.6         4.
 3.36         36.       61.0
657.20       1.                              23.0        7.
 15.3         5.        61.0
664.79       1.                              18.8        13.
 8.43         59.       61.0
668.87       1.                              7.1         2.
 6.15         17.       61.0
675.05       2.                              3.9         1.
 3.61         13.       61.0
678.43       1.                              31.9        20.
 10.3         6.        61.0
682.12       2.                              7.7         2.
 6.58         18.       61.0
687.15       1.                              26.9        18.
 9.74         64.       61.0
692.63       4.                              2.7         4.
 2.31         38.       61.0
693.38       1.                              6.2         11.
 5.4          10.       61.0
698.05       1.                              45.8        16.
 22.9         8.        61.0
702.18       1.        58.9        12.
 31.5         6.                  109.5
710.25       1.                              23.1        6.
 15.4         4.        61.0
716.05       1.                              24.0        7.
 15.7         5.        61.0
718.00       1.                              27.8        7.
 17.3         5.        61.0
727.87       1.                              31.4        9.
 18.6         6.        61.0
733.60       2.                              15.4        4.
 11.5         3.        61.0
737.19       1.
 22.7         8.
750.12       1.        61.8        17.
 28.8         8.                  75.8
753.72       1.
 20.2         10.
757.43       2.                              30.0        14.
 18.1         9.        61.0
759.00       3.                              15.8        7.
 11.7         5.        61.0
760.79       2.        55.5        15.
 36.3         10.                 285.0
769.28       1.                              14.3        5.
 10.9         4.        61.0
771.18       1.
 22.7         18.
777.48       1.                              34.6        9.
 19.7         5.        61.0
784.46       1.        66.6        16.
 31.5         7.                  85.0
791.74       1.        73.2        18.
 33.0         8.                  83.0
794.10       2.                              10.0        4.
 8.23         34.       61.0
799.56       2.        73.6        23.
 15.9         5.                  115.5
801.84       3.                              6.9         3.
 5.97         28.       61.0
804.67       1.
 37.0         17.
810.27       1.        53.7        30.
 26.9         15.                 81.0
826.11       2.                              18.3        5.
 13.1         4.        61.0
831.27       1.
 24.6         11.
838.09       2.                              16.7        6.
 12.3         4.        61.0
840.15       2.                              23.8        10.
 15.7         6.        61.0
842.67       4.                              6.5         7.
 5.70         59.       61.0
847.67       2.        65.7        16.       398.        10.
 43.9         16.
853.76       2.                              3.2         2.
 3.0          2.        61.0
867.96       2.        52.0        18.
 11.2         4.                  80.0
871.68       1.        63.7        16.
 29.9         8.                  80.0
878.45       1.                              27.6        9.
 17.2         6.        61.0
882.89       2.                              10.2        10.
 8.3          8.        61.0
884.58       2.                              12.4        4.
 9.78         35.       61.0
889.53       1.                              27.4        8.
 17.1         5.        61.0
896.36       1.                              12.0        8.
 9.48         65.       61.0
906.01       3.                              9.0         5.
 5.65         31.       61.0
910.61       2.                              14.6        15.
 7.47         76.       61.0
916.65       2.        75.6        17.
 43.9         10.                 195.0
919.36       2.        70.6        18.
 35.1         9.                  104.0
929.09       2.
 24.8         17.
929.70       4.
                        61.0      72.5      12.6
940.53       1.        62.3        20.
 35.65        12.                 150.0
942.19       5.        54.7        31.
 12.2         7.                  115.0
947.10       1.        74.3        2.3
 29.7         9.                  63.5
953.37       3.        59.9        2.1
 12.9         5.                  93.5
957.73       2.                              35.4        18.
 20.0         10.       61.0
962.15       8.                              3.1         3.
 2.87         26.       61.0
964.29       2.
 28.7         17.
975.77       1.                              10.4        13.
 8.5          10.       65.0
981.44       1.
                        61.0      50.0      23.9
986.83       4.                              11.6        8.
 6.58         43.       61.0
989.71       2.        62.7        21.
 28.9         1.                  75.0
1006.01      2.
 36.0         24.
1016.48      3.
 11.4         13.
1022.48      2.
 38.7         22.
1030.45      2.
 16.5         6.
1035.96      1.
 6.7          12.
1039.21      1.
 3.0          6.
1043.45      4.
 9.2          9.
1050.62      2.
 37.4         26.
1053.21      2.
 22.9         10.
1064.60      3.
 9.0          6.
1069.62      3.
 9.5          4.
1072.37      2.
 36.9         20.
1078.42      4.
 5.4          3.
1089.02      1.
 20.7         25.
1095.21      1.
 27.5         10.
1100.02      2.
 19.4         8.
1104.06      3.
 11.0         4.
1114.34      2.
 39.9         17.
1122.43      3.
 14.0         7.
1135.04      3.
 9.1          4.
1138.56      2.
 31.5         18.
1140.77      2.
 23.9         21.
1148.71      2.
 19.4         9.
1155.42      5.
 4.9          3.
1161.15      1.
 4.1          8.
1164.79      3.
 11.1         7.
1169.53      2.
 20.3         9.
1174.42      4.
 7.9          4.
1176.78      2.
 7.5          13.
1180.20      4.
 11.7         14.
1191.26      2.
 19.7         9.
1202.02      3.
 12.9         13.
1209.69      4.
 41.3         25.
1210.73      8.
 12.0         22.
1213.08      11.
 3.1          3.
1223.34      2.
 29.3         23.
1226.01      3.
 19.6         10.
1228.94      4.
 7.7          6.
1239.43      4.
                                            43.8
1240.05      8.
 37.6         46.
1241.05      5.
 32.3         55.
1244.72      3.
 3.7          7.
1255.70      2.
 41.1         23.
1265.14      6.
 6.3          4.
1268.19      4.
 17.6         9.
1270.00      5.
 10.9         7.
1289.20      2.
 33.2         35.
1293.86      3.
 34.1         41.
1296.98      3.
 23.5         14.
1301.19      3.
 41.0         26.
1307.27      7.
 5.4          4.
1313.99      6.
 9.7          9.
1315.13      7.
 12.4         23.
1324.76      3.
 6.2          5.
1329.22      3.
 12.0         9.
1334.86      4.
 11.7         13.
1341.55      3.
 26.3         21.
1344.33      2.
 36.7         37.
1360.92      3.
 40.6         21.
1377.38      4.
 12.0         13.
1382.61      2.
 36.2         39.
1386.55      3.
 18.1         9.
1402.44      3.
 22.1         14.
1405.26      1.
 5.7          12.
1409.96      3.
 25.4         17.
1413.87      7.
 6.6          12.
1416.22      5.
 12.9         21.
1421.28      5.
 8.2          8.
1428.44      1.
 6.7          14.
1437.72      6.
                                            14.7
1445.19      3.
 25.6         16.
1448.43      1.
 7.1          14.
1452.35      1.
 22.2         27.
1455.73      5.
 10.8         14.
1458.85      6.
 9.7          10.
1484.59      3.
 37.3         39.
1489.53      4.
 10.8         13.
1494.85      7.
 7.7          7.
1501.91      4.
 14.8         8.
1507.03      4.
 36.3         47.
1512.25      3.
 37.3         51.
1527.27      3.
 24.2         16.
1535.95      4.
 18.6         10.
1541.84      6.
 12.1         16.
1546.96      7.
 26.9         35.
1548.13      5.
 38.4         47.
1553.28      4.
 28.4         31.
1558.73      2.
 20.4         33.
1561.78      3.
 29.7         24.
1567.42      3.
 11.1         17.
1575.94      4.
 39.0         33.
1581.55      4.
 17.2         9.
1596.12      4.
 16.6         9.
1601.30      2.
 17.9         22.
1606.42      4.
 18.8         11.
1612.10      7.
 13.6         12.
1613.60      8.
 12.4         23.
1617.27      3.
 12.6         20.
1626.87      4.
 17.8         15.
1633.57      1.
 30.8         35.
1638.53      5.
 8.8          9.
1644.15      4.
 25.2         18.
1649.28      3.
 34.1         34.
1655.16      4.
 28.1         24.
1658.09      9.
 6.7          7.
1667.92      1.
 20.5         38.
1671.92      11.
 8.0          7.
1674.43      4.
 21.8         35.
1679.51      3.
 7.7          14.
1683.43      3.
 35.6         34.
1687.54      1.
 27.1         37.
1711.05      4.
 28.8         21.
1714.52      6.
 25.4         23.
1716.13      6.
 10.3         18.
1725.46      4.
 11.5         11.
1734.56      4.
 34.8         42.
1746.38      5.
 34.6         45.
1749.23      4.
 23.2         18.
1756.50      7.
 10.0         7.
1762.10      5.
 19.6         14.
1783.56      5.
 27.1         20.
1786.67      17.
 7.9          10.
1788.56      7.
 14.0         12.
1794.66      4.
 40.4         47.
1800.14      8.
 10.6         12.
1812.07      8.
 13.0         20.
1826.47      6.
 31.3         37.
1828.30      5.
 40.5         45.
1838.51      4.
 35.3         46.
1842.00      6.
 12.5         9.
1854.43      2.
 28.4         24.
1863.18      5.
 34.8         39.
1871.55      2.
 28.8         49.
1875.34      15.
                                            14.6
1881.96      4.
 32.7         34.
1897.27      7.
 16.4         11.
1901.93      8.
 21.8         23.
1904.33      6.
 34.4         40.
1915.75      10.
                                            14.4
1924.18      7.
 41.5         56.
1926.29      6.
 39.0         61.
1932.74      2.
 25.4         39.
1945.13      2.
 24.1         31.
1951.35      7.
 28.2         42.
1953.53      6.
 31.3         45.
1964.43      9.
 12.8         16.
1973.95      5.
 25.5         21.
1981.13      2.
 28.2         54.
1982.38      6.
 31.9         38.
1991.32      5.
 32.7         32.
2007.00      12.
 8.6          8.
2009.78      01.
 17.6         34.
2016.21      06.
 27.8         28.
2020.50      01.
 28.4         49.
2023.51      09.
 36.1         66.
2025.97      11.
 28.1         49.
2027.23      09.
 28.6         47.
2037.86      06.
 17.5         13.
2047.40      06.
 40.4         50.
2052.85      18.
 6.3          8.
2056.95      07.
 13.8         10.
2062.10      08.
 13.8         11.
2068.98      05.
 21.3         14.
2075.75      02.
 13.6         25.
2083.56      01.
 19.1         35.
2088.47      07.
 34.3         53.
2091.77      07.
 35.6         43.
2094.39      12.
 13.4         16.
2099.82      05.
 39.1         48.
2105.19      03.
 9.6          18.
2115.83      07.
 19.5         35.
2120.12      06.
 19.3         14.
2128.20      03.
 9.3          18.
2133.18      11.
 10.6         11.
2137.15      06.
 26.6         21.
2140.43      13.
 7.2          8.
2153.12      18.
 9.6          15.
2155.44      08.
 41.4         53.
2161.22      02.
 8.7          17.
2166.75      01.
 6.6          13.
2169.68      01.
 16.3         31.
2187.80      06.
 41.3         58.
2192.23      04.
 18.2         34.
2195.66      06.
 37.7         67.
2201.91      06.
 10.2         17.
2207.86      07.
 39.1         62.
2211.57      08.
 37.9         60.
2214.81      14.
 11.9         11.
2219.74      01.
 11.4         22.
2226.59      02.
 25.0         44.
2234.70      07.
 42.2         51.
2239.59      08.
 21.9         22.
2243.00
 14.1         11.
2256.28      06.
 42.8         29.
2269.81      14.
 10.4         10.
2273.75      08.
 24.8         22.
2280.67      07.
 34.9         53.
2284.09      07.
 32.2         40.
2291.08      01.
 21.9         41.
2293.36      08.
 33.7         52.
2299.87      08.
 39.5         59.
2304.73      10.
 41.5         55.
2306.89      09.
 41.5         50.
2330.18      03.
 38.4         45.
2343.50
 18.8         14.
2351.55      02.
 36.3         36.
2360.96      09.
 16.6         14.
2367.67      01.
 34.2         58.
2374.30      08.
 27.2         30.
2377.58      01.
 13.9         27.
2386.96      01.
 6.4          13.
2393.40      10.
 24.5         26.
2400.21      07.
 37.6         56.
2405.97      17.
 8.1          9.
2411.79      07.
 38.8         47.
2424.85      02.
 28.0         52.
2431.75      09.
 39.2         72.
2434.28      01.
 15.4         30.
2438.55      01.
 6.5          13.
2443.00      11.
 38.2         73.
2444.60      11.
 41.8         70.
2448.73      02.
 11.9         23.
2461.62      07.
 30.8         37.
2467.17      02.
 11.5         22.
2471.07      09.
 39.8         71.
2471.46      08.
 39.8         69.
2482.92      03.
 35.6         67.
2485.02      09.
 38.8         68.
2500.94      10.
 16.9         15.
2512.76      08.
 39.5         55.
2518.62      07.
 30.5         44.
2520.60      21.
 30.0         50.
2524.07      10.
 22.3         22.
2536.81      08.
 38.5         48.
2540.18      01.
 17.0         33.
2545.36      14.
 15.9         16.
2553.85      08.
 27.5         40.
2555.49      05.
 29.3         53.
2563.41      11.
 29.7         55.
2564.88      07.
 26.7         36.
2571.29      02.
 7.6          15.
2576.65      13.
 26.9         49.
2578.13      03.
 30.7         53.
2583.14      02.
 11.2         22.
2588.15      07.
 33.3         49.
2600.98      07.
 37.4         52.
2610.11      07.
 42.2         49.
2615.00
 12.3         14.
2620.38      08.
 42.8         48.
2627.62      02.
 13.4         27.
2630.20      10.
 40.3         60.
2637.19      01.
 11.4         23.
2641.14      08.
 38.2         52.
2661.48      02.
 26.7         50.
2666.79      02.
 17.5         36.
2671.04      12.
 16.1         15.
2684.53      11.
 37.9         65.
2686.53      11.
 40.9         69.
2695.89      02.
 29.3         54.
2701.72      02.
 17.1         33.
2711.62      11.
 39.0         79.
2713.96      09.
 36.8         74.
2720.15      09.
 28.4         33.
2730.91      10.
 21.5         20.
2742.43      10.
 37.9         49.
2746.50      10.
 35.7         60.
2751.96      08.
 35.5         57.
2756.14      21.
 11.7         16.
2765.30      08.
 38.2         67.
2774.91      10.
 38.4         70.
2778.04      16.
 17.9         21.
2785.21      10.
 35.0         52.
2790.70      10.
 38.7         54.
2801.00      07.
 38.5         53.
2810.27      10.
 41.4         52.
2816.92      14.
 20.9         24.
2821.74      18.
 27.9         43.
2823.03      12.
 28.2         43.
2832.47      11.
 20.8         20.
2839.82      01.
 7.0          14.
2848.55      01.
 13.3         27.
2857.43      02.
 29.8         51.
2868.97      01.
 29.4         52.
2877.51      13.
 38.6         60.
2882.00      10.
 39.8         61.
2888.79      10.
 30.6         41.
2902.61      12.
 39.9         75.
2907.21      11.
 39.6         73.
2913.23      01.
 9.0          18.
2926.03      16.
 14.6         16.
2930.70      02.
 11.3         22.
2939.07      15.
 28.2         40.
2940.88      02.
 27.4         51.
2952.73      05.
 35.2         64.
2956.29      12.
 37.5         71.
2968.61      08.
 37.6         54.
2980.97      11.
 37.7         71.
2985.92      13.
 36.5         70.
2991.48      16.
 40.0         81.
2993.54      14.
 41.3         76.
ENDDATA            958
ENDSUBENT          985
SUBENT        23027011   20101020   20110216   20110208       2223
BIB                  6         17
REACTION  1(76-OS-188(N,0),,EN)     Resonance energy.
          2(76-OS-188(N,G),,WID,,RM) Gamma width
          3(76-OS-188(N,EL),,WID,,RM/G) g*Gn .
          4(76-OS-188(N,G),,WID/STR,,RM) g*Gn*Ggamma/G .
SAMPLE     Os-186 sample of 1996.7mg mass, 3.669E-3at/b thickness.
           Isotopic composition:
           Os-186 - 0.11%, Os-187 - 0.12%, Os-188 - 94.99%,
           Os-189 - 2.55%, Os-190 - 1.27%, Os-192 - 0.97%.
ASSUMED    (ASSUM1,76-OS-188(N,0),,EN)
           (ASSUM2,76-OS-188(N,G),,WID)
           (ASSUM3,76-OS-188(N,EL),,WID,,G)
           (ASSUM4,76-OS-188(N,G),,WID/STR)
           Res. energy, Gamma width, g*Gn, g*Gn*Ggamma/G fixed in
           SAMMY fits.
ANALYSIS    First resonance 38.68 eV was fixed in SAMMY fits.
ERR-ANALYS (DATA-ERR) Not specified.
STATUS     (TABLE) Table VII of J,PR/C,82,015804,2010.
ENDBIB              17
NOCOMMON             0          0
DATA                12        198
DATA      1DATA-ERR  1DATA      2DATA-ERR  2DATA      3DATA-ERR  3
DATA      4DATA-ERR  4ASSUM1     ASSUM2     ASSUM3     ASSUM4
EV         EV         MILLI-EV   MILLI-EV   MILLI-EV   MILLI-EV
MILLI-EV   MILLI-EV   EV         MILLI-EV   MILLI-EV   MILLI-EV
78.739       2.        35.6        5.
 32.5        4.                              377.9
150.066      3.        37.4        2.        159.8        10.
 30.3        3.
191.922      3.        36.1        3.        120.0        10.
 27.7        3.
254.208      3.
 31.1        4.
282.441      3.                              12.3         1.
 9.95        12.                  52.0
                       57.5        5.
 54.3        4.        317.23                960.8
388.37       2.        43.8        5.
 41.5        5.                              812.2
478.92       2.        43.5        5.
 40.0        5.                              490.1
528.774      5.
 37.7        8.
536.97       1.
 36.8        8.
620.55       1.
 40.6        9.
649.55       1.
 37.1        12.
705.99       1.
 38.0        13.
745.70       2.        48.6        7.
 42.1        6.                              313.
781.51       5.        44.6        10.
 42.9        9.                              1125.
819.95       1.
 28.7        15.
844.41       6.        44.6        10.
 43.5        9.                              1870.
863.11       1.        44.0        8.
 39.5        8.                              380.
900.27       2.                              2.9          5.
 2.79        51.                  52.0
980.03       1.        46.5        9.
 34.9        7.                              140.0
1001.523     3.
 22.9                             52.0       41.0       22.9
1042.15      2.        48.0        7.
 44.0        7.                              529.
1079.76      1.                              20.2         5.
 14.5        4.                   52.0
1107.78      4.        51.9        8.
 49.9        8.                              1280.
1182.74      1.
 23.5                             52.0       43.0       23.5
1216.67      1.
 47.5        30.
1293.22      2.
 32.4                             52.0       86.0       32.4
1316.53      3.        52.1        10.
 49.3        9.                              936.
1347.89      2.        54.1        18.
 41.0        14.                             170.0
1413.27      5.        59.5        12.
 57.0        11.                             1330.
1485.60      2.
 37.9        58.
1520.35      2.        48.1        13.
 34.5        10.                             122.0
1544.931     4.
 26.0                             52.0       52.0       26.0
1598.14      7.        51.4        11.
 49.9        11.                             1730.
1625.26      1.                              3.1          6.
 2.92        57.                  52.0
1673.73      4.        47.1        10.
 44.1        9.                              678.1
1719.94      2.        54.3        14.
 36.7        10.                             113.0
1764.43      1.                              5.0          10.
 4.59        90.                  52.0
1779.50      3.
 28.49                            52.0       63.0       28.49
1803.43      2.        57.8        14.
 44.9        11.                             202.0
1876.87      6.        45.2        11.
 43.3        11.                             1020.
1905.748     3.
 23.2                             52.0       42.0       23.2
1967.62      1.
 35.6                             52.0       113.0      35.6
1971.65      3.        47.3        13.
 41.0        11.                             303.9
2017.89      3.
 32.2        24.
2049.07      9.                              5.9          4.
 5.33        36.                  52.0
2092.24      3.        55.0        15.
 44.0        12.                             219.0
2138.05      3.        56.3        16.
 47.6        14.                             306.0
2179.42      2.                              21.4         38.
 15.2        27.                  52.0
2191.59      5.        50.6        17.
 44.2        15.                             351.1
2257.79      1.                              5.0          10.
 4.57        91.                  52.0
2274.38      5.        48.0        13.
 44.1        12.                             540.9
2298.98      8.        50.1        15.
 48.3        14.                             1360.
2386.82      1.                              93.          17.
 33.4        61.                  52.0
2412.06      7.        47.1        15.
 44.4        14.                             762.
2438.33      4.        52.6        17.
 42.9        14.                             233.
2500.93      7.        45.3        14.
 42.6        13.                             715.
2504.78      3.                              2.8          6.
 2.70        54.                  52.0
2545.05      1.                              53.          10.
 26.2        50.                  52.0
2570.83      2.        46.8        16.
 39.8        13.                             267.0
2613.22      15.                             5.7          6.
 5.10        55.                  52.0
2619.76      1.                              4.0          8.
 3.71        74.                  52.0
2626.82      4.        55.5        22.
 45.5        18.                             253.0
2729.12      12.                             9.6          7.
 8.07        59.                  52.0
2768.44      1.                              30.          6.
 19.0        38.                  52.0
2799.50      11.                             11.6         8.
 9.52        7.                   52.0
2815.79      6.
 41.         6.
2864.00      6.
 36.1        38.
2924.14      2.                              10.          2.
 8.4         17.                  52.0
2967.98      8.                              5.2          10.
 4.73        87.                  52.0
2975.72      13.       47.3        19.
 46.0        18.                             1670.
2988.42      6.
 38.9        48.
3036.60      7.        58.4        18.
 53.2        17.                             600.
3056.03      8.        62.7        20.
 57.7        19.                             730.
3113.30      8.        54.8        20.
 48.3        17.                             403.
3128.95      8.        58.3        22.
 45.6        18.                             210.
3186.54      12.       55.7        24.
 55.0        24.                             4390.
3208.81      8.        55.9        22.
 49.6        19.                             437.
3269.43      9.
 25.2        22.
3284.27      7.        51.4        18.
 46.1        16.                             448.
3355.03      6.        61.1        24.
 48.6        19.                             237.
3417.95      8.        56.9        21.
 49.1        19.                             360.
3438.86      8.        49.8        19.
 45.5        17.                             528.
3486.12      8.
 27.8        23.
3517.56      01.                             7.0          14.
 6.2         12.                  52.0
3600.22      10.       59.7        22.
 55.5        21.                             786.
3632.02      01.                             10.          2.
 8.4         17.                  52.0
3660.31      01.                             15.          3.
 11.7        23.                  52.0
3668.31      02.                             20.2         39.
 14.5        28.                  52.0
3695.02      20.       44.9        24.
 43.8        24.                             1790.
3706.35      52.       35.2        3.
 34.9        30.                             4590.
3719.78      11.       55.9        25.
 52.0        23.                             763.
3732.94      02.                             9.3          18.
 7.9         15.                  52.0
3772.65      13.
 22.9        22.
3883.98      10.       62.1        24.
 57.1        22.                             703.
3929.04      01.                             20.3         40.
 14.6        29.                  52.0
3931.48      01.
 33.2                             52.0       92.0       33.2
3947.53      10.       56.3        31.
 39.6        22.                             134.0
3966.66      10.       59.0        36.
 38.5        24.                             111.0
3982.07      03.                             19.8         40.
 14.5        29.                  52.0
3987.38      12.
 35.2                             52.0       109.0      35.2
4106.33      12.                             196.         35.
 41.1        74.                  52.0
4134.73      01.
 34.4        58.
4215.40      10.       65.1        33.
 49.6        25.                             208.
4236.28      17.       55.9        24.
 53.8        24.                             1451.
4268.21      19.       46.7        24.
 45.4        23.                             1600.
4313.22      12.
 33.8        40.
4341.27      14.
 24.4        23.
4434.27      06.       58.         10.
 47.8        77.                             263.0
4450.93      16.       55.9        26.
 53.7        25.                             1310.
4483.01      16.
 28.9                             52.0       65.0       28.9
4579.92      12.       61.         6.        130.         23.
 41.3        85.
4603.79      06.
 25.2        48.
4628.01      02.                             10.          2.
 8.4         17.                  52.0
4641.47      25.       50.5        29.
 49.4        28.                             2150.
4722.68      15.       50.7        30.
 40.4        24.                             198.
4746.96      14.       56.0        33.
 45.5        26.                             242.
4817.55      11.       54.2        83.
 40.5        62.                             160.
4852.49      20.       50.0        30.
 42.9        26.                             300.
4881.95      20.       50.2        29.
 47.7        27.                             950.
4893.85      15.       56.8        35.
 46.9        29.                             269.
4933.39      16.
 32.4        60.
4959.80      08.       47.9        77.
 38.4        62.                             194.
4989.75      08.
 36.8        60.
5054.83      17.
 44.0        80.
5094.82      04.
 11.8        23.
5102.32      07.
 47.7        69.
5163.11      17.
 50.3                                                   50.3
5204.25      03.
 22.8        45.
5211.34      02.
 28.8        55.
5246.54      20.
 41.3        70.
5273.56      03.
 37.0        71.
5337.24      02.
 13.3        27.
5350.27      02.
 40.7        77.
5383.97      01.
 25.2        51.
5401.93      18.
 45.5        89.
5437.43      19.
 47.4        92.
5455.92      19.
 38.3        60.
5525.35      25.
 47.6        90.
5562.64      26.
 50.1        70.
5613.52      03.
 38.4        71.
5634.56      01.
 25.9        51.
5666.13      19.
 42.3        71.
5734.31      23.
 47.8        74.
5785.24      02.
 44.6        76.
5829.58      25.
 46.9        89.
5890.21      23.
 41.9        80.
5907.67      27.
 50.3                                        50.3
5971.09      28.
 47.1        93.
5996.10      31.
 46.8        86.
6044.67      11.
 42.1        80.
6104.952     4.
 34.4        68.
6130.69      01.
 14.4        29.
6183.73      28.
 46.4        89.
6200.98      42.
 51.0        76.
6250.33      29.
 48.2        91.
6287.38      25.
 24.5        39.
6335.08      36.
 46.5        83.
6376.45      24.
 41.8        74.
6426.43      22.
 46.6        88.
6458.35      04.
 31.6        63.
6485.52      25.
 43.4        81.
6531.91      46.
 45.8        90.
6536.70      29.
 37.3        69.
6552.94      38.
 11.6        20.
6605.59      10.
 39.1        71.
6640.15      01.
 37.9        73.
6689.60      12.
 34.0        66.
6711.04      31.
 46.8        90.
6776.33      02.
 38.9        76.
6815.15      30.
 43.8        81.
6899.58      04.
 44.9        87.
6943.11      02.
 43.1        84.
6959.13      29.
 43.1        77.
6993.97      01.
 20.9        42.
7021.82      30.
 46.2        88.
7067.64      01.
 34.5        68.
7123.46      05.
 44.9        87.
7161.65      01.
 30.1        60.
7193.70      03.
 42.5        77.
7233.28      34.
 43.3        82.
7260.27      34.
 46.7        92.
7279.47      28.
 44.6        83.
7325.67      34.
 45.4        88.
7372.49      05.
 32.8        66.
7384.21      02.
 43.3        83.
7443.22      36.
 42.4        77.
7475.32      03.
 41.5        81.
7501.36      08.
 34.5        68.
7546.29      01.
 30.0        60.
7585.96      02.
 39.0        76.
7641.17      41.
 42.4        73.
7700.73      03.
 30.0        60.
7733.53      38.
 41.9        75.
7779.48      03.
 40.8        79.
7877.25      49.
 38.3        65.
7891.27      01.
 27.9        56.
7960.26      42.
 34.5        47.
ENDDATA            400
ENDSUBENT          422
ENDENTRY            11
