ENTRY            23065   20090930   20100209   20100209       2216
SUBENT        23065001   20090930   20100209   20100209       2216
BIB                 10         42
TITLE      .Measurement of keV-Neutron Capture Gamma Rays for
            Se Isotopes
AUTHOR     (M.Igashira, S.Kamada, T.Katabuchi, M.Mizumoto,
           J.Nishiyama)
INSTITUTE  (2JPNTIT)  Research Laboratory for Nuclear Reactors,
             Tokyo Institute of Technology, Tokyo 152-8550, Japan
REFERENCE  (S,AIP-1090,376,200808)   Main reference. Neutron
            capture gamma rays were measured for all stable Se
            isotopes in an incident neutron energy region from
            15 to 100 keV. Graph for Se-74, Se-77 are given
           (C,2008AOMORI,,(#P16P1304),200810) Paper ID P16P1304.
              Experimental details for En=550 keV and graphs
              for Sn-116(n,gamma) reaction
FACILITY   (VDGT,2JPNTIT) 3-MV Pelletron accelerator of the
            Research Laboratory for Nuclear Reactors at the Tokyo
            Institute of Technology.
INC-SOURCE (P-LI7)  the 7Li(p,n)7Be reaction with a pulsed proton
            beam (1.5 ns neutron bunch width, 4 MHz repetition
            rate) from the Pelletron accelerator.
INC-SPECT  .The incident neutron spectra are obtained at blank
            irradiation and measured by Li-6 glass detector
DETECTOR   (SPEC,NAICR) Large anti-Compton NaI(TL) spectrometer.
            The main NaI detector has 15.2 cm diameter and 20.0
            cm length centered in hollow Compton suppression NaI
            detector with outer diameter 33.0 cm with 35.6 cm
            length. Spectrometer was set in a heavy shield of
            borated paraffin, borated polyethylene, Cadmium,
            Li6-H, potassium-free lead.
           (GLASD) Energy measured with 5.0 mm diameter by 5.0-mm
            Li-6 glass scintillation detector located at 30 cm
            from the neutron source.
METHOD     (TOF)   The incident neutron energy spectrum on the
              capture sample was measured by means of a
              time-of-flight (TOF) method
           (SITA)  Intermittent single target cyclic irradiation
             of samples (Se-74 - 41 hour, gold monitor 13 hour
             and blank sample 6 hour) to average out changes
             in experimental conditions.
           (PHD) A pulse-height weighting technique was applied
             to the observed capture gamma-ray pulse-height
             spectra to obtain the capture yields.
HISTORY    (20090930C)  S.M./M.M.
ENDBIB              42
NOCOMMON             0          0
ENDSUBENT           45
SUBENT        23065002   20090930   20100209   20100209       2216
BIB                  4          6
REACTION   (34-SE-74(N,G)34-SE-75,,SIG)
REL-REF    (D,,K.Siddappa+,J,JP/A,5,877,1972)
ERR-ANALYS (DATA-ERR) Absolute error (relative - about 5 %).
STATUS     (TABLE) Data received from So Kamada 2009-09-01.
            Given on Fig.3, left panel, of AIP-109,376 and on
            Fig.5 of 2008AOMORI.
ENDBIB               6
COMMON               1          3
ERR-T
PER-CENT
    5.
ENDCOMMON            3
DATA                 3          4
EN         DATA       DATA-ERR
MEV        B          B
 0.020      0.32       0.014
 0.030      0.26       0.011
 0.044      0.23       0.009
 0.068      0.17       0.007
ENDDATA              6
ENDSUBENT           21
SUBENT        23065003   20090731   20100209   20100209       2216
BIB                  3          7
REACTION   (34-SE-77(N,G)34-SE-78,,SIG)
ERR-ANALYS (EN-ERR-DIG) Energy digitizing error
           (EN-ERR)     Error bars on the graph
           (ERR-DIG)    Data digitizing error
STATUS     (CURVE)  Data given on Fig.3, right panel, of AIP-1090.
             Request sent to the 1st author 2009-01-25,
             no data obtained
ENDBIB               7
COMMON               2          3
EN-ERR-DIG ERR-DIG
PER-CENT   PER-CENT
 2.1451E-03 7.5774E-03
ENDCOMMON            3
DATA                 3          4
EN         EN-ERR     DATA
KEV        KEV        B
 20.589     3.9238    0.59828
 30.652     3.6257    0.50239
 44.798     6.8838    0.40806
 69.085     9.5475    0.32491
ENDDATA              6
ENDSUBENT           22
SUBENT        23065004   20100118   20100209   20100209       2216
BIB                  4          8
REACTION   (34-SE-77(N,G)34-SE-78,,MLT/DE,,AV) Averaged over
                   energy interval En-min - En-max
ERR-ANALYS (E-ERR-DIG)  Secondary energy digitizing error
           (ERR-DIG)    Data digitizing error
           (DATA-ERR)   Error bar oh curve
STATUS     (CURVE)      Fig. 4: 78Se,G-spec, AIP-1090
HISTORY    (20100118C)  Curve digitized. Answer for request
                        not obtained. SM
ENDBIB               8
COMMON               4          3
EN-MIN     EN-MAX     E-ERR-DIG  ERR-DIG
KEV        KEV        MEV        PER-CENT
  15.        100.      4.5098E-04 1.0883E-02
ENDCOMMON            3
DATA                 3        165
E          DATA       DATA-ERR
MEV        PT/RCT/MEV PT/RCT/MEV
  0.60823   8.8752     0.61246
  0.67121   5.9182     0.40841
  0.69213   2.6316     0.12251
  0.73405   1.1426     0.14463
  0.86009   1.0387     0.13842
  0.90215   1.5210     0.70807E-1
  0.94405   0.50808    0.78080E-1
  1.0071    0.41987    0.81066E-1
  1.0701    0.40998    0.71176E-1
  1.1121    0.40998    0.86948E-1
  1.1542    0.64482    0.85929E-1
  1.1962    0.87905    0.98765E-1
  1.2593    1.1983     0.55787E-1
  1.3013    1.5209     0.10496
  1.3853    1.4159     0.97710E-1
  1.4063    0.69260    0.10643
  1.4693    0.64479    0.72444E-1
  1.5112    0.34695    0.92448E-1
  1.5533    0.45096    0.69301E-1
  1.5953    0.37267    0.64698E-1
  1.6373    0.48438    0.74439E-1
  1.7004    0.72638    0.96796E-1
  1.7634    0.67625    0.61498E-1
  1.7844    0.50802    0.78070E-1
  1.8684    0.48437    0.54419E-1
  1.8895    0.70925    0.79686E-1
  1.9525    0.78020    0.70951E-1
  1.9945    0.72635    0.50126E-1
  2.0365    0.57230    0.64299E-1
  2.0995    0.46180    0.51883E-1
  2.1626    0.48434    0.64543E-1
  2.2046    0.48434    0.33424E-1
  2.2466    0.53279    0.81877E-1
  2.3097    0.67619    0.75970E-1
  2.3727    0.62952    0.57245E-1
  2.3937    0.55879    0.26014E-1
  2.4567    0.52023    0.69325E-1
  2.5407    0.57226    0.26641E-1
  2.5828    0.60020    0.54582E-1
  2.6458    0.64468    0.85910E-1
  2.6878    0.61467    0.28613E-1
  2.7508    0.60018    0.54579E-1
  2.7928    0.52020    0.58447E-1
  2.8348    0.52020    0.10044
  2.8979    0.53274    0.70991E-1
  2.9609    0.55875    0.74458E-1
  3.0449    0.57222    0.52039E-1
  3.1080    0.58602    0.53292E-1
  3.1500    0.60015    0.41417E-1
  3.2760    0.53271    0.59851E-1
  3.3390    0.48426    0.54409E-1
  3.4021    0.52015    0.65837E-1
  3.4651    0.50790    0.64288E-1
  3.5071    0.49593    0.55719E-1
  3.5491    0.49593    0.49613E-1
  3.6122    0.49592    0.36761E-1
  3.6332    0.46170    0.51872E-1
  3.6962    0.39074
  3.7172    0.42983
  3.8012    0.40016    0.69472E-1
  3.9063    0.38153    0.58630E-1
  3.9903    0.38152    0.73662E-1
  4.0323    0.40015    0.50651E-1
  4.0533    0.40980    0.40995E-1
  4.1164    0.40014    0.40029E-1
  4.2004    0.38151    0.38165E-1
  4.2844    0.37252    0.47152E-1
  4.3474    0.37252    0.37267E-1
  4.3895    0.35517    0.44955E-1
  4.4735    0.35517    0.35531E-1
  4.4945    0.36374    0.46039E-1
  4.5365    0.35517    0.35530E-1
  4.5785    0.34680    0.34692E-1
  4.5995    0.33065    0.37149E-1
  4.6626    0.32286    0.58625E-1
  4.7256    0.30783    0.47329E-1
  4.7466    0.28658    0.38190E-1
  4.8096    0.30057    0.40054E-1
  4.8516    0.31525    0.31536E-1
  4.9147    0.31524    0.35418E-1
  5.0197    0.28657    0.38189E-1
  5.1037    0.28657    0.21241E-1
  5.1667    0.26051    0.29268E-1
  5.2088    0.26050    0.32973E-1
  5.3138    0.26678    0.33768E-1
  5.4188    0.26050    0.32973E-1
  5.4819    0.26678    0.48441E-1
  5.5449    0.26049    0.32970E-1
  5.6289    0.24836    0.24845E-1
  5.6920    0.23680    0.26605E-1
  5.7550    0.22577    0.30086E-1
  5.8390    0.21526    0.21534E-1
  5.9020    0.20040    0.25365E-1
  5.9861    0.20040    0.20047E-1
  6.0701    0.20523    0.31554E-1
  6.1541    0.21018    0.21026E-1
  6.2802    0.21017    0.21026E-1
  6.3432    0.19106    0.21466E-1
  6.4062    0.18216    0.16566E-1
  6.4903    0.17787    0.12275E-1
  6.5533    0.15417    0.14019E-1
  6.6163    0.14015    0.21536E-1
  6.7213    0.14699    0.14705E-1
  6.7844    0.14698    0.19587E-1
  6.8894    0.15053    0.13689E-1
  6.9524    0.15788    0.19983E-1
  7.0575    0.15415    0.14019E-1
  7.1625    0.15415    0.15421E-1
  7.2045    0.15052    0.19052E-1
  7.3096    0.14013    0.96706E-2
  7.3936    0.11041    0.76196E-2
  7.4566    0.95696E-1 0.10752E-1
  7.5196    0.79082E-1 0.10538E-1
  7.6246    0.79081E-1 0.71916E-2
  7.7087    0.79080E-1 0.88848E-2
  7.7927    0.75397E-1 0.55890E-2
  7.8977    0.62307E-1 0.56662E-2
  8.0027    0.49092E-1 0.65421E-2
  8.1078    0.52730E-1 0.66742E-2
  8.2128    0.45703E-1 0.51347E-2
  8.2548    0.35162E-1 0.46857E-2
  8.3178    0.27704E-1 0.48097E-2
  8.3808    0.25792E-1 0.49797E-2
  8.4439    0.33524E-1 0.70427E-2
  8.5279    0.33523E-1 0.51541E-2
  8.5909    0.29757E-1 0.62512E-2
  8.6960    0.29055E-1 0.36776E-2
  8.7590    0.28371E-1 0.43619E-2
  8.8220    0.25790E-1 0.46830E-2
  8.9060    0.24589E-1 0.51659E-2
  8.9901    0.27702E-1 0.42570E-2
  9.0952    0.32731E-1 0.50323E-2
  9.1582    0.33520E-1 0.42427E-2
  9.2422    0.24588E-1 0.44647E-2
  9.3052    0.18036E-1 0.43156E-2
  9.3261    0.11197E-1 0.33567E-2
  9.4101    0.64716E-2 0.37072E-2
  9.4521    0.47472E-2 0.38674E-2
  9.4941    0.54771E-2 0.37760E-2
  9.5362    0.66276E-2 0.35510E-2
  9.5992    0.74664E-2 0.32092E-2
  9.6412    0.88221E-2 0.34742E-2
  9.7043    0.12317E-1 0.29471E-2
  9.7674    0.18916E-1 0.34347E-2
  9.7884    0.27698E-1 0.50293E-2
  9.8935    0.37759E-1 0.47792E-2
  9.9985    0.28366E-1 0.43591E-2
 10.040     0.20807E-1 0.36123E-2
 10.103     0.15631E-1 0.28383E-2
 10.145     0.12917E-1 0.36650E-2
 10.188     0.13229E-1 0.28056E-2
 10.251     0.16008E-1 0.33629E-2
 10.293     0.21308E-1 0.32761E-2
 10.335     0.28364E-1 0.35901E-2
 10.398     0.34323E-1 0.43443E-2
 10.440     0.41533E-1 0.52569E-2
 10.482     0.43561E-1 0.55134E-2
 10.608     0.39598E-1 0.36010E-2
 10.629     0.32724E-1 0.36767E-2
 10.692     0.25783E-1 0.34359E-2
 10.734     0.18468E-1 0.20749E-2
 10.797     0.12612E-1 0.19381E-2
 10.860     0.80184E-2 0.15482E-2
 10.881     0.45253E-2 0.10828E-2
 10.944     0.22135E-2 0.95138E-3
ENDDATA            167
ENDSUBENT          184
SUBENT        23065005   20090930   20100209   20100209       2216
BIB                  3          6
REACTION   (34-SE-74(N,G)34-SE-75,,MLT/DE,,SPA) Averaged over
              incident neutron energies given in COMMON section.
              Units gamma-rays/MeV/capture
ERR-ANALYS (DATA-ERR)  Absolute error.
STATUS     (TABLE) Data received from So Kamada. Given on Fig.7
                   of C,2008AOMORI.
ENDBIB               6
COMMON               3          3
EN         -EN-RSL    +EN-RSL
KEV        KEV        KEV
 46.        31.        54.
ENDCOMMON            3
DATA                 3        158
E          DATA       DATA-ERR
MEV        PT/RCT/MEV PT/RCT/MEV
 5.5000E-01 0.0000E+00
 6.0000E-01 2.1010E+00 1.2217E-01
 6.5000E-01 1.4511E+00 9.6338E-02
 7.0000E-01 8.4046E-01 8.5796E-02
 7.5000E-01 1.1269E+00 1.2562E-01
 8.0000E-01 8.9112E-01 1.1865E-01
 8.5000E-01 1.1581E+00 1.1007E-01
 9.0000E-01 1.1691E+00 1.1438E-01
 9.5000E-01 1.0039E+00 1.1459E-01
 1.0000E+00 9.9026E-01 1.0903E-01
 1.0500E+00 5.1869E-01 1.0071E-01
 1.1000E+00 6.0772E-01 1.0442E-01
 1.1500E+00 9.3294E-01 1.0769E-01
 1.2000E+00 4.7955E-01 1.0456E-01
 1.2500E+00 5.0563E-01 9.9295E-02
 1.3000E+00 6.3411E-01 1.2770E-01
 1.3500E+00 5.8474E-01 1.1949E-01
 1.4000E+00 5.4709E-01 1.5061E-01
 1.4500E+00 5.3080E-01 1.8790E-01
 1.5000E+00 6.5621E-01 1.6273E-01
 1.5500E+00 4.3356E-01 1.1833E-01
 1.6000E+00 6.7927E-01 1.0706E-01
 1.6500E+00 6.1875E-01 9.3100E-02
 1.7000E+00 5.7108E-01 8.7227E-02
 1.7500E+00 4.7599E-01 7.5058E-02
 1.8000E+00 4.5898E-01 7.3888E-02
 1.8500E+00 4.7217E-01 7.2023E-02
 1.9000E+00 5.6730E-01 7.5034E-02
 1.9500E+00 5.6407E-01 7.9657E-02
 2.0000E+00 5.3055E-01 6.8908E-02
 2.0500E+00 5.8949E-01 7.0595E-02
 2.1000E+00 5.4076E-01 6.7035E-02
 2.1500E+00 6.1779E-01 7.4593E-02
 2.2000E+00 6.2165E-01 6.5869E-02
 2.2500E+00 5.2150E-01 5.1189E-02
 2.3000E+00 5.8870E-01 7.4604E-02
 2.3500E+00 5.3280E-01 5.4050E-02
 2.4000E+00 5.4252E-01 7.3971E-02
 2.4500E+00 5.6173E-01 5.0335E-02
 2.5000E+00 4.9652E-01 4.2723E-02
 2.5500E+00 5.7717E-01 6.0410E-02
 2.6000E+00 5.6656E-01 5.3427E-02
 2.6500E+00 5.9941E-01 6.8966E-02
 2.7000E+00 6.2070E-01 5.4851E-02
 2.7500E+00 5.4939E-01 7.3922E-02
 2.8000E+00 5.6487E-01 6.7720E-02
 2.8500E+00 5.6786E-01 9.3155E-02
 2.9000E+00 5.9040E-01 7.5538E-02
 2.9500E+00 6.0012E-01 7.2919E-02
 3.0000E+00 5.4358E-01 5.6908E-02
 3.0500E+00 5.4874E-01 4.6782E-02
 3.1000E+00 5.5213E-01 5.0384E-02
 3.1500E+00 5.2277E-01 4.7933E-02
 3.2000E+00 5.1320E-01 4.7526E-02
 3.2500E+00 5.0475E-01 4.4221E-02
 3.3000E+00 5.1961E-01 4.6095E-02
 3.3500E+00 5.3587E-01 5.2531E-02
 3.4000E+00 4.8370E-01 5.3666E-02
 3.4500E+00 4.3669E-01 6.0016E-02
 3.5000E+00 4.5232E-01 4.3177E-02
 3.5500E+00 4.4756E-01 3.5739E-02
 3.6000E+00 4.1701E-01 4.0558E-02
 3.6500E+00 4.1552E-01 4.0990E-02
 3.7000E+00 4.1928E-01 4.3905E-02
 3.7500E+00 4.0877E-01 3.5675E-02
 3.8000E+00 4.0535E-01 4.1522E-02
 3.8500E+00 3.9169E-01 3.9988E-02
 3.9000E+00 3.5939E-01 4.3351E-02
 3.9500E+00 3.5490E-01 5.4685E-02
 4.0000E+00 3.7736E-01 4.7587E-02
 4.0500E+00 3.7895E-01 4.1994E-02
 4.1000E+00 3.6693E-01 5.1121E-02
 4.1500E+00 3.7204E-01 5.0269E-02
 4.2000E+00 3.8382E-01 4.7588E-02
 4.2500E+00 3.7760E-01 5.5713E-02
 4.3000E+00 3.5467E-01 4.6525E-02
 4.3500E+00 3.4069E-01 3.8965E-02
 4.4000E+00 3.4203E-01 4.0775E-02
 4.4500E+00 3.3345E-01 3.4198E-02
 4.5000E+00 3.1436E-01 2.8896E-02
 4.5500E+00 3.1499E-01 2.8220E-02
 4.6000E+00 3.3018E-01 3.9260E-02
 4.6500E+00 3.2634E-01 4.6838E-02
 4.7000E+00 3.0638E-01 3.9349E-02
 4.7500E+00 2.9429E-01 3.3932E-02
 4.8000E+00 2.9250E-01 3.2279E-02
 4.8500E+00 2.9922E-01 2.8017E-02
 4.9000E+00 3.1297E-01 2.6660E-02
 4.9500E+00 3.1311E-01 2.6371E-02
 5.0000E+00 2.9087E-01 2.6356E-02
 5.0500E+00 2.7214E-01 2.8486E-02
 5.1000E+00 2.6904E-01 2.5517E-02
 5.1500E+00 2.5763E-01 2.5605E-02
 5.2000E+00 2.2906E-01 2.7656E-02
 5.2500E+00 2.0777E-01 2.6021E-02
 5.3000E+00 2.0438E-01 2.4211E-02
 5.3500E+00 2.0226E-01 2.5694E-02
 5.4000E+00 1.9470E-01 2.8785E-02
 5.4500E+00 1.9132E-01 3.1523E-02
 5.5000E+00 1.9031E-01 3.0729E-02
 5.5500E+00 1.8043E-01 2.7903E-02
 5.6000E+00 1.6418E-01 2.5623E-02
 5.6500E+00 1.5233E-01 2.5423E-02
 5.7000E+00 1.4331E-01 2.3138E-02
 5.7500E+00 1.2871E-01 2.0517E-02
 5.8000E+00 1.1068E-01 2.0852E-02
 5.8500E+00 9.8746E-02 2.1961E-02
 5.9000E+00 9.6275E-02 1.9616E-02
 5.9500E+00 1.0114E-01 1.9952E-02
 6.0000E+00 1.1282E-01 2.1681E-02
 6.0500E+00 1.2860E-01 2.0324E-02
 6.1000E+00 1.3844E-01 1.7923E-02
 6.1500E+00 1.3413E-01 1.6722E-02
 6.2000E+00 1.2101E-01 1.6591E-02
 6.2500E+00 1.1190E-01 1.6576E-02
 6.3000E+00 1.1076E-01 1.5836E-02
 6.3500E+00 1.1022E-01 1.4207E-02
 6.4000E+00 1.0483E-01 1.4405E-02
 6.4500E+00 9.7896E-02 1.5415E-02
 6.5000E+00 9.2943E-02 1.4765E-02
 6.5500E+00 8.6488E-02 1.5064E-02
 6.6000E+00 7.4821E-02 1.6246E-02
 6.6500E+00 6.3256E-02 1.6492E-02
 6.7000E+00 6.2122E-02 1.5555E-02
 6.7500E+00 7.4719E-02 1.5244E-02
 6.8000E+00 9.3890E-02 1.5044E-02
 6.8500E+00 1.1019E-01 1.4002E-02
 6.9000E+00 1.1945E-01 1.6301E-02
 6.9500E+00 1.2273E-01 1.8305E-02
 7.0000E+00 1.2348E-01 1.7582E-02
 7.0500E+00 1.2592E-01 1.5959E-02
 7.1000E+00 1.3165E-01 1.4603E-02
 7.1500E+00 1.3587E-01 1.5483E-02
 7.2000E+00 1.3080E-01 1.4864E-02
 7.2500E+00 1.1593E-01 1.3212E-02
 7.3000E+00 1.0200E-01 1.1536E-02
 7.3500E+00 1.0045E-01 1.1488E-02
 7.4000E+00 1.1015E-01 1.3289E-02
 7.4500E+00 1.1818E-01 1.3351E-02
 7.5000E+00 1.1401E-01 1.2558E-02
 7.5500E+00 9.9705E-02 1.2317E-02
 7.6000E+00 8.5491E-02 1.2059E-02
 7.6500E+00 7.8193E-02 1.2399E-02
 7.7000E+00 7.6173E-02 1.1824E-02
 7.7500E+00 7.3749E-02 1.0157E-02
 7.8000E+00 6.7518E-02 8.5525E-03
 7.8500E+00 5.8109E-02 7.4209E-03
 7.9000E+00 4.7936E-02 6.5221E-03
 7.9500E+00 3.8832E-02 5.6130E-03
 8.0000E+00 3.1396E-02 4.7742E-03
 8.0500E+00 2.5387E-02 4.0903E-03
 8.1000E+00 2.0215E-02 3.5663E-03
 8.1500E+00 1.5351E-02 3.2834E-03
 8.2000E+00 1.0638E-02 2.8973E-03
 8.2500E+00 6.3619E-03 2.5879E-03
 8.3000E+00 3.0029E-03 2.4490E-03
 8.3500E+00 8.7171E-04 2.3753E-03
 8.4000E+00 0.0000E+00
ENDDATA            160
ENDSUBENT          175
ENDENTRY             5
