ENTRY            23079   20090804   20100209   20100209       2216
SUBENT        23079001   20090804   20100209   20100209       2216
BIB                 16         49
TITLE      .Measurement of Capture Cross-Sections for the
            165Ho (n,gamma)166Ho Reaction in the Neutron Energy
            Region from 10 to 90 keV
AUTHOR     (T.-I.Ro, Y.-R.Kang, H.Kim, W.-C.Chung, G.Kim, S.Lee,
           M.Igashira, T.Ohsaki)
INSTITUTE  (2JPNTIT) M.Igashira, T.Ohsaki, and experimental site
           (3KORKNU) G.Kim, corresponding author. Department of
            Physics, Kyungpook National University, Daegu.
            E-mail: gnkim@knu.ac.kr
           (3KORDAU) T.-I.Ro, Y.-R.Kang, H.KIM, W.-C.CHUNG, Donga
                     University, Pusan (Busan)
           (3KORKOR) S.Lee, Department of Physics,
                          Nambu University Gwangju
REFERENCE  (J,KPS,50,(5),1494,2007)  Main reference, data tables
                   and graph are given for cross section
REL-REF    (M,22932001,W.-C.Chung+,J,KPS,50,(2),409,2007)   Expe-
                     rimental and analysis details
           (I,22784001,T.Veerapaspong+,J,NST,36,(10),855,1999)
FACILITY   (VDGT,2JPNTIT)  Tandem Van de Graaff accelerator
             PELLETRON of the Tokyo Institute of Technology
INC-SOURCE (P-LI7) 7Li(p,n)7Be reaction by bombarding the lithium
            target with a 1.5-ns bunched proton beam from the
            3-MV Pelletron accelerator. 20 mm diameter lithium
            layer on 30 mm copper disk. Pulse repetition rate
            4 MHz, proton current 9 microA
INC-SPECT  .Continuous neutron spectrum in 2 - 90 keV range.
            Proton energy is 1.903 MeV, 22 keV above 7Li(p,n)7Be
            reaction threshold
METHOD     (TOF)    Time-of-flight
           (PHD)    Pulse height discrimination
           (SITA)   Intermittent sample-monitor-blank irradiation
DETECTOR   (NAICR)  Anti-Compton Na-I(TL) spectrometer located at
             20.6 cm from sample - for gamma detection.
           (SCIN)   6-Li scintillation glass detector for neutron
             energy determination by TOF, diameter 5.0 mm,
             thickness 5.0 mm
PART-DET   (G,N)
MONITOR    (79-AU-197(N,G)79-AU-198,,SIG)
MONIT-REF  (,P.G.Young+,3,ENDF/B-VII.0,7925,2006)
            http://www.nndc.bnl.gov/nndc/endf/
SAMPLE     .Metallic Holmium disk sample 55 mm diameter, 2.1 mm
            thick, weight 44.17 gram, 100% isotopic composition -
            monoisotop
           .Gold monitor metal disk sample 55 mm diameter, 1.0 mm
            thickness, 46.26 gram weight, purity 99.99%
CORRECTION .Corrections are made for self-absorption and multiple
            scattering. Energy-dependent correction coefficients
            are given in SAN 002
HISTORY    (20090804C)  S.M.
ENDBIB              49
NOCOMMON             0          0
ENDSUBENT           52
SUBENT        23079002   20090804   20100209   20100209       2216
BIB                  5         13
REACTION   (67-HO-165(N,G)67-HO-166,,SIG,,AV) Averaged over
                               energy range in DATA section
MISC-COL   (MISC1) Full correction coefficients for 165Ho equal
            to product of neutron (Cn) and gamma-ray (Cg)
            coefficients
           (MISC2) Full correction coefficients for 197Au equal
            to product of neutron (Cn) and gamma-ray (Cg)
            coefficients
STATUS     (TABLE)  Table 3 of main reference.
REL-REF    (A,10531002,R.L.Macklin,J,NSE,59,231,1976)
           (D,,V.N.Kononov,W,KONONOV,1996)
           (D,21466004,N.Yamamuro+,J,NST,17,582,1980)
ERR-ANALYS (DATA-ERR)  Not specified
ENDBIB              13
NOCOMMON             0          0
DATA                 7          6
EN-MIN     EN-MAX     DATA       DATA-ERR   MONIT      MISC1
MISC2
KEV        KEV        B          B          B          NO-DIM
NO-DIM
    15.       25.        1.618      0.065      0.7167    1.10729
  1.08470
    25.       35.        1.323      0.053      0.5675    1.08871
  1.07948
    35.       45.        1.176      0.047      0.4930    1.07821
  1.07427
    45.       55.        1.047      0.042      0.4389    1.07794
  1.08159
    55.       65.        0.975      0.039      0.3983    1.06645
  1.07317
    65.       98.        0.965      0.039      0.3561    1.04363
  1.05588
ENDDATA             16
ENDSUBENT           34
ENDENTRY             2
