ENTRY            O1730   20230330   20230718   20230716       O095
SUBENT        O1730001   20230330   20230718   20230716       O095
BIB                 12         20
TITLE      Rainbow scattering of radioactive nuclei and the
           isospin dependence of the nucleus-nucleus potential
AUTHOR     (A.S.Demyanova, H.G.Bohlen, B.Gebauer, S.A.Goncharov,
           A.A.Korsheninnikov, Ch.Langner, M.von Lucke-Petsch,
           W.von Oertzen, A.A.Ogloblin, O.Ya.Osadchy,
           A.N.Ostrowski, M.Wilpert, Th.Wilpert)
REFERENCE  (J,NP/A,553,727,1993)
REL-REF    (O,F0853004,A.S.Demyanova+,J,NP/A,482,383,1988)
                                       - C14(He3,el) at 72 MeV.
INSTITUTE  (2GERBER)
FACILITY   (CYCLO,2GERBER) The accelerator VICKSI.
METHOD     (EDE)
SAMPLE     A self-supporting C-14 target, 28.2 ug/cm2
           thickness, was used.
DETECTOR   (MAGSP) Q3D magnetic spectrograph.
STATUS     (TABLE) Table data were received from Dr.A.S.Demyanova
           (APRVD) By A.S.Demyanova
ERR-ANALYS (ERR-S) Statistical error
HISTORY    (20090304C) SB
           (20230330U) SD: Ref. NP/A,482,383 moved to REL-REF.
ENDBIB              20
COMMON               1          3
EN
MEV
     334.4
ENDCOMMON            3
ENDSUBENT           27
SUBENT        O1730002   20090304   20090724   20090723       O039
BIB                  1          1
REACTION   (6-C-14(T,EL)6-C-14,,DA)
ENDBIB               1
NOCOMMON             0          0
DATA                 3        118
ANG-CM     DATA-CM    ERR-S
ADEG       MB/SR      PER-CENT
14.36      34.438     9.50
14.94      24.787     12.49
15.5       15.652     18.74
16.08      15.015     18.92
16.66      21.414     12.67
17.24      30.855     8.70
17.82      38.351     6.93
18.42      50.316     5.24
19.00      57.311     4.58
19.58      64.519     4.00
20.16      63.223     3.87
20.76      68.634     3.56
21.34      69.215     3.57
21.92      66.626     3.63
22.52      60.508     3.85
23.12      57.677     3.93
23.70      49.436     4.31
24.30      43.626     4.56
24.90      32.158     5.73
25.52      22.173     4.23
26.32      15.946     4.78
27.10      11.125     6.28
27.86      9.5141     7.00
28.60      9.5865     6.94
29.32      10.675     6.35
30.04      11.921     6.14
30.72      15.341     5.14
31.40      18.902     4.35
32.06      21.726     4.00
32.72      23.975     3.69
33.36      25.075     3.60
33.98      27.751     3.41
34.34      28.465     3.93
34.96      27.531     4.00
35.60      28.125     3.91
36.24      25.814     4.05
36.86      26.065     3.87
37.50      24.793     3.99
38.14      22.586     4.23
38.80      20.031     4.46
39.44      18.699     4.65
40.10      18.716     4.57
40.74      16.549     4.68
41.40      16.572     4.86
42.06      13.892     5.30
42.74      12.554     5.20
43.40      12.285     5.59
44.08      10.531     6.13
44.76      10.012     6.29
45.44      9.4262     6.28
46.10      9.1308     0.84
46.80      8.6080     0.86
47.50      8.4049     0.87
48.20      8.3172     0.86
48.90      8.0034     0.88
49.60      7.8137     0.88
50.32      7.4670     0.90
51.04      7.1914     0.92
51.78      6.8534     0.94
52.52      6.4745     0.95
53.26      5.8783     1.01
54.00      5.3176     1.05
54.76      4.7032     1.14
55.52      4.0181     1.23
56.30      3.7509     1.26
57.08      3.5656     1.29
57.86      3.1798     1.39
58.66      2.8715     1.46
59.46      2.4864     1.55
60.28      2.1182     1.69
61.12      1.9681     1.73
61.94      1.6710     1.93
62.84      1.5430     1.17
63.50      1.3905     1.25
64.16      1.3411     1.24
64.82      1.2380     1.32
65.48      1.0936     1.44
66.12      1.0104     1.52
66.78      0.98105    1.56
67.42      0.92741    1.62
68.06      0.86008    1.73
68.68      0.78714    1.80
69.32      0.68681    1.97
69.94      0.65692    2.03
70.56      0.63275    2.11
71.18      0.58125    2.18
71.80      0.49587    2.53
72.40      0.47535    2.53
73.00      0.44068    2.69
73.62      0.39679    2.92
74.22      0.37021    3.09
74.82      0.33033    3.27
75.42      0.32029    3.25
76.00      0.28623    3.54
76.60      0.26388    3.80
77.18      0.24106    4.01
77.78      0.21082    4.52
78.36      0.18356    5.11
78.94      0.17473    5.08
79.52      0.14277    6.03
80.10      0.13464    6.33
80.66      0.12882    6.62
81.24      0.11071    7.36
81.82      0.10304    7.79
82.38      0.094379   8.00
82.94      0.074136   10.14
83.52      0.077880   9.23
84.08      0.078271   9.09
84.64      0.063127   10.84
85.20      0.064092   10.10
85.76      0.058396   11.48
86.32      0.051983   12.54
86.88      0.043288   12.80
87.44      0.043774   14.04
87.98      0.041652   14.55
88.54      0.040785   15.10
89.08      0.036727   16.75
89.64      0.033687   17.81
ENDDATA            120
ENDSUBENT          126
ENDENTRY             2
