ENTRY            O1758   20090702   20100128   20100120       O040
SUBENT        O1758001   20090702   20100128   20100120       O040
BIB                 13         32
TITLE      Proton pick-up from Sc-45.
AUTHOR     (Ole Hansen, H.Burkal Jensen, R.Chapman, S.Hinds)
INSTITUTE  (2DENNBI)
           (2UK ALD)
REFERENCE  (J,NP/A,128,527,1969)
SAMPLE     The Sc-45 target was prepared by vacuum evaporation of
           natural scandium.
           The Ca-44 target was fabricated by vacuum evaporation
           of the enriched carbonate, the isotopic compositions
           was Ca-44 98.56%, Ca-40 1.35%, Ca-42 0.04%, Ca-43 0.05%
           and Ca-46,48 less than 0.01%.
DETECTOR   (MAGSP) Multi-angle magnetic spectrograph
           (PLATE).50 mum Ilford K-1 emulsions.
INC-SOURCE *EN-RSL*.The overall energy resolution was 30 keV.
FACILITY   (VDGT,2UK ALD)
METHOD     (SITA)
ADD-RES    (COMP).DWBA analysis.
            The alpha-particle spectrum from the reaction
           Sc-45(t,a)Ca-44 was observed.
           (P-SPC).The Ca-44(p,inl)Ca-44 spectra were measured at
           Ang(lab)=60 and 120 degrees at an incident energy of
            10.00 MeV by using the proton beam from the Copenhagen
           tandem accelerator. The energy resolution was 6 keV
           FWHM .A spectrum is shown in fig.3
STATUS     (CURVE) By CAJAD.
ERR-ANALYS (ANG-ERR-D).Digitizing error of angle.
           (DATA-ERR1).The errors of about 30% should be assigned
           to all data from ANG=12.5 degree, so the scanning of
           the 12.5 degree spectrum was particularly difficult.
           (DATA-ERR).The typical errors are indicated by vertical
           bars on fig.2
HISTORY    (20090702C) SB
ENDBIB              32
COMMON               4          3
EN         EN-RSL     ANG-ERR-D  DATA-ERR1
MEV        KEV        ADEG       PER-CENT
12.95      30.        0.6        30.
ENDCOMMON            3
ENDSUBENT           39
SUBENT        O1758002   20090702   20100128   20100120       O040
BIB                  3         17
REACTION   (21-SC-45(T,A)20-CA-44,PAR,DA,,REL) fig 2
EN-SEC     (E-LVL,20-CA-44)
LEVEL-PROP (20-CA-44,E-LVL=0.000,SPIN=0.,PARITY=+1.)
           (20-CA-44,E-LVL=1.158,SPIN=2.,PARITY=+1.)
           (20-CA-44,E-LVL=1.887,SPIN=0.,PARITY=+1.)
           (20-CA-44,E-LVL=2.288,SPIN=4.,PARITY=+1.)
           (20-CA-44,E-LVL=2.659,SPIN=2.,PARITY=+1.)
           (20-CA-44,E-LVL=3.052,SPIN=4.,PARITY=+1.)
           (20-CA-44,E-LVL=3.307,SPIN=3.,PARITY=-1.)
           (20-CA-44,E-LVL=3.915,SPIN=5.,PARITY=-1.)
           (20-CA-44,E-LVL=4.363,SPIN=3.,PARITY=-1.)
           (20-CA-44,E-LVL=4.488,SPIN=2.,PARITY=+1.)
           (20-CA-44,E-LVL=4.565,SPIN=5.,PARITY=-1.)
           (20-CA-44,E-LVL=4.660,SPIN=2.,PARITY=+1.)
           (20-CA-44,E-LVL=4.912,SPIN=3.,PARITY=-1.)
           (20-CA-44,E-LVL=5.235,SPIN=3.,PARITY=-1.)
           (20-CA-44,E-LVL=5.660,SPIN=3.,PARITY=-1.)
ENDBIB              17
NOCOMMON             0          0
DATA                 5        179
E-LVL      E-LVL      ANG-CM     DATA-CM    DATA-ERR
MEV        MEV        ADEG       ARB-UNITS  PER-CENT
    0.00000              14.20000    6.55000    1.20000
    0.00000              21.50000    3.88000    6.00000
    0.00000              29.10000    1.77000    7.00000
    0.00000              36.50000    1.27000    6.00000
    0.00000              44.50000    0.84000    6.00000
    0.00000              52.00000    0.28100    6.00000
    0.00000              59.40000    0.23200    8.00000
    0.00000              67.10000    0.11600    9.00000
    0.00000              74.80000    0.08900   10.00000
    1.15800              11.60000    2.39000    1.30000
    1.15800              19.20000    1.68000    7.00000
    1.15800              26.80000    0.65000    9.00000
    1.15800              35.70000    0.52000    6.00000
    1.15800              43.00000    0.30500    8.00000
    1.15800              51.20000    0.20600    9.00000
    1.15800              59.80000    0.12400    9.00000
    1.15800              67.80000    0.06900   13.00000
    1.15800              74.50000    0.07700   12.00000
    1.88700               9.40000    1.48200    1.40000
    1.88700              18.30000    1.11000    6.00000
    1.88700              26.60000    0.35700    7.00000
    1.88700              34.90000    0.20700    9.00000
    1.88700              42.60000    0.21400    9.00000
    1.88700              51.20000    0.07200   14.00000
    1.88700              58.90000    0.06700   13.00000
    1.88700              67.30000    0.03300   18.00000
    2.28800              11.20000    0.49100    1.80000
    2.28800              18.60000    0.45000    9.00000
    2.28800              27.80000    0.19500   12.00000
    2.28800              35.60000    0.30000   13.00000
    2.28800              42.80000    0.08900   16.00000
    2.28800              51.80000    0.02400   21.00000
    2.65900              14.70000    3.54000    5.00000
    2.65900              22.20000    2.50000    7.00000
    2.65900              30.30000    0.76000    4.00000
    2.65900              38.40000    0.54000    7.00000
    2.65900              46.30000    0.52000    8.00000
    2.65900              53.70000    0.28000    9.00000
    2.65900              61.70000    0.17700   10.00000
    2.65900              68.70000    0.05400   15.00000
    2.65900              76.10000    0.05900   14.00000
    3.05200              15.10000    0.28000    1.40000
    3.05200              22.10000    0.34800    7.00000
    3.05200              30.20000    0.12200   10.00000
    3.05200              36.60000    0.07400    9.00000
    3.05200              43.90000    0.08400    8.00000
    3.05200              51.80000    0.04100   15.00000
    3.05200              59.30000    0.02900   17.00000
    3.30700              12.50000    4.56000    1.30000
    3.30700              20.60000    4.13000    5.00000
    3.30700              27.90000    1.59000    8.00000
    3.30700              36.30000    1.66000    7.00000
    3.30700              44.50000    1.03000    8.00000
    3.30700              52.60000    0.62000    6.00000
    3.30700              59.00000    0.19600   12.00000
    3.36000              14.40000    3.21000    5.00000
    3.36000              21.40000    2.40000   13.00000
    3.36000              28.90000    0.62000   13.00000
    3.36000              38.40000    0.47000   11.00000
    3.36000              45.60000    0.35000    9.00000
    3.36000              53.50000    0.22500   11.00000
    3.36000              60.20000    0.12000   12.00000
    3.71600              20.20000    5.10000   10.00000
    3.71600              28.40000    3.05000    9.00000
    3.71600              36.60000    3.10000   10.00000
    3.71600              44.20000    1.43000   10.00000
    3.71600              51.50000    1.15000   10.00000
    3.71600              60.50000    0.38000   11.00000
    3.71600              67.40000    0.16500   12.00000
    3.91500              20.30000    9.50000   14.00000
    3.91500              28.80000    5.40000   11.00000
    3.91500              36.90000    4.50000   13.00000
    3.91500              43.60000    2.36000   11.00000
    3.91500              52.30000    0.82000    7.00000
    3.91500              60.20000    0.31400    6.00000
    3.91500              68.40000    0.14600   10.00000
    3.91500              75.50000    0.09300   11.00000
    4.09900              19.80000    4.20000   10.00000
    4.09900              29.00000    0.97000    6.00000
    4.09900              37.80000    0.66000    6.00000
    4.09900              45.50000    0.38600    7.00000
    4.09900              52.90000    0.26400    7.00000
    4.09900              60.20000    0.15400    8.00000
    4.09900              68.60000    0.05800   12.00000
    4.36300              13.20000    4.55000    1.10000
    4.36300              20.90000    6.00000   10.00000
    4.36300              29.00000    1.71000    8.00000
    4.36300              37.40000    2.39000   10.00000
    4.36300              45.30000    1.35000   10.00000
    4.36300              52.80000    0.85000    9.00000
    4.36300              59.60000    0.25400   11.00000
    4.36300              67.40000    0.19400   11.00000
    4.36300              75.20000    0.13700   15.00000
    4.48800              12.40000    0.76400    1.20000
    4.48800              19.70000    0.60000    7.00000
    4.48800              27.70000    0.30900    8.00000
    4.48800              36.50000    0.26300    7.00000
    4.48800              43.90000    0.15900    9.00000
    4.48800              51.90000    0.08700   10.00000
    4.56500              13.60000    1.38200    1.20000
    4.56500              21.70000    0.82000    7.00000
    4.56500              29.50000    0.45800    6.00000
    4.56500              37.30000    0.58000    7.00000
    4.56500              44.60000    0.19400    7.00000
    4.56500              52.40000    0.12500   10.00000
    4.66000              14.10000    0.64400    3.00000
    4.66000              22.50000    0.59000    5.00000
    4.66000              30.00000    0.30100    8.00000
    4.66000              37.70000    0.21200    6.00000
    4.66000              45.50000    0.09600   10.00000
    4.66000              53.10000    0.06700   12.00000
    4.91200              20.80000    0.76000    7.00000
    4.91200              28.00000    0.37000    8.00000
    4.91200              36.50000    0.39000    8.00000
    4.91200              44.30000    0.24900    9.00000
    4.91200              51.20000    0.11500   11.00000
    4.91200              59.00000    0.09200   11.00000
    4.99100              20.40000    1.85000   16.00000
    4.99100              28.90000    0.80000   13.00000
    4.99100              35.60000    0.82000   12.00000
    4.99100              44.80000    0.33000   21.00000
    4.99100              52.50000    0.41000   20.00000
    5.02900              20.70000    2.00000   15.00000
    5.02900              28.50000    0.46000   24.00000
    5.02900              36.20000    0.78000   10.00000
    5.02900              44.10000    0.42000   19.00000
    5.02900              51.30000    0.22000   23.00000
    5.10300    5.12000   21.80000    5.00000   12.00000
    5.10300    5.12000   29.30000    0.67000    9.00000
    5.10300    5.12000   37.90000    1.31000    9.00000
    5.10300    5.12000   45.40000    0.77000    9.00000
    5.10300    5.12000   53.20000    0.42000    7.00000
    5.10300    5.12000   60.40000    0.14800    9.00000
    5.23500              21.50000    1.14000    8.00000
    5.23500              29.30000    0.39000   10.00000
    5.23500              37.40000    0.42000   10.00000
    5.23500              45.60000    0.24400   10.00000
    5.23500              53.00000    0.17100   11.00000
    5.23500              60.40000    0.10800    9.00000
    5.40400              21.80000    6.70000   12.00000
    5.40400              28.90000    0.77000   10.00000
    5.40400              37.10000    1.58000    9.00000
    5.40400              46.00000    0.95000    9.00000
    5.40400              52.70000    0.55000    9.00000
    5.40400              60.50000    0.18200    8.00000
    5.51800              21.10000    0.87000   10.00000
    5.51800              28.40000    0.45000    9.00000
    5.51800              36.50000    0.42000   10.00000
    5.51800              43.80000    0.17700   10.00000
    5.51800              51.60000    0.24400   10.00000
    5.51800              59.90000    0.10700    9.00000
    5.57900              21.20000    2.52000    8.00000
    5.57900              27.50000    0.30000   10.00000
    5.57900              35.90000    0.61000   10.00000
    5.57900              43.70000    0.36900    7.00000
    5.57900              51.40000    0.23700   10.00000
    5.57900              59.80000    0.10000   10.00000
    5.66000              22.30000    0.71000   10.00000
    5.66000              29.30000    0.28100   10.00000
    5.66000              37.40000    0.30500   10.00000
    5.66000              44.80000    0.16800    9.00000
    5.66000              52.50000    0.11100    9.00000
    5.66000              59.50000    0.07700   10.00000
    5.74100              21.40000    0.92000    9.00000
    5.74100              28.90000    0.49000    8.00000
    5.74100              37.50000    0.64000    8.00000
    5.74100              45.00000    0.22300   10.00000
    5.74100              53.60000    0.26200   10.00000
    5.74100              60.80000    0.11100    9.00000
    5.81000              26.70000    0.37000    8.00000
    5.81000              35.70000    0.31000   10.00000
    5.81000              43.60000    0.16800    9.00000
    5.81000              51.50000    0.16000   10.00000
    5.81000              60.00000    0.09400   11.00000
    5.89100              30.00000    1.41000   11.00000
    5.89100              38.50000    1.54000   10.00000
    5.89100              45.50000    0.65000   11.00000
    5.89100              52.60000    0.64000    9.00000
    5.89100              60.40000    0.13900   15.00000
ENDDATA            181
ENDSUBENT          203
ENDENTRY             2
