ENTRY            O1753   20090622   20100128   20100120       O040
SUBENT        O1753001   20090622   20100128   20100120       O040
BIB                 11         34
TITLE      The (t,p) reaction on the even isotopes of neodymium.
AUTHOR     (R.Chapman, W.McLatchie, J.E.Kitching)
INSTITUTE  (2UK HAR)
           (2UK ALD)
           (2UK OXF)
REFERENCE  (J,NP/A,186,603,1972)
SAMPLE     Targets of Nd(2)O(3), enriched to approximately 95% in
           the isotopes Nd-142, Nd-144, Nd-146, Nd-148 and Nd-150
           and each of approximate thickness 200 mug/cm**2 were
           used.
           Targets- Nd-142, isotopic composition (%)
            Nd-142  Nd-143  Nd-144  Nd-145  Nd-146  Nd-148  Nd-150
            95.90   2.48     1.22   0.14    0.18    0.03    0.02
           Targets- Nd-144, isotopic composition (%)
           Nd-142  Nd-143  Nd-144  Nd-145  Nd-146  Nd-148  Nd-150
            0.44    0.87    96.60  1.45    0.57    0.04     0.02
           Targets- Nd-146, isotopic composition (%)
           Nd-142  Nd-143  Nd-144  Nd-145  Nd-146  Nd-148  Nd-150
            0.68   0.45    1.46    1.38     95.2    0.72    0.14
           Targets- Nd-148, isotopic composition (%)
           Nd-142  Nd-143  Nd-144  Nd-145  Nd-146  Nd-148  Nd-150
            0.71    0.37    0.99   0.55    2.08     92.92   2.38
           Targets- Nd-150, isotopic composition (%)
           Nd-142  Nd-143  Nd-144  Nd-145  Nd-146  Nd-148  Nd-150
            0.55    0.29    0.67    0.23    0.65    0.66    96.95
DETECTOR   (MAGSP) Multi-angle magnetic spectrograph
           (PLATE) 50 mum thick Ilford K2 emulsions
INC-SOURCE *EN-RSL-FW*.The overall energy resolution of the
            system was about 20 keV FWHM.
FACILITY   (VDGT,2UK ALD)
METHOD     (BCINT)
ADD-RES     The Q-values were measured for final states with
           excitation energies up to about 3 MeV.
HISTORY    (20090622C) SB
ENDBIB              34
COMMON               1          3
EN-RSL-FW
KEV
20.
ENDCOMMON            3
ENDSUBENT           41
SUBENT        O1753002   20090622   20100128   20100120       O040
BIB                  4          5
REACTION   (60-ND-142(T,P)60-ND-144,PAR,DA,,REL) fig 2,3
EN-SEC     (E-LVL,60-ND-144)
ERR-ANALYS (ANG-ERR-D). Digitizing error of angle.
           (ERR-S).Statistical error is reported by authors on fig
STATUS     (CURVE) By CAJAD.
ENDBIB               5
COMMON               2          3
ANG-ERR-D  EN
ADEG       MEV
0.6        12.85
ENDCOMMON            3
DATA                 4        305
E-LVL      ANG-CM     DATA-CM    ERR-S
MEV        ADEG       ARB-UNITS  ARB-UNITS
    0.00000    5.80000  360.00000   40.00000
    0.00000   12.70000   84.00000   25.00000
    0.00000   19.50000  431.00000   23.00000
    0.00000   27.90000  680.00000   30.00000
    0.00000   34.90000  334.00000   23.00000
    0.00000   41.90000   20.00000    3.00000
    0.00000   49.70000  147.00000   14.00000
    0.00000   58.20000  317.00000   17.00000
    0.00000   64.60000  285.00000   11.00000
    0.00000   72.20000   76.00000    3.00000
    0.00000   79.90000   40.00000    3.00000
    0.00000   87.30000  126.00000   17.00000
    0.00000   92.40000  101.00000    9.00000
    0.00000   99.60000   97.00000   12.00000
    0.00000  106.90000   27.00000    5.00000
    0.00000  114.10000   28.00000    3.00000
    0.00000  119.10000   30.00000   13.00000
    0.00000  129.20000   46.00000    3.00000
    0.00000  137.20000   47.00000    3.00000
    0.00000  144.00000   24.00000    3.00000
    0.70000   15.20000  761.00000    3.00000
    0.70000   21.00000  510.00000   30.00000
    0.70000   28.60000  285.00000   24.00000
    0.70000   36.90000  420.00000   18.00000
    0.70000   43.60000  544.00000   22.00000
    0.70000   51.40000  409.00000   13.00000
    0.70000   57.70000  203.00000   18.00000
    0.70000   65.00000  243.00000   13.00000
    0.70000   73.20000  294.00000   25.00000
    0.70000   80.20000  204.00000   11.00000
    0.70000   88.10000  151.00000   10.00000
    0.70000   99.90000   95.00000   11.00000
    1.31000    5.30000  130.00000   20.00000
    1.31000   12.70000  281.00000   17.00000
    1.31000   27.50000  506.00000   20.00000
    1.31000   35.50000  465.00000   17.00000
    1.31000   42.70000  256.00000   11.00000
    1.31000   50.10000  306.00000   14.00000
    1.31000   58.10000  284.00000   16.00000
    1.31000   65.60000  280.00000   16.00000
    1.31000   72.70000  188.00000    8.00000
    1.31000   79.80000  159.00000    9.00000
    1.31000   87.30000  166.00000   11.00000
    1.31000   92.30000  160.00000   10.00000
    1.31000   98.90000  123.00000   12.00000
    1.51000    5.10000  250.00000   30.00000
    1.51000   14.50000  218.00000   22.00000
    1.51000   20.90000  163.00000   15.00000
    1.51000   36.20000  145.00000   12.00000
    1.51000   43.00000  139.00000   11.00000
    1.51000   51.10000  115.00000   10.00000
    1.51000   58.30000   56.00000    7.00000
    1.51000   65.50000   45.00000    6.00000
    1.51000   72.80000   49.00000    7.00000
    1.51000   80.00000   33.00000    5.00000
    1.51000   88.10000   26.00000    5.00000
    1.51000   92.30000   14.00000    3.00000
    1.56000    3.10000   67.00000   18.00000
    1.56000   12.30000   25.00000    6.00000
    1.56000   18.80000   88.00000    8.00000
    1.56000   27.40000   54.00000    8.00000
    1.56000   35.10000   21.00000    5.00000
    1.56000   41.80000   22.00000    4.00000
    1.56000   49.70000   31.00000    6.00000
    1.56000   57.10000   20.00000    5.00000
    1.56000   64.50000   27.00000    5.00000
    1.56000   72.20000   23.00000    4.00000
    1.56000   79.70000    5.80000    0.40000
    1.56000   87.70000    7.00000    2.70000
    1.56000   99.50000    7.00000    3.00000
    1.79000    4.20000   65.00000   17.00000
    1.79000   11.20000   40.00000    9.00000
    1.79000   19.50000   40.00000    6.00000
    1.79000   28.20000   77.00000    8.00000
    1.79000   35.90000  115.00000   10.00000
    1.79000   43.00000  112.00000   11.00000
    1.79000   51.20000  138.00000   12.00000
    1.79000   59.00000   66.00000    8.00000
    1.79000   67.40000  126.00000   12.00000
    1.79000   73.50000  106.00000   11.00000
    1.79000   80.50000   85.00000    8.00000
    1.79000   87.80000   46.00000    7.00000
    1.79000   91.90000   44.00000    7.00000
    1.79000   99.80000   33.00000    6.00000
    2.10000    5.00000  400.00000   40.00000
    2.10000   13.40000  460.00000   30.00000
    2.10000   21.80000  493.00000   23.00000
    2.10000   29.70000  436.00000   18.00000
    2.10000   36.00000  455.00000   21.00000
    2.10000   44.40000  582.00000   23.00000
    2.10000   52.30000  535.00000   28.00000
    2.10000   58.20000  291.00000   16.00000
    2.10000   66.10000  329.00000   14.00000
    2.10000   73.20000  300.00000   17.00000
    2.10000   80.80000  261.00000   12.00000
    2.10000   87.90000  198.00000   17.00000
    2.10000   92.00000  171.00000   16.00000
    2.10000  100.40000  145.00000   12.00000
    2.19000    4.00000  152.00000   15.00000
    2.19000   10.50000  129.00000   16.00000
    2.19000   18.90000   90.00000   11.00000
    2.19000   27.00000   75.00000    5.00000
    2.19000   34.20000   24.00000    5.00000
    2.19000   41.00000   26.00000    5.00000
    2.19000   48.90000   52.00000    6.00000
    2.19000   56.60000   38.00000    5.00000
    2.19000   64.20000   45.00000    6.00000
    2.19000   71.60000   12.00000    3.00000
    2.19000   79.30000    4.60000    2.10000
    2.19000   86.90000    7.20000    2.80000
    2.29000    3.20000  127.00000   22.00000
    2.29000   11.40000   97.00000   13.00000
    2.29000   18.90000   55.00000    8.00000
    2.29000   27.30000  123.00000   10.00000
    2.29000   34.20000  100.00000    9.00000
    2.29000   40.90000   90.00000    9.00000
    2.29000   57.60000   34.00000    6.00000
    2.29000   65.30000   52.00000    7.00000
    2.29000   71.60000   45.00000    6.00000
    2.29000   79.50000   41.00000    5.00000
    2.29000   87.90000   35.00000    5.00000
    2.29000   99.20000   23.00000    5.00000
    2.45000    5.90000   75.00000   12.00000
    2.45000   14.70000   76.00000   12.00000
    2.45000   19.40000   50.00000    8.00000
    2.45000   26.90000   49.00000    6.00000
    2.45000   43.30000   32.00000    4.00000
    2.45000   51.80000   47.00000    6.00000
    2.45000   58.90000   47.00000    7.00000
    2.45000   65.20000   23.00000    5.00000
    2.45000   73.60000   36.00000    6.00000
    2.45000   80.80000   20.00000    4.00000
    2.45000   88.80000   14.00000    4.00000
    2.45000  100.10000    5.50000    2.60000
    2.52000    7.00000  210.00000   21.00000
    2.52000   13.10000  102.00000   15.00000
    2.52000   20.50000    4.00000    4.00000
    2.52000   28.30000   31.00000    7.00000
    2.52000   35.50000   26.00000    5.00000
    2.52000   42.10000   24.00000    5.00000
    2.52000   50.10000   26.00000    4.00000
    2.52000   60.20000    6.00000    4.00000
    2.52000   65.10000   16.00000    4.00000
    2.52000   72.30000   11.00000    2.40000
    2.52000   79.80000   13.70000    2.90000
    2.52000   87.30000    4.60000    0.90000
    2.61000    5.90000  195.00000   27.00000
    2.61000   13.10000   72.00000   11.00000
    2.61000   19.60000   43.00000    4.00000
    2.61000   28.00000   68.00000    7.00000
    2.61000   35.10000   88.00000    9.00000
    2.61000   50.50000   78.00000    7.00000
    2.61000   66.70000  111.00000    9.00000
    2.61000   72.50000   74.00000    8.00000
    2.61000   80.80000   69.00000    7.00000
    2.61000   87.80000   42.70000    2.60000
    2.61000   91.50000   20.00000    4.00000
    2.61000   99.80000   25.00000    4.00000
    2.71000    7.20000  105.00000   21.00000
    2.71000   12.70000   59.00000   11.00000
    2.71000   20.70000   39.00000    6.00000
    2.71000   27.30000   15.00000    4.00000
    2.71000   34.80000   22.00000    4.00000
    2.71000   42.70000   31.00000    5.00000
    2.71000   50.50000   26.00000    5.00000
    2.71000   59.20000   36.00000    5.00000
    2.71000   65.10000   45.00000    7.00000
    2.71000   73.10000   31.00000    4.00000
    2.71000   80.40000   49.00000    6.00000
    2.71000   88.30000   28.00000    5.00000
    2.71000   92.70000   17.40000    2.90000
    2.71000  101.00000   26.00000    4.00000
    2.74000    4.90000  230.00000   30.00000
    2.74000   11.40000   35.00000   16.00000
    2.74000   19.40000   97.00000    9.00000
    2.74000   27.80000  207.00000   14.00000
    2.74000   34.50000  139.00000   10.00000
    2.74000   41.20000   37.00000    7.00000
    2.74000   48.90000   75.00000    6.00000
    2.74000   57.00000  110.00000   11.00000
    2.74000   64.70000  144.00000   10.00000
    2.74000   72.10000   71.00000    8.00000
    2.74000   79.50000   50.00000    7.00000
    2.74000   87.30000   30.00000    6.00000
    2.74000   92.20000   12.00000    3.00000
    2.74000   99.10000   38.00000    5.00000
    2.83000    6.00000  129.00000   22.00000
    2.83000   13.00000  191.00000   18.00000
    2.83000   21.10000  136.00000    6.00000
    2.83000   28.40000  165.00000    9.00000
    2.83000   35.30000  152.00000    6.00000
    2.83000   43.40000  102.00000    5.00000
    2.83000   50.80000  157.00000   10.00000
    2.83000   59.30000  118.00000   10.00000
    2.83000   66.60000  137.00000   10.00000
    2.83000   72.70000   94.00000    9.00000
    2.83000   80.80000  111.00000    9.00000
    2.83000   88.00000   57.00000    6.00000
    2.83000   92.90000   43.00000    5.00000
    2.83000  100.70000   58.00000    7.00000
    2.86000    5.20000  164.00000   24.00000
    2.86000   13.30000   76.00000    9.00000
    2.86000   21.00000  109.00000   10.00000
    2.86000   28.20000   15.00000    4.00000
    2.86000   36.30000   60.00000    8.00000
    2.86000   42.30000   47.00000    7.00000
    2.86000   50.40000  118.00000   11.00000
    2.86000   57.30000   35.00000    6.00000
    2.86000   65.70000   28.00000    5.00000
    2.86000   73.00000   27.00000    4.00000
    2.86000   80.20000   39.00000    5.00000
    2.86000   87.90000   25.00000    4.00000
    2.86000   92.70000    9.90000    0.90000
    2.86000  100.40000   13.00000    5.00000
    2.90000    4.50000  211.00000   30.00000
    2.90000   12.20000  112.00000   15.00000
    2.90000   19.10000  116.00000   12.00000
    2.90000   28.10000  128.00000   11.00000
    2.90000   35.80000  173.00000   12.00000
    2.90000   43.10000  135.00000    9.00000
    2.90000   50.80000  170.00000   12.00000
    2.90000   57.70000  121.00000   10.00000
    2.90000   65.00000  108.00000    9.00000
    2.90000   72.80000  104.00000    9.00000
    2.90000   79.70000   89.00000    8.00000
    2.90000   88.20000   83.00000    8.00000
    2.90000   91.50000   43.00000    8.00000
    2.90000   99.60000   65.00000    8.00000
    2.96000    5.30000  257.00000   29.00000
    2.96000   13.30000  192.00000   18.00000
    2.96000   20.60000   61.00000    6.00000
    2.96000   27.90000   59.00000    8.00000
    2.96000   36.10000   73.00000    9.00000
    2.96000   41.80000   68.00000    6.00000
    2.96000   50.80000   75.00000    8.00000
    2.96000   57.90000   35.00000    5.00000
    2.96000   72.70000   55.00000    8.00000
    2.96000   80.60000   11.80000    1.10000
    2.96000   88.50000   41.00000    5.00000
    2.96000   92.90000   17.30000    3.00000
    2.96000  100.20000   20.00000    5.00000
    3.02000    4.10000  180.00000   26.00000
    3.02000   12.60000  177.00000   16.00000
    3.02000   20.30000  189.00000   20.00000
    3.02000   27.60000  105.00000    9.00000
    3.02000   34.90000  118.00000   10.00000
    3.02000   42.60000  152.00000   11.00000
    3.02000   49.90000  134.00000   10.00000
    3.02000   58.10000  131.00000   10.00000
    3.02000   65.40000  182.00000   10.00000
    3.02000   71.90000  103.00000   10.00000
    3.02000   80.00000   95.00000    9.00000
    3.02000   87.70000   91.00000    9.00000
    3.02000   92.60000   92.00000    8.00000
    3.02000  100.70000   76.00000    8.00000
    3.13000    4.80000  170.00000   23.00000
    3.13000   12.70000   90.00000   13.00000
    3.13000   18.30000   75.00000    9.00000
    3.13000   28.20000  167.00000   13.00000
    3.13000   35.60000   76.00000    8.00000
    3.13000   42.90000   78.00000    9.00000
    3.13000   50.20000  108.00000   10.00000
    3.13000   65.90000   72.00000    7.00000
    3.13000   73.10000   55.00000    7.00000
    3.13000   79.90000   40.00000    6.00000
    3.13000   88.40000   27.00000    4.00000
    3.13000   92.80000   19.00000    4.00000
    3.13000  100.00000   19.00000    4.00000
    3.13000  104.50000   15.00000    4.00000
    3.28000    4.00000   55.00000   14.00000
    3.28000   12.70000  118.00000   14.00000
    3.28000   20.00000   74.00000   10.00000
    3.28000   26.90000   42.00000    5.00000
    3.28000   35.30000   81.00000    9.00000
    3.28000   44.00000   58.00000    7.00000
    3.28000   58.80000   54.00000    7.00000
    3.28000   64.90000   24.00000    4.00000
    3.28000   72.70000   49.00000    7.00000
    3.28000   81.00000   53.00000    7.00000
    3.28000   89.00000   37.00000    6.00000
    3.28000   93.30000   22.00000    5.00000
    3.28000  101.10000   20.00000    4.00000
    3.60000    5.40000  155.00000   22.00000
    3.60000   13.80000  144.00000   14.00000
    3.60000   20.30000   70.00000   10.00000
    3.60000   28.60000   58.00000    7.00000
    3.60000   35.90000   91.00000    8.00000
    3.60000   43.40000  106.00000    9.00000
    3.60000   58.40000   37.00000    6.00000
    3.60000   64.70000   61.00000    8.00000
    3.60000   72.80000   55.00000    6.00000
    3.60000   80.10000   60.00000    6.00000
    3.60000   88.30000   71.00000    6.00000
    3.60000   92.30000   29.00000    7.00000
    3.76000    3.30000  161.00000   24.00000
    3.76000   11.90000   92.00000   12.00000
    3.76000   19.60000   46.00000   20.00000
    3.76000   27.40000    7.00000    4.00000
    3.76000   35.20000   91.00000    9.00000
    3.76000   42.20000   48.00000    6.00000
    3.76000   48.30000   28.00000    6.00000
    3.76000   55.30000   34.00000    5.00000
    3.76000   62.20000   29.00000    5.00000
    3.76000   69.60000   40.00000    5.00000
    3.76000   77.80000   35.00000    7.00000
ENDDATA            307
ENDSUBENT          321
SUBENT        O1753003   20090622   20100128   20100120       O040
BIB                  5         12
REACTION   (60-ND-142(T,P)60-ND-144,PAR,DA,,REL)
EN-SEC     (E-LVL,60-ND-144)
STATUS     (TABLE).Table 3
           (DEP,O1753002)
ERR-ANALYS (E-LVL-ERR).Level Energy Error .Experimental
             error+-15 keV for the strong states, rising to
            +-20 keV for the weaker states.
COMMENT    *By authors*.Max cross section at 2.072+2.088+2.105 MeV
           states was reported by authors as 86 arb-units ,
           at 2.447 MeV as 10 arb-units , at 2.830 MeV possible
           doublet and max cross section is 28 arb-units,
           at 3.020 MeV is 28 arb-units
ENDBIB              12
COMMON               2          3
EN         E-LVL-ERR
MEV        KEV
12.85      15.
ENDCOMMON            3
DATA                 3         19
E-LVL      ANG-CM     DATA-MX-CM
MEV        ADEG       ARB-UNITS
0.         27.8       100.
0.701      5.1        118.
1.315      27.8       75.
1.511      5.1        37.
1.560      20.2       13.
1.787      50.5       21.
2.188      5.1        23.
2.295      5.1        19.
2.521      5.1        31.
2.611      5.1        29.
2.706      5.1        16.
2.743      5.1        34.
2.865      5.1        24.
2.898      5.1        31.
2.963      5.1        37.
3.126      27.8       25.
3.285      12.6       17.
3.602      5.1        23.
3.762      5.1        24.
ENDDATA             21
ENDSUBENT           42
SUBENT        O1753004   20090622   20100128   20100120       O040
BIB                  5         13
REACTION   (60-ND-144(T,P)60-ND-146,PAR,DA,,REL)
EN-SEC     (E-LVL,60-ND-146)
STATUS     (TABLE).Table 4
ERR-ANALYS (E-LVL-ERR).Level Energy Error .Experimental
             error+-15 keV for the strong states, rising to
            +-20 keV for the weaker states.
COMMENT    *By authors*. ANG-CM=24 degree it is approximately
           value at E-LVL=1.046 and ANG-CM=20.2 is one at
           E-LVL=2.513 MeV.
           Max cross section at 1.511 MeV states was reported by
           authors as 6 arb-units , at 1.742 MeV as 18 arb-units,
           at 2.325 MeV as 4 arb-units and at 3.028 MeV as
            11 arb-units.
ENDBIB              13
COMMON               2          3
EN         E-LVL-ERR
MEV        KEV
12.83      15.
ENDCOMMON            3
DATA                 3         17
E-LVL      ANG-CM     DATA-MX-CM
MEV        ADEG       ARB-UNITS
0.         27.8       100.
0.454      5.1        45.
1.046      24.        6.
1.187      5.1        22.
1.693      20.2       9.
1.975      5.1        17.
2.078      58.0       8.
2.217      12.6       23.
2.274      27.8       4.
2.350      12.6       9.
2.462      20.2       12.
2.513      20.2       9.
2.558      20.2       13.
2.600      20.2       7.
2.653      5.1        10.
2.693      5.1        8.
2.739      5.1        10.
ENDDATA             19
ENDSUBENT           41
SUBENT        O1753005   20090622   20100128   20100120       O040
BIB                  5         11
REACTION   (60-ND-146(T,P)60-ND-148,PAR,DA,,REL)
EN-SEC     (E-LVL,60-ND-148)
STATUS     (TABLE).Table 5
ERR-ANALYS (E-LVL-ERR).Level Energy Error .Experimental
            error+-15 keV for the strong states, rising to
            +-20 keV for the weaker states.
COMMENT    *By authors*. ANG-CM=12 degree it is approximately
           value at E-LVL=0.993, E-LVL=1.720 MeV, E-LVL=1.813 MeV
           and ANG-CM=30 degree it is one at E-LVL=2.033 MeV
            Max cross section at 2.188 MeV states was reported by
           authors as 5 arb-units .
ENDBIB              11
COMMON               2          3
E-LVL-ERR  EN
KEV        MEV
        15.      12.72
ENDCOMMON            3
DATA                 3         12
E-LVL      ANG-CM     DATA-MX-CM
MEV        ADEG       ARB-UNITS
0.         27.8       100.
0.299      5.1        46.
0.911      35.3       15.
0.993      12.        10.
1.165      5.1        30.
1.677      35.3       15.
1.720      12.        15.
1.813      12.        11.
1.869      20.2       10.
2.033      30.        8.
2.086      30.        10.
2.251      12.6       23.
ENDDATA             14
ENDSUBENT           34
SUBENT        O1753006   20090622   20100128   20100120       O040
BIB                  4          5
REACTION   (60-ND-148(T,P)60-ND-150,PAR,DA,,REL)
EN-SEC     (E-LVL,60-ND-150)
STATUS     (TABLE).Table 6
ERR-ANALYS (E-LVL-ERR).Level Energy Error .Experimental
             error+-15 keV.
ENDBIB               5
COMMON               2          3
E-LVL-ERR  EN
KEV        MEV
        15.      12.82
ENDCOMMON            3
DATA                 3          4
E-LVL      ANG-CM     DATA-MX-CM
MEV        ADEG       ARB-UNITS
0.         27.8       100.
0.135      5.1        55.
0.675      27.8       128.
0.851      5.1        53.
ENDDATA              6
ENDSUBENT           20
SUBENT        O1753007   20090622   20100128   20100120       O040
BIB                  5         10
REACTION   (60-ND-150(T,P)60-ND-152,PAR,DA,,REL)
EN-SEC     (E-LVL,60-ND-152)
STATUS     (TABLE).Table 7
ERR-ANALYS (E-LVL-ERR).Level Energy Error .Experimental
            error+-15 keV for the strong states, rising to
            +-20 keV for the weaker states.
COMMENT    *By authors*. ANG-CM=25 degree it is approximately
           value at E-LVL=2.180 MeV.
            Max cross section at 0.239 MeV states was reported by
           authors as 4 arb-units,  at 1.776 MeV as 9 arb-units.
ENDBIB              10
COMMON               2          3
E-LVL-ERR  EN
KEV        MEV
        15.      12.83
ENDCOMMON            3
DATA                 3          9
E-LVL      ANG-CM     DATA-MX-CM
MEV        ADEG       ARB-UNITS
0.         27.8       100.
0.071      5.1        40.
0.868      12.6       12.
1.139      27.8       72.
1.251      5.1        58.
2.180      25.        15.
2.497      27.8       13.
2.854      12.6       12.
3.351      20.2       25.
ENDDATA             11
ENDSUBENT           30
ENDENTRY             7
