ENTRY            O1770   20090728   20100128   20100120       O040
SUBENT        O1770001   20090728   20100128   20100120       O040
BIB                 15         32
TITLE      Study of the Si-28(He3,p)P-30 reaction.
AUTHOR     (K.O.Groeneveld, B.Hubert, R.Bass, H.Nann)
REFERENCE  (J,NP/A,151,198,1970)
INSTITUTE  (2GERFRK)
FACILITY   (VDGT,2GERFRK) Single and double charged He-3 beams
           were accelerated in the Frankfurt 5.5 MV van de Graaff
           accelerator.
METHOD     (BCINT)
SAMPLE     Self-supporting silicon targets were prepared by vacuum
           deposition of natural silicon from carbon boats.
           Target thickness of about 50 keV.
COMMENT    *By authors*.Absorber foils between the target and
           detector were used to separate the protons from other
           reaction products, especially from the elastically
           scattered He-4 particles.
MONITOR    (79-AU-197(HE3,EL)79-AU-197,,DA)
DETECTOR    A TMC 4096-channel pulse-height analyser.
INC-SOURCE *EN-RSL-FW*.The total experimental energy resolution
           was about 150 keV FWHM.
ADD-RES    (P-SPC).Proton spectrum from the Si-28(He3,p)P-30
           reaction at 11 MeV incident energy and
           Ang(lab)=105 degree was observed.
            Si-28(He3,p)P-30 angular distributions of the p(0)
           group at incident energy between 4.3 and 6.3 MeV with
           a target thickness of about 40 keV is reported on fig.4
           Average compound cross section is reported in table 2.
           (COMP).PWBA and DWBA analysis. Fluctuation analysis.
ERR-ANALYS (ANG-ERR-D).Digitizing error of angle
           (ERR-DIG).Digitizing error of data.
           (DATA-ERR).The uncertainty is reported by authors.
STATUS     (CURVE).By CAJAD
HISTORY    (20090728C) S.B
ENDBIB              32
COMMON               3          3
ANG-ERR-D  ERR-DIG    EN-RSL-FW
ADEG       PER-CENT   KEV
0.6        1.4        150.
ENDCOMMON            3
ENDSUBENT           39
SUBENT        O1770002   20090728   20100128   20100120       O040
BIB                  2          2
REACTION   (14-SI-28(HE3,P)15-P-30,PAR,DA) figure 2.
EN-SEC     (E-LVL,15-P-30)
ENDBIB               2
COMMON               1          3
E-LVL
MEV
0.000
ENDCOMMON            3
DATA                 4        201
EN-CM      ANG-CM     DATA-CM    DATA-ERR
MEV        ADEG       MU-B/SR    PER-CENT
    3.86400   11.80000   60.60000    4.00000
    3.86400   18.00000   69.00000    6.00000
    3.86400   26.20000   78.00000    5.00000
    3.86400   41.90000  100.00000    5.00000
    3.86400   56.20000   96.00000   13.00000
    3.86400   71.60000   79.00000    5.00000
    3.86400   81.80000   74.00000    5.00000
    3.86400   87.90000   61.20000    4.00000
    3.86400   97.60000   56.90000    4.00000
    3.86400  102.30000   74.00000    5.00000
    3.86400  110.90000   74.00000    5.00000
    3.86400  126.60000  103.00000    5.00000
    3.86400  142.20000  126.00000    4.00000
    3.86400  154.90000  135.00000   15.00000
    3.86400  171.70000  129.00000    5.00000
    4.49800   10.40000   46.40000    4.00000
    4.49800   25.90000   91.70000    2.90000
    4.49800   35.40000  105.00000    7.00000
    4.49800   42.50000  151.00000   13.00000
    4.49800   49.60000  171.20000
    4.49800   74.00000  151.10000
    4.49800   76.80000  138.80000
    4.49800   83.30000  112.10000
    4.49800   89.80000  101.00000   11.00000
    4.49800   94.30000  101.60000
    4.49800   98.00000  104.70000
    4.49800  103.30000  112.50000
    4.49800  106.30000  126.20000
    4.49800  110.40000  152.40000
    4.49800  113.70000  158.70000
    4.49800  120.00000  193.50000
    4.49800  126.20000  229.00000    5.00000
    4.49800  136.10000  259.00000    5.00000
    4.49800  148.40000  295.00000
    4.49800  152.50000  292.00000
    4.49800  156.60000  291.00000
    4.49800  164.00000  303.00000
    4.49800  170.90000  275.00000    7.00000
    5.41600   15.70000  910.00000   11.00000
    5.41600   22.90000  679.00000
    5.41600   25.50000  473.00000
    5.41600   31.20000  444.00000
    5.41600   33.90000  337.00000    7.00000
    5.41600   37.60000  333.00000
    5.41600   43.60000  242.00000
    5.41600   46.80000  218.00000
    5.41600   53.80000  242.00000    5.00000
    5.41600   57.10000  247.00000
    5.41600   57.40000  215.00000    4.00000
    5.41600   64.60000  298.00000
    5.41600   77.00000  423.00000
    5.41600   80.30000  420.00000   12.00000
    5.41600   85.20000  440.00000
    5.41600   87.60000  413.00000
    5.41600   96.80000  264.00000
    5.41600  100.10000  259.00000    5.00000
    5.41600  104.60000  276.00000    5.00000
    5.41600  107.90000  264.00000    5.00000
    5.41600  119.90000  344.00000
    5.41600  126.80000  340.00000
    5.41600  138.60000  315.00000
    5.41600  145.20000  321.00000
    5.41600  151.70000  311.00000
    5.41600  157.40000  311.00000
    5.41600  164.50000  400.00000   10.00000
    6.31900   12.70000 1510.00000    9.00000
    6.31900   21.40000  900.00000
    6.31900   25.10000  699.00000
    6.31900   30.80000  397.00000    6.00000
    6.31900   34.90000  376.00000
    6.31900   41.10000  356.00000
    6.31900   45.60000  379.00000
    6.31900   51.80000  438.00000    4.00000
    6.31900   55.10000  513.00000    4.00000
    6.31900   63.30000  586.00000
    6.31900   75.60000  660.00000    5.00000
    6.31900   79.30000  603.00000
    6.31900   83.00000  600.00000   13.00000
    6.31900   87.10000  615.00000
    6.31900   96.20000  498.00000    5.00000
    6.31900   98.60000  513.00000
    6.31900  102.30000  487.00000
    6.31900  106.40000  424.00000
    6.31900  119.20000  455.00000    5.00000
    6.31900  124.50000  585.00000
    6.31900  136.40000  680.00000    4.00000
    6.31900  145.10000  764.00000
    6.31900  156.60000  910.00000   12.00000
    6.31900  163.60000  979.00000
    7.22100    7.80000 1340.00000
    7.22100   12.70000 1170.00000   11.00000
    7.22100   17.70000  992.00000
    7.22100   20.10000 1047.00000
    7.22100   25.10000  920.00000
    7.22100   29.60000  845.00000
    7.22100   34.90000  809.00000
    7.22100   38.20000  735.00000
    7.22100   41.90000  696.00000
    7.22100   45.60000  619.00000
    7.22100   49.30000  530.00000    9.00000
    7.22100   52.20000  473.00000
    7.22100   55.10000  505.00000    1.80000
    7.22100   62.90000  390.00000    7.00000
    7.22100   69.90000  339.00000    1.80000
    7.22100   76.00000  254.00000
    7.22100   77.30000  300.00000   13.00000
    7.22100   83.40000  257.00000    5.00000
    7.22100   85.50000  283.00000    1.80000
    7.22100   90.80000  295.00000
    7.22100   95.30000  304.00000
    7.22100   99.00000  318.00000
    7.22100  102.70000  332.00000
    7.22100  106.40000  331.00000
    7.22100  110.10000  311.00000
    7.22100  117.90000  397.00000    5.00000
    7.22100  124.90000  419.00000    7.00000
    7.22100  128.20000  330.00000   12.00000
    7.22100  136.40000  428.00000    4.00000
    7.22100  143.40000  430.00000   12.00000
    7.22100  148.30000  327.00000    7.00000
    7.22100  167.70000  235.00000
    8.12400   13.60000  920.00000    5.00000
    8.12400   21.10000  500.00000    5.00000
    8.12400   24.80000  490.00000   12.00000
    8.12400   29.20000  464.00000    4.00000
    8.12400   32.80000  366.00000    6.00000
    8.12400   36.10000  421.00000
    8.12400   42.10000  358.00000
    8.12400   45.00000  343.00000
    8.12400   48.60000  332.00000
    8.12400   53.50000  314.00000    5.00000
    8.12400   59.70000  370.00000
    8.12400   66.20000  366.00000    5.00000
    8.12400   73.90000  339.00000    6.00000
    8.12400   78.80000  386.00000
    8.12400   82.00000  390.00000   13.00000
    8.12400   86.50000  394.00000
    8.12400   89.80000  434.00000    5.00000
    8.12400   93.50000  416.00000    5.00000
    8.12400   98.00000  505.00000    5.00000
    8.12400  101.60000  449.00000
    8.12400  104.90000  416.00000
    8.12400  108.50000  399.00000
    8.12400  113.30000  304.00000
    8.12400  119.80000  304.00000
    8.12400  128.80000  378.00000
    8.12400  132.50000  399.00000
    8.12400  147.30000  569.00000
    8.12400  152.20000  627.00000
    8.12400  170.20000  740.00000    4.00000
    9.02700   14.00000  772.00000
    9.02700   18.30000  520.00000   12.00000
    9.02700   22.70000  375.00000
    9.02700   25.10000  349.00000
    9.02700   30.40000  327.00000
    9.02700   34.80000  313.00000    5.00000
    9.02700   39.30000  300.00000    5.00000
    9.02700   46.10000  246.00000
    9.02700   49.00000  235.00000
    9.02700   55.80000  192.80000
    9.02700   60.30000  218.00000
    9.02700   66.90000  279.00000   10.00000
    9.02700   75.40000  241.00000
    9.02700   80.20000  195.00000    6.00000
    9.02700   82.20000  159.00000    5.00000
    9.02700   86.70000  165.00000    4.00000
    9.02700   89.70000   99.00000    7.00000
    9.02700   94.40000   55.20000    4.00000
    9.02700   99.40000   70.00000    4.00000
    9.02700  102.10000   56.00000    5.00000
    9.02700  106.00000   88.80000
    9.02700  109.20000   78.30000
    9.02700  113.80000  110.00000    5.00000
    9.02700  121.90000   97.00000    5.00000
    9.02700  128.40000  109.00000    6.00000
    9.02700  132.80000   97.00000    4.00000
    9.02700  152.30000   87.50000
    9.02700  171.20000  122.60000
    9.93000   15.50000 1363.00000
    9.93000   19.90000 1080.00000   10.00000
    9.93000   21.50000  980.00000
    9.93000   25.50000  820.00000    5.00000
    9.93000   31.40000  487.00000    5.00000
    9.93000   35.70000  354.00000    6.00000
    9.93000   40.00000  225.00000    5.00000
    9.93000   44.30000  146.00000    3.00000
    9.93000   48.80000  131.00000    5.00000
    9.93000   57.40000  162.00000    6.00000
    9.93000   61.60000  249.00000    4.00000
    9.93000   75.40000  202.00000   12.00000
    9.93000   80.50000  124.90000
    9.93000   89.10000   49.00000
    9.93000   96.40000   51.60000
    9.93000  110.20000  119.50000
    9.93000  115.00000  108.90000
    9.93000  129.10000   67.80000
    9.93000  134.30000   59.30000
    9.93000  148.00000  123.90000
    9.93000  153.30000  138.70000
    9.93000  167.90000  116.30000
    9.93000  171.80000   74.00000
ENDDATA            203
ENDSUBENT          214
SUBENT        O1770003   20090728   20100128   20100120       O040
BIB                  2          2
REACTION   (14-SI-28(HE3,P)15-P-30,PAR,DA) figure 2.
EN-SEC     (E-LVL,15-P-30)
ENDBIB               2
COMMON               2          3
E-LVL      E-LVL
MEV        MEV
0.678      0.709
ENDCOMMON            3
DATA                 4        200
EN-CM      ANG-CM     DATA-CM    DATA-ERR
MEV        ADEG       MU-B/SR    PER-CENT
    3.86400    9.10000   52.00000    6.00000
    3.86400   25.10000   41.80000    4.00000
    3.86400   40.70000   52.00000   12.00000
    3.86400   56.30000   79.90000
    3.86400   71.90000   85.40000
    3.86400   80.50000   80.00000   10.00000
    3.86400   86.20000   72.10000
    3.86400   96.50000   59.10000
    3.86400  102.20000   47.50000    5.00000
    3.86400  112.40000   55.30000    5.00000
    3.86400  125.20000   78.90000
    3.86400  140.30000  119.70000
    3.86400  153.90000  143.40000
    3.86400  169.00000  153.40000
    4.49800    8.30000  320.00000   13.00000
    4.49800   14.80000  282.00000
    4.49800   23.80000  282.00000
    4.49800   33.70000  254.00000
    4.49800   40.30000  270.00000
    4.49800   47.60000  282.00000    5.00000
    4.49800   55.80000  310.00000
    4.49800   70.60000  320.00000    4.00000
    4.49800   74.70000  320.00000    5.00000
    4.49800   80.90000  314.00000    4.00000
    4.49800   84.60000  283.00000
    4.49800   89.50000  274.00000
    4.49800   93.60000  252.00000
    4.49800   96.00000  239.00000
    4.49800  100.10000  222.00000    9.00000
    4.49800  105.50000  212.80000
    4.49800  107.90000  158.50000
    4.49800  112.00000  161.90000
    4.49800  118.60000  129.90000
    4.49800  126.00000  108.60000
    4.49800  133.00000  128.60000
    4.49800  140.30000  157.10000
    4.49800  147.70000  210.90000
    4.49800  153.10000  277.00000    4.00000
    4.49800  161.30000  339.00000
    4.49800  168.70000  376.00000
    5.41600   12.40000 1670.00000   10.00000
    5.41600   18.90000 1465.00000
    5.41600   23.80000 1358.00000
    5.41600   30.00000 1157.00000
    5.41600   34.10000 1156.00000
    5.41600   40.30000 1049.00000
    5.41600   45.20000  994.00000
    5.41600   49.70000  990.00000    6.00000
    5.41600   53.00000  940.00000    5.00000
    5.41600   62.00000  980.00000    4.00000
    5.41600   74.30000  977.00000
    5.41600   77.60000  998.00000
    5.41600   80.90000  980.00000    5.00000
    5.41600   84.10000  896.00000
    5.41600   94.40000  686.00000
    5.41600   98.10000  623.00000
    5.41600  101.40000  685.00000
    5.41600  104.70000  596.00000
    5.41600  117.80000  700.00000   11.00000
    5.41600  123.50000  791.00000
    5.41600  135.80000  945.00000
    5.41600  142.80000 1010.00000    4.00000
    5.41600  154.70000 1010.00000    5.00000
    5.41600  162.50000 1067.00000
    6.31900   12.60000 1580.00000   12.00000
    6.31900   20.00000 1065.00000
    6.31900   24.10000  835.00000
    6.31900   30.70000  654.00000    4.00000
    6.31900   34.40000  695.00000
    6.31900   40.60000  708.00000
    6.31900   44.40000  745.00000
    6.31900   50.50000  800.00000
    6.31900   54.30000  833.00000
    6.31900   61.30000  805.00000
    6.31900   75.70000  720.00000
    6.31900   77.80000  661.00000
    6.31900   81.10000  570.00000
    6.31900   84.40000  502.00000
    6.31900   94.70000  328.00000
    6.31900   97.90000  295.00000
    6.31900  100.40000  241.00000
    6.31900  104.50000  224.00000
    6.31900  123.60000  430.00000   12.00000
    6.31900  135.10000  695.00000
    6.31900  142.20000  778.00000
    6.31900  154.10000  955.00000
    6.31900  162.40000 1080.00000    6.00000
    7.22100    7.40000 2040.00000    3.00000
    7.22100   12.30000 1510.00000   11.00000
    7.22100   17.70000 1238.00000
    7.22100   19.30000 1019.00000
    7.22100   19.30000 1019.00000
    7.22100   24.30000  934.00000
    7.22100   28.80000  820.00000
    7.22100   30.40000  760.00000
    7.22100   32.90000  727.00000
    7.22100   39.50000  740.00000    7.00000
    7.22100   43.60000  710.00000
    7.22100   48.20000  690.00000    4.00000
    7.22100   51.10000  630.00000    5.00000
    7.22100   54.00000  686.00000
    7.22100   61.00000  657.00000    5.00000
    7.22100   69.20000  511.00000
    7.22100   74.20000  464.00000
    7.22100   77.90000  468.00000    6.00000
    7.22100   80.30000  373.00000
    7.22100   83.60000  335.00000
    7.22100   89.40000  269.00000
    7.22100   93.50000  199.00000    6.00000
    7.22100   98.50000  188.00000
    7.22100  100.50000  178.40000
    7.22100  105.50000  167.00000   10.00000
    7.22100  108.80000  209.00000
    7.22100  118.30000  223.00000
    7.22100  124.10000  279.00000
    7.22100  128.60000  311.00000
    7.22100  135.20000  377.00000
    7.22100  143.10000  406.00000
    7.22100  147.20000  447.00000    4.00000
    7.22100  167.00000  679.00000
    8.12400    8.90000 2800.00000   10.00000
    8.12400   19.10000 1362.00000
    8.12400   20.70000 1230.00000    6.00000
    8.12400   24.80000 1057.00000
    8.12400   29.20000  663.00000
    8.12400   31.20000  615.00000
    8.12400   39.80000  520.00000
    8.12400   44.70000  500.00000   10.00000
    8.12400   50.40000  521.00000
    8.12400   52.50000  469.00000
    8.12400   55.80000  505.00000
    8.12400   62.30000  480.00000    5.00000
    8.12400   70.50000  428.00000
    8.12400   74.50000  335.00000
    8.12400   79.00000  308.00000
    8.12400   82.70000  257.00000
    8.12400   86.30000  237.00000
    8.12400   90.50000  258.00000
    8.12400   95.40000  245.00000
    8.12400   98.20000  240.00000    7.00000
    8.12400  102.30000  290.00000
    8.12400  104.80000  330.00000
    8.12400  109.80000  431.00000
    8.12400  118.00000  436.00000
    8.12400  124.90000  414.00000    5.00000
    8.12400  129.00000  308.00000
    8.12400  142.90000  266.00000    9.00000
    8.12400  149.00000  198.00000    6.00000
    8.12400  167.50000  297.00000
    9.02700    8.90000 2800.00000   11.00000
    9.02700   21.00000 1114.00000
    9.02700   25.50000  810.00000    6.00000
    9.02700   29.50000  560.00000
    9.02700   32.80000  474.00000
    9.02700   35.60000  397.00000
    9.02700   39.30000  350.00000
    9.02700   42.50000  318.00000    5.00000
    9.02700   45.80000  287.00000    6.00000
    9.02700   51.60000  368.00000
    9.02700   56.10000  466.00000
    9.02700   63.10000  642.00000
    9.02700   70.90000  602.00000    5.00000
    9.02700   75.80000  600.00000   10.00000
    9.02700   79.10000  499.00000
    9.02700   83.60000  463.00000
    9.02700   85.60000  384.00000
    9.02700   89.60000  278.00000    5.00000
    9.02700   95.70000  248.00000
    9.02700   98.20000  221.00000    5.00000
    9.02700  102.30000  260.00000    6.00000
    9.02700  106.40000  239.00000
    9.02700  109.30000  292.00000
    9.02700  117.90000  333.00000
    9.02700  125.30000  388.00000
    9.02700  129.40000  417.00000
    9.02700  148.30000  590.00000    5.00000
    9.02700  168.30000  381.00000    4.00000
    9.93000   10.10000 2330.00000
    9.93000   14.10000 1380.00000   11.00000
    9.93000   18.50000  770.00000    1.40000
    9.93000   24.50000  408.00000    6.00000
    9.93000   30.20000  354.00000    5.00000
    9.93000   34.70000  297.00000
    9.93000   40.00000  279.00000
    9.93000   42.10000  266.00000
    9.93000   45.80000  266.00000
    9.93000   50.70000  274.00000
    9.93000   55.20000  350.00000    5.00000
    9.93000   71.60000  340.00000
    9.93000   74.80000  300.00000   10.00000
    9.93000   85.00000  193.30000
    9.93000   90.70000  201.40000
    9.93000  105.50000  208.00000    5.00000
    9.93000  111.60000  208.00000    5.00000
    9.93000  125.10000  195.00000    5.00000
    9.93000  130.10000  212.00000    4.00000
    9.93000  143.70000  412.00000
    9.93000  149.40000  448.00000    6.00000
    9.93000  163.00000  538.00000    4.00000
    9.93000  168.30000  510.00000    6.00000
ENDDATA            202
ENDSUBENT          213
SUBENT        O1770004   20090728   20100128   20100120       O040
BIB                  2          2
REACTION   (14-SI-28(HE3,P)15-P-30,PAR,DA) figure 3
EN-SEC     (E-LVL,15-P-30)
ENDBIB               2
COMMON               1          3
E-LVL
MEV
1.450
ENDCOMMON            3
DATA                 4        142
EN-CM      ANG-CM     DATA-CM    DATA-ERR
MEV        ADEG       MU-B/SR    PER-CENT
    5.41600   41.50000  417.00000    5.00000
    5.41600   45.60000  404.00000    5.00000
    5.41600   52.30000  430.00000   12.00000
    5.41600   56.40000  432.00000    2.80000
    5.41600   63.00000  476.00000    4.00000
    5.41600   75.80000  542.00000    2.80000
    5.41600   79.10000  548.00000    5.00000
    5.41600   83.70000  561.00000    4.00000
    5.41600   86.60000  540.00000    6.00000
    5.41600   95.30000  490.00000    6.00000
    5.41600   99.50000  483.00000    4.00000
    5.41600  103.60000  483.00000    4.00000
    5.41600  106.10000  460.00000    7.00000
    5.41600  119.30000  435.00000    5.00000
    5.41600  126.80000  413.00000    5.00000
    5.41600  138.00000  363.00000
    5.41600  145.10000  330.00000    9.00000
    5.41600  157.50000  275.00000
    5.41600  164.60000  242.00000    4.00000
    6.31900   45.40000  380.00000   11.00000
    6.31900   52.80000  415.00000
    6.31900   55.80000  363.00000
    6.31900   63.20000  348.00000    5.00000
    6.31900   75.20000  323.00000
    6.31900   78.50000  334.00000
    6.31900   82.30000  334.00000
    6.31900   86.40000  357.00000
    6.31900   94.70000  427.00000
    6.31900   98.80000  432.00000
    6.31900  102.50000  505.00000
    6.31900  105.40000  546.00000
    6.31900  118.70000  611.00000    4.00000
    6.31900  125.30000  592.00000    4.00000
    6.31900  137.70000  561.00000    5.00000
    6.31900  144.80000  530.00000    6.00000
    6.31900  156.40000  342.00000
    6.31900  163.50000  293.00000
    7.22100   19.50000  270.00000   40.00000
    7.22100   30.30000  226.00000   10.00000
    7.22100   34.80000  257.00000    5.00000
    7.22100   39.80000  224.00000    4.00000
    7.22100   41.90000  238.00000
    7.22100   44.40000  252.00000    5.00000
    7.22100   51.00000  233.00000    5.00000
    7.22100   52.30000  216.00000    5.00000
    7.22100   55.60000  243.00000    5.00000
    7.22100   62.60000  235.00000    4.00000
    7.22100   70.90000  267.00000
    7.22100   78.30000  267.00000    5.00000
    7.22100   82.10000  258.00000    4.00000
    7.22100   85.40000  261.00000    4.00000
    7.22100   89.90000  284.00000    5.00000
    7.22100   95.70000  266.00000    8.00000
    7.22100   98.20000  281.00000    2.10000
    7.22100  102.40000  263.00000    4.00000
    7.22100  105.20000  302.00000
    7.22100  110.20000  315.00000    6.00000
    7.22100  118.10000  277.00000    2.20000
    7.22100  124.70000  257.00000    4.00000
    7.22100  129.70000  246.00000    2.80000
    7.22100  136.80000  198.00000    5.00000
    7.22100  143.80000  185.00000
    7.22100  147.90000  242.00000
    7.22100  162.40000  360.00000   11.00000
    7.22100  168.20000  431.00000
    8.12400    8.20000  270.00000   40.00000
    8.12400   30.80000  340.00000   30.00000
    8.12400   39.20000  290.00000   10.00000
    8.12400   43.80000  250.00000
    8.12400   50.50000  227.00000
    8.12400   51.00000  205.00000
    8.12400   55.20000  222.00000    4.00000
    8.12400   62.30000  199.00000    4.00000
    8.12400   70.20000  206.00000
    8.12400   75.30000  210.00000    4.00000
    8.12400   77.80000  199.00000    5.00000
    8.12400   82.40000  204.00000
    8.12400   85.80000  208.00000    4.00000
    8.12400   90.40000  193.00000    5.00000
    8.12400   95.40000  173.20000
    8.12400   97.90000  182.90000
    8.12400   99.20000  189.00000
    8.12400  102.50000  191.00000
    8.12400  106.30000  209.00000
    8.12400  110.10000  260.00000    5.00000
    8.12400  119.30000  300.00000    5.00000
    8.12400  125.60000  313.00000    4.00000
    8.12400  131.00000  275.00000    4.00000
    8.12400  136.90000  307.00000    9.00000
    8.12400  143.60000  317.00000
    8.12400  148.60000  370.00000
    8.12400  168.80000  497.00000
    9.02700    8.20000   74.00000   40.00000
    9.02700   17.80000  370.00000   40.00000
    9.02700   18.30000  100.00000   30.00000
    9.02700   28.70000  320.00000   30.00000
    9.02700   30.80000  370.00000   40.00000
    9.02700   33.80000  510.00000   40.00000
    9.02700   40.50000  430.00000    9.00000
    9.02700   44.30000  420.00000
    9.02700   49.30000  346.00000
    9.02700   55.20000  266.00000
    9.02700   61.90000  221.00000
    9.02700   69.80000  176.20000
    9.02700   74.00000  146.40000
    9.02700   77.40000  156.40000
    9.02700   79.50000  161.60000
    9.02700   82.00000  165.30000
    9.02700   85.30000  158.30000
    9.02700   90.80000  163.70000
    9.02700   95.40000  171.00000    6.00000
    9.02700   97.10000  160.30000
    9.02700  101.70000  167.50000
    9.02700  105.00000  169.00000    5.00000
    9.02700  110.10000  213.00000
    9.02700  117.20000  204.00000
    9.02700  125.20000  254.00000    8.00000
    9.02700  130.20000  281.00000
    9.02700  150.30000  335.00000    4.00000
    9.02700  167.50000  626.00000
    9.93000    7.80000  250.00000   28.00000
    9.93000   13.20000  203.00000    5.00000
    9.93000   17.90000  186.00000    9.00000
    9.93000   23.70000  186.00000
    9.93000   27.50000  212.00000    5.00000
    9.93000   33.40000  205.00000    4.00000
    9.93000   39.20000  231.00000
    9.93000   44.30000  216.00000    1.90000
    9.93000   48.50000  186.00000
    9.93000   54.30000  197.00000
    9.93000   70.20000  155.40000
    9.93000   74.40000  101.30000
    9.93000   84.50000   72.70000
    9.93000   88.70000  115.20000
    9.93000  105.00000  188.00000    5.00000
    9.93000  110.10000  201.00000    8.00000
    9.93000  126.00000  180.50000
    9.93000  128.50000  162.20000
    9.93000  144.00000  190.00000
    9.93000  148.60000  201.00000
    9.93000  162.50000  176.70000
    9.93000  167.10000  162.20000
ENDDATA            144
ENDSUBENT          155
SUBENT        O1770005   20090728   20100128   20100120       O040
BIB                  2          2
REACTION   (14-SI-28(HE3,P)15-P-30,PAR,DA) figure 3
EN-SEC     (E-LVL,15-P-30)
ENDBIB               2
COMMON               1          3
E-LVL
MEV
1.970
ENDCOMMON            3
DATA                 4        103
EN-CM      ANG-CM     DATA-CM    DATA-ERR
MEV        ADEG       MU-B/SR    PER-CENT
    5.41600   75.90000  253.00000   10.00000
    5.41600   78.70000  266.00000    5.00000
    5.41600   81.80000  266.00000    5.00000
    5.41600   86.60000  273.00000    5.00000
    5.41600   95.70000  328.00000
    5.41600   98.80000  367.00000    3.00000
    5.41600  102.40000  415.00000    6.00000
    5.41600  105.50000  398.00000
    5.41600  118.60000  498.00000    4.00000
    5.41600  125.70000  467.00000
    5.41600  137.30000  460.00000
    5.41600  144.40000  418.00000    6.00000
    5.41600  156.40000  388.00000    6.00000
    5.41600  163.60000  353.00000    3.00000
    6.31900   74.40000  280.00000   11.00000
    6.31900   77.20000  294.00000
    6.31900   80.70000  320.00000    2.80000
    6.31900   83.90000  283.00000    5.00000
    6.31900   93.80000  299.00000
    6.31900   97.00000  284.00000
    6.31900  100.60000  276.00000
    6.31900  105.00000  268.00000
    6.31900  117.40000  216.00000    4.00000
    6.31900  123.70000  243.00000    3.00000
    6.31900  136.70000  298.00000    4.00000
    6.31900  143.50000  314.00000    4.00000
    6.31900  155.40000  306.00000   10.00000
    6.31900  162.10000  337.00000    4.00000
    7.22100    7.30000  390.00000   30.00000
    7.22100   15.80000  800.00000   40.00000
    7.22100   67.70000  340.00000    9.00000
    7.22100   73.70000  299.00000
    7.22100   76.00000  323.00000
    7.22100   80.40000  299.00000
    7.22100   83.60000  344.00000
    7.22100   87.90000  329.00000
    7.22100   92.70000  359.00000    5.00000
    7.22100   95.40000  403.00000
    7.22100   99.80000  408.00000
    7.22100  102.90000  479.00000    6.00000
    7.22100  108.10000  458.00000    3.00000
    7.22100  116.00000  494.00000    3.00000
    7.22100  123.20000  453.00000    4.00000
    7.22100  127.60000  399.00000
    7.22100  134.80000  336.00000
    7.22100  141.20000  302.00000    5.00000
    7.22100  147.10000  319.00000
    7.22100  153.90000  299.00000    5.00000
    7.22100  160.20000  308.00000    9.00000
    7.22100  166.10000  350.00000    6.00000
    8.12400    4.90000  690.00000   40.00000
    8.12400   13.60000 1400.00000   40.00000
    8.12400   65.90000  349.00000    7.00000
    8.12400   70.20000  384.00000    5.00000
    8.12400   73.00000  372.00000
    8.12400   77.70000  360.00000    5.00000
    8.12400   79.70000  396.00000    4.00000
    8.12400   84.80000  392.00000    4.00000
    8.12400   89.10000  392.00000    3.00000
    8.12400   92.60000  435.00000    3.00000
    8.12400   96.60000  413.00000    4.00000
    8.12400  100.10000  440.00000    3.00000
    8.12400  105.60000  454.00000    4.00000
    8.12400  112.20000  526.00000
    8.12400  119.70000  521.00000
    8.12400  124.50000  422.00000    4.00000
    8.12400  131.60000  440.00000    9.00000
    8.12400  143.10000  397.00000    5.00000
    8.12400  162.10000  629.00000
    9.02700    7.00000  340.00000   40.00000
    9.02700   52.40000  272.00000   11.00000
    9.02700   58.40000  234.00000    4.00000
    9.02700   67.50000  229.00000    6.00000
    9.02700   71.40000  207.90000
    9.02700   74.20000  191.00000
    9.02700   78.10000  196.80000
    9.02700   81.70000  188.00000    6.00000
    9.02700   86.80000  205.00000    5.00000
    9.02700   90.80000  180.00000    3.00000
    9.02700   93.50000  191.70000
    9.02700   97.80000  219.00000
    9.02700  101.80000  228.00000
    9.02700  106.50000  243.00000    5.00000
    9.02700  114.40000  274.00000    5.00000
    9.02700  121.10000  271.00000    8.00000
    9.02700  126.20000  297.00000    5.00000
    9.02700  145.10000  260.00000    4.00000
    9.02700  163.90000   96.60000
    9.93000   10.70000  370.00000   40.00000
    9.93000   41.70000  190.00000   12.00000
    9.93000   51.60000  149.30000
    9.93000   66.90000  226.00000
    9.93000   70.80000  257.00000    6.00000
    9.93000   80.70000  256.00000
    9.93000   85.80000  272.00000
    9.93000  101.90000  273.00000    5.00000
    9.93000  105.90000  265.00000    5.00000
    9.93000  120.60000  192.00000    6.00000
    9.93000  125.80000  163.50000
    9.93000  138.80000  140.00000    4.00000
    9.93000  143.50000  141.60000
    9.93000  158.40000  214.00000    7.00000
    9.93000  163.90000  241.00000    4.00000
ENDDATA            105
ENDSUBENT          116
ENDENTRY             5
