ENTRY            O1785   20091109   20100809   20100806       O041
SUBENT        O1785001   20091109   20100809   20100806       O041
BIB                 13         20
TITLE      Molecular effects in the C-12+C-13 exit channel of the
           reaction O-16+Be-9.
AUTHOR     (I.Weitzenfelder, N.Bischof, W.Tiereth, H.Voit,
           W.von Oertzen, H.H.Wolter)
REFERENCE  (J,NP/A,489,125,1988)
REL-REF    (R,,H.Froehlich+,J,NP/A,420,124,1984)
            Details of experiment
INSTITUTE  (2GERUEN)
           (2GERBER)
           (2GERMUN)
SAMPLE     Self-supporting Be-9 targets, 25-35 mug/cm**2
           thickness, were used.
FACILITY   (VDGT,2GERUEN) The Erlangen EN tandem accelerator.
DETECTOR   (SI)
METHOD     (TOF)
ADD-RES    (COMP).Second-order EFR-DWBA calculations.
ERR-ANALYS (ERR-DIG).Digitizing error of data.
           (ANG-ERR-D).Digitizing error of angle.
STATUS     (CURVE) By CAJAD
HISTORY    (20091109C) SB
ENDBIB              20
NOCOMMON             0          0
ENDSUBENT           23
SUBENT        O1785002   20091109   20100809   20100806       O041
BIB                  3          4
REACTION   (4-BE-9(8-O-16,4-BE-8)8-O-17,PAR,DA,RSD) fig 3,4
EN-SEC     (E-LVL,8-O-17)
LEVEL-PROP (8-O-17,E-LVL=0.000,SPIN=2.5,PARITY=+1.)
           (8-O-17,E-LVL=0.871,SPIN=0.5,PARITY=+1.)
ENDBIB               4
COMMON               2          3
ANG-ERR-D  ERR-DIG
ADEG       PER-CENT
0.7        2.8
ENDCOMMON            3
DATA                 4        151
E-LVL      EN-CM      ANG-CM     DATA-CM
MEV        MEV        ADEG       MB/SR
    0.00000    7.20000   34.50000    1.75000
    0.00000    7.20000   42.40000    2.10000
    0.00000    7.20000   49.40000    2.31000
    0.00000    7.20000   50.40000    2.82000
    0.00000    7.20000   52.30000    2.50000
    0.00000    7.20000   54.30000    2.40000
    0.00000    7.20000   57.30000    1.97000
    0.00000    7.20000   57.80000    2.40000
    0.00000    7.20000   61.30000    2.05000
    0.00000    7.20000   62.80000    1.85000
    0.00000    7.20000   63.30000    1.64000
    0.00000    7.20000   66.20000    1.85000
    0.00000    7.20000   66.70000    1.55000
    0.00000    7.20000   68.70000    1.67000
    0.00000    7.20000   71.20000    1.61000
    0.00000    7.20000   74.70000    1.40000
    0.00000    7.20000   74.70000    1.29000
    0.00000    7.20000   77.70000    1.34000
    0.00000    7.20000   79.10000    1.14000
    0.00000    7.20000   81.10000    1.21000
    0.00000    7.20000   83.60000    1.01400
    0.00000    7.20000   84.10000    0.93600
    0.00000    7.20000   86.10000    0.86400
    0.00000    7.20000   86.60000    0.79800
    0.00000    7.20000   90.10000    0.79700
    0.00000    7.20000   93.50000    0.54500
    0.00000    7.20000   94.00000    0.62700
    0.00000    7.20000   96.50000    0.48300
    0.00000    7.20000   97.00000    0.57800
    0.00000    7.20000  100.50000    0.48300
    0.00000    7.20000  105.00000    0.35800
    0.00000    7.20000  109.40000    0.37200
    0.00000    7.20000  112.90000    0.46300
    0.00000    9.00000   30.00000    4.59000
    0.00000    9.00000   31.00000    3.83000
    0.00000    9.00000   39.90000    4.35000
    0.00000    9.00000   43.90000    4.03000
    0.00000    9.00000   47.40000    2.98000
    0.00000    9.00000   55.80000    2.09000
    0.00000    9.00000   60.30000    1.61000
    0.00000    9.00000   64.30000    1.46000
    0.00000    9.00000   69.70000    0.90400
    0.00000    9.00000   72.20000    0.81800
    0.00000    9.00000   76.20000    0.69900
    0.00000    9.00000   79.10000    0.50700
    0.00000    9.00000   83.10000    0.70200
    0.00000    9.00000   86.60000    0.73300
    0.00000    9.00000   88.10000    0.42600
    0.00000    9.00000   90.10000    0.49100
    0.00000    9.00000   93.00000    0.42700
    0.00000    9.00000   95.00000    0.37100
    0.00000    9.00000   97.00000    0.44600
    0.00000    9.00000  101.00000    0.26500
    0.00000    9.00000  106.00000    0.36000
    0.00000   10.20000   28.00000    5.41000
    0.00000   10.20000   30.50000    4.43000
    0.00000   10.20000   30.50000    4.09000
    0.00000   10.20000   33.50000    4.72000
    0.00000   10.20000   37.90000    4.11000
    0.00000   10.20000   42.40000    3.11000
    0.00000   10.20000   45.90000    2.17000
    0.00000   10.20000   48.90000    1.81000
    0.00000   10.20000   58.30000    1.15000
    0.00000   10.20000   61.80000    1.00000
    0.00000   10.20000   66.20000    0.98300
    0.00000   10.20000   69.70000    0.70000
    0.00000   10.20000   73.20000    0.60900
    0.00000   10.20000   75.20000    0.57400
    0.00000   10.20000   77.70000    0.51000
    0.00000   10.20000   80.60000    0.40900
    0.00000   10.20000   86.60000    0.26900
    0.00000   10.20000   87.10000    0.36400
    0.00000   10.20000   92.50000    0.27600
    0.00000   10.20000   96.00000    0.26600
    0.00000   10.20000   98.00000    0.22600
    0.00000   10.20000  105.50000    0.21000
    0.87100    7.20000   24.60000    7.78000
    0.87100    7.20000   31.50000   11.50000
    0.87100    7.20000   39.10000   11.00000
    0.87100    7.20000   43.30000   11.00000
    0.87100    7.20000   46.10000   10.80000
    0.87100    7.20000   47.60000    8.91000
    0.87100    7.20000   48.50000   10.80000
    0.87100    7.20000   52.80000    9.52000
    0.87100    7.20000   52.90000    7.83000
    0.87100    7.20000   56.60000    7.67000
    0.87100    7.20000   57.60000    7.19000
    0.87100    7.20000   60.00000    5.79000
    0.87100    7.20000   63.30000    6.05000
    0.87100    7.20000   65.70000    4.98000
    0.87100    7.20000   66.20000    5.68000
    0.87100    7.20000   70.00000    4.99000
    0.87100    7.20000   72.30000    4.68000
    0.87100    7.20000   72.40000    4.02000
    0.87100    7.20000   76.20000    3.53000
    0.87100    7.20000   76.70000    3.77000
    0.87100    7.20000   77.70000    2.97000
    0.87100    7.20000   80.10000    2.91000
    0.87100    7.20000   83.90000    2.25000
    0.87100    7.20000   87.70000    2.02000
    0.87100    7.20000   88.60000    2.35000
    0.87100    7.20000   90.10000    1.98000
    0.87100    7.20000   92.00000    1.74000
    0.87100    7.20000   95.30000    1.63000
    0.87100    7.20000  102.00000    1.31000
    0.87100    7.20000  108.10000    1.31000
    0.87100    7.20000  112.90000    1.04000
    0.87100    9.00000   22.30000   21.90000
    0.87100    9.00000   25.70000   18.90000
    0.87100    9.00000   33.20000   18.10000
    0.87100    9.00000   37.00000   15.60000
    0.87100    9.00000   41.40000   12.30000
    0.87100    9.00000   51.00000    7.50000
    0.87100    9.00000   54.90000    5.43000
    0.87100    9.00000   59.60000    4.38000
    0.87100    9.00000   65.50000    2.85000
    0.87100    9.00000   69.20000    2.85000
    0.87100    9.00000   72.70000    1.82000
    0.87100    9.00000   76.50000    1.78000
    0.87100    9.00000   78.90000    1.40000
    0.87100    9.00000   82.70000    1.41000
    0.87100    9.00000   85.10000    1.18000
    0.87100    9.00000   87.00000    0.97500
    0.87100    9.00000   91.20000    1.09000
    0.87100    9.00000   93.70000    0.78700
    0.87100    9.00000   96.00000    1.02000
    0.87100    9.00000  100.80000    0.73900
    0.87100    9.00000  106.60000    0.55900
    0.87100   10.20000   24.00000   24.60000
    0.87100   10.20000   25.90000   23.10000
    0.87100   10.20000   26.80000   25.70000
    0.87100   10.20000   31.10000   19.80000
    0.87100   10.20000   35.00000   17.00000
    0.87100   10.20000   38.40000   12.90000
    0.87100   10.20000   43.20000    9.30000
    0.87100   10.20000   47.50000    7.18000
    0.87100   10.20000   51.90000    5.42000
    0.87100   10.20000   56.70000    4.09000
    0.87100   10.20000   60.50000    3.75000
    0.87100   10.20000   63.80000    3.59000
    0.87100   10.20000   68.70000    1.88000
    0.87100   10.20000   72.60000    1.51000
    0.87100   10.20000   73.90000    1.92000
    0.87100   10.20000   75.00000    1.30000
    0.87100   10.20000   80.70000    1.00000
    0.87100   10.20000   81.20000    1.14000
    0.87100   10.20000   83.10000    0.94000
    0.87100   10.20000   87.00000    0.75700
    0.87100   10.20000   93.70000    0.53600
    0.87100   10.20000   97.90000    0.58500
    0.87100   10.20000  110.50000    0.25100
ENDDATA            153
ENDSUBENT          166
SUBENT        O1785003   20091109   20100809   20100806       O041
BIB                  4          6
REACTION   (4-BE-9(8-O-16,6-C-12)6-C-13,PAR,DA) fig 6,7,8
EN-SEC     (E-LVL,6-C-13)
LEVEL-PROP (6-C-13,E-LVL=0.000,SPIN=0.5,PARITY=+1.)
           (6-C-13,E-LVL=3.089,SPIN=0.5,PARITY=+1.)
           (6-C-13,E-LVL=3.854,SPIN=2.5,PARITY=+1.)
ERR-ANALYS (DATA-ERR).The error is reported by authors on fig.
ENDBIB               6
COMMON               2          3
ANG-ERR-D  ERR-DIG
ADEG       PER-CENT
0.8        3.
ENDCOMMON            3
DATA                 5        434
E-LVL      EN-CM      ANG-CM     DATA-CM    DATA-ERR
MEV        MEV        ADEG       MB/SR      PER-CENT
    0.00000    7.20000   19.50000    0.07800   17.00000
    0.00000    7.20000   24.90000    0.08600    8.00000
    0.00000    7.20000   30.50000    0.05400   15.00000
    0.00000    7.20000   33.10000    0.06000   50.00000
    0.00000    7.20000   34.20000    0.05500   40.00000
    0.00000    7.20000   37.20000    0.03000   27.00000
    0.00000    7.20000   40.40000    0.03000   17.00000
    0.00000    7.20000   40.80000    0.04400   40.00000
    0.00000    7.20000   43.20000    0.02610    8.00000
    0.00000    7.20000   43.60000    0.03400   15.00000
    0.00000    7.20000   46.60000    0.06900   30.00000
    0.00000    7.20000   48.70000    0.07300   16.00000
    0.00000    7.20000   49.40000    0.05200    8.00000
    0.00000    7.20000   51.40000    0.06700   40.00000
    0.00000    7.20000   54.00000    0.08400   15.00000
    0.00000    7.20000   55.60000    0.10300   27.00000
    0.00000    7.20000   55.80000    0.06400   13.00000
    0.00000    7.20000   58.30000    0.09100   14.00000
    0.00000    7.20000   59.00000    0.06600   15.00000
    0.00000    7.20000   60.70000    0.05500   15.00000
    0.00000    7.20000   62.20000    0.07100   15.00000
    0.00000    7.20000   66.80000    0.03110    9.00000
    0.00000    7.20000   75.40000    0.01040   23.00000
    0.00000    7.20000   80.40000    0.02900   14.00000
    0.00000    7.20000   82.50000    0.03300   18.00000
    0.00000    7.20000   86.30000    0.03100   10.00000
    0.00000    7.20000   88.50000    0.02500   20.00000
    0.00000    7.20000   89.10000    0.02140   12.00000
    0.00000    7.20000   92.20000    0.03300   15.00000
    0.00000    7.20000   96.00000    0.03100    8.00000
    0.00000    7.20000  101.60000    0.01700   18.00000
    0.00000    7.20000  102.40000    0.03430    8.00000
    0.00000    7.20000  109.30000    0.05640
    0.00000    7.20000  114.60000    0.07200   13.00000
    0.00000    7.20000  116.30000    0.05100   12.00000
    0.00000    7.20000  117.50000    0.04100   22.00000
    0.00000    7.20000  120.10000    0.04900   40.00000
    0.00000    7.20000  122.00000    0.02200   27.00000
    0.00000    7.20000  122.20000    0.01300   30.00000
    0.00000    7.20000  128.40000    0.03000   27.00000
    0.00000    7.20000  129.10000    0.02000   20.00000
    0.00000    7.20000  130.80000    0.06100   40.00000
    0.00000    7.20000  132.90000    0.07000   60.00000
    0.00000    7.20000  135.10000    0.06500    9.00000
    0.00000    7.20000  135.50000    0.08600    6.00000
    0.00000    7.20000  137.70000    0.09300
    0.00000    7.20000  138.10000    0.11300   21.00000
    0.00000    7.20000  140.30000    0.11100   20.00000
    0.00000    7.20000  141.40000    0.09800
    0.00000    7.20000  145.70000    0.11000   27.00000
    0.00000    7.20000  147.90000    0.09300
    0.00000    7.20000  153.30000    0.09800
    0.00000    7.20000  159.60000    0.15700   10.00000
    0.00000    8.40000   33.40000    0.04000   20.00000
    0.00000    8.40000   39.90000    0.03200   22.00000
    0.00000    8.40000   45.20000    0.04800   15.00000
    0.00000    8.40000   52.00000    0.07500   11.00000
    0.00000    8.40000   58.20000    0.04300   19.00000
    0.00000    8.40000   64.40000    0.02000   20.00000
    0.00000    8.40000   71.10000    0.04200   17.00000
    0.00000    8.40000   77.50000    0.05000   20.00000
    0.00000    8.40000   83.50000    0.04700   15.00000
    0.00000    8.40000   92.00000    0.07000   13.00000
    0.00000    8.40000   99.60000    0.06600   14.00000
    0.00000    8.40000  106.10000    0.06000   12.00000
    0.00000    8.40000  112.80000    0.02800   18.00000
    0.00000    8.40000  119.30000    0.02800   18.00000
    0.00000    8.40000  126.00000    0.05900   14.00000
    0.00000    8.40000  132.90000    0.08900   11.00000
    0.00000    8.40000  138.70000    0.11800   16.00000
    0.00000    8.40000  145.30000    0.09900   11.00000
    0.00000    9.00000   18.20000    0.17000   24.00000
    0.00000    9.00000   19.60000    0.06100   16.00000
    0.00000    9.00000   25.80000    0.02900   21.00000
    0.00000    9.00000   28.60000    0.02700   30.00000
    0.00000    9.00000   31.80000    0.02700   11.00000
    0.00000    9.00000   32.30000    0.03500   17.00000
    0.00000    9.00000   35.50000    0.03100   16.00000
    0.00000    9.00000   37.20000    0.02900   17.00000
    0.00000    9.00000   39.90000    0.03100   16.00000
    0.00000    9.00000   41.50000    0.03200   19.00000
    0.00000    9.00000   43.80000    0.01800   17.00000
    0.00000    9.00000   47.70000    0.01330   19.00000
    0.00000    9.00000   50.00000    0.03900   18.00000
    0.00000    9.00000   53.80000    0.04000   15.00000
    0.00000    9.00000   56.60000    0.03030    9.00000
    0.00000    9.00000   57.20000    0.02300   30.00000
    0.00000    9.00000   59.30000    0.02800   14.00000
    0.00000    9.00000   61.40000    0.03200   30.00000
    0.00000    9.00000   63.30000    0.01600   40.00000
    0.00000    9.00000   69.10000    0.02200   27.00000
    0.00000    9.00000   75.20000    0.06400   20.00000
    0.00000    9.00000   82.10000    0.08500   18.00000
    0.00000    9.00000   84.80000    0.08500   15.00000
    0.00000    9.00000   87.40000    0.11300   16.00000
    0.00000    9.00000   90.70000    0.09900   12.00000
    0.00000    9.00000   93.90000    0.09900   16.00000
    0.00000    9.00000  100.90000    0.11600   11.00000
    0.00000    9.00000  108.10000    0.06700   12.00000
    0.00000    9.00000  112.40000    0.07100   24.00000
    0.00000    9.00000  114.50000    0.07700   21.00000
    0.00000    9.00000  117.60000    0.11900    8.00000
    0.00000    9.00000  120.90000    0.11600   16.00000
    0.00000    9.00000  121.50000    0.09400   10.00000
    0.00000    9.00000  121.60000    0.07500   12.00000
    0.00000    9.00000  124.80000    0.07300   14.00000
    0.00000    9.00000  128.10000    0.05900    8.00000
    0.00000    9.00000  130.80000    0.07300    7.00000
    0.00000    9.00000  134.80000    0.15000   20.00000
    0.00000    9.00000  134.90000    0.11300   11.00000
    0.00000    9.00000  138.00000    0.18400   12.00000
    0.00000    9.00000  139.50000    0.23200    9.00000
    0.00000    9.00000  140.60000    0.20400    7.00000
    0.00000    9.00000  144.30000    0.23800    5.00000
    0.00000    9.00000  146.60000    0.17500
    0.00000    9.00000  147.10000    0.19800
    0.00000    9.00000  150.70000    0.07300   18.00000
    0.00000    9.00000  153.70000    0.03700   14.00000
    0.00000    9.00000  159.70000    0.12200   11.00000
    0.00000    9.00000  162.10000    0.24000   17.00000
    0.00000    9.60000   53.30000    0.05700   26.00000
    0.00000    9.60000   59.00000    0.10400   19.00000
    0.00000    9.60000   65.50000    0.09700   18.00000
    0.00000    9.60000   71.50000    0.07100   17.00000
    0.00000    9.60000   78.00000    0.07100   17.00000
    0.00000    9.60000   84.90000    0.09900   21.00000
    0.00000    9.60000   91.00000    0.06600   26.00000
    0.00000    9.60000   98.50000    0.08100   17.00000
    0.00000    9.60000  105.50000    0.08700   16.00000
    0.00000    9.60000  112.00000    0.07300   21.00000
    0.00000    9.60000  119.00000    0.07500   17.00000
    0.00000    9.60000  125.30000    0.12300   15.00000
    0.00000   10.20000   17.60000    0.24000   10.00000
    0.00000   10.20000   18.80000    0.17600   15.00000
    0.00000   10.20000   20.90000    0.19000   40.00000
    0.00000   10.20000   23.60000    0.20000   15.00000
    0.00000   10.20000   26.50000    0.12000   11.00000
    0.00000   10.20000   29.80000    0.09800   14.00000
    0.00000   10.20000   33.40000    0.03300   24.00000
    0.00000   10.20000   35.30000    0.01600   40.00000
    0.00000   10.20000   38.80000    0.03900   18.00000
    0.00000   10.20000   42.50000    0.17900   16.00000
    0.00000   10.20000   44.80000    0.13200   14.00000
    0.00000   10.20000   47.10000    0.09000   30.00000
    0.00000   10.20000   50.40000    0.08100   26.00000
    0.00000   10.20000   51.00000    0.07300   19.00000
    0.00000   10.20000   53.30000    0.04700   11.00000
    0.00000   10.20000   54.40000    0.04100   12.00000
    0.00000   10.20000   57.60000    0.04500   22.00000
    0.00000   10.20000   59.10000    0.06800   28.00000
    0.00000   10.20000   61.20000    0.07000   19.00000
    0.00000   10.20000   63.70000    0.11400   11.00000
    0.00000   10.20000   67.10000    0.08600   13.00000
    0.00000   10.20000   69.70000    0.09600    8.00000
    0.00000   10.20000   73.80000    0.05000   14.00000
    0.00000   10.20000   77.00000    0.04600   15.00000
    0.00000   10.20000   79.90000    0.02800   30.00000
    0.00000   10.20000   82.00000    0.03200   22.00000
    0.00000   10.20000   83.00000    0.04800   19.00000
    0.00000   10.20000   93.10000    0.07300   10.00000
    0.00000   10.20000   94.60000    0.10000   14.00000
    0.00000   10.20000   96.90000    0.07000   19.00000
    0.00000   10.20000  101.20000    0.07200   10.00000
    0.00000   10.20000  102.90000    0.04900   12.00000
    0.00000   10.20000  106.80000    0.03800   21.00000
    0.00000   10.20000  111.30000    0.02600   40.00000
    0.00000   10.20000  114.30000    0.04000   50.00000
    0.00000   10.20000  118.00000    0.05600   13.00000
    0.00000   10.20000  121.10000    0.07600   17.00000
    0.00000   10.20000  123.80000    0.08700   13.00000
    0.00000   10.20000  125.90000    0.08700   30.00000
    0.00000   10.20000  129.20000    0.08300   30.00000
    0.00000   10.20000  132.90000    0.11000   40.00000
    0.00000   10.20000  135.00000    0.11600   11.00000
    0.00000   10.20000  138.20000    0.12000   16.00000
    0.00000   10.20000  140.70000    0.23000   13.00000
    0.00000   10.20000  144.40000    0.29000   10.00000
    0.00000   10.20000  147.60000    0.26100   11.00000
    0.00000   10.20000  150.60000    0.12400   18.00000
    0.00000   10.20000  154.00000    0.08200   15.00000
    0.00000   10.20000  156.70000    0.09600    7.00000
    0.00000   10.20000  157.30000    0.07800   13.00000
    0.00000   10.20000  160.00000    0.28000   18.00000
    0.00000   10.20000  160.10000    0.21400   12.00000
    0.00000   10.20000  162.20000    0.26000   15.00000
    0.00000   10.20000  162.60000    0.36000   11.00000
    3.08900    7.20000   36.70000    0.07700   17.00000
    3.08900    7.20000   43.40000    0.09200   14.00000
    3.08900    7.20000   50.60000    0.05700   14.00000
    3.08900    7.20000   56.70000    0.12500   13.00000
    3.08900    7.20000   64.40000    0.06400   11.00000
    3.08900    7.20000   67.50000    0.01210   24.00000
    3.08900    7.20000   70.40000    0.01230   19.00000
    3.08900    7.20000   75.70000    0.00600   40.00000
    3.08900    7.20000   80.40000    0.01340   13.00000
    3.08900    7.20000   87.50000    0.01270   21.00000
    3.08900    7.20000   88.40000    0.02700   11.00000
    3.08900    7.20000   97.00000    0.02220   10.00000
    3.08900    7.20000  104.20000    0.01800   22.00000
    3.08900    7.20000  112.30000    0.02000   30.00000
    3.08900    7.20000  116.70000    0.00900   30.00000
    3.08900    7.20000  120.00000    0.00880   25.00000
    3.08900    7.20000  120.60000    0.00670   22.00000
    3.08900    7.20000  127.10000    0.02500   24.00000
    3.08900    7.20000  127.20000    0.01200   16.00000
    3.08900    7.20000  133.70000    0.04400   18.00000
    3.08900    7.20000  134.20000    0.02410   12.00000
    3.08900    7.20000  140.80000    0.05500   13.00000
    3.08900    7.20000  147.50000    0.05900   12.00000
    3.08900    8.40000   40.10000    0.04100   17.00000
    3.08900    8.40000   40.60000    0.02900   14.00000
    3.08900    8.40000   53.90000    0.04000   18.00000
    3.08900    8.40000   77.90000    0.01900   26.00000
    3.08900    8.40000   86.90000    0.02100   19.00000
    3.08900    8.40000   94.60000    0.02000   25.00000
    3.08900    8.40000  102.70000    0.01400   21.00000
    3.08900    8.40000  110.30000    0.01800   22.00000
    3.08900    8.40000  118.60000    0.00900   40.00000
    3.08900    8.40000  125.10000    0.03000   17.00000
    3.08900    8.40000  132.70000    0.02100   30.00000
    3.08900    8.40000  133.20000    0.01800   28.00000
    3.08900    8.40000  139.40000    0.03700   16.00000
    3.08900    9.00000   22.90000    0.06500   15.00000
    3.08900    9.00000   26.20000    0.07100   15.00000
    3.08900    9.00000   29.00000    0.09800   13.00000
    3.08900    9.00000   31.90000    0.07400   14.00000
    3.08900    9.00000   35.80000    0.04300   16.00000
    3.08900    9.00000   39.10000    0.05700    7.00000
    3.08900    9.00000   40.10000    0.04900   14.00000
    3.08900    9.00000   42.50000    0.04900   20.00000
    3.08900    9.00000   46.30000    0.03700   16.00000
    3.08900    9.00000   53.10000    0.02400   21.00000
    3.08900    9.00000   56.30000    0.03700   16.00000
    3.08900    9.00000   57.20000    0.10000   20.00000
    3.08900    9.00000   60.00000    0.15200   17.00000
    3.08900    9.00000   61.40000    0.13800   21.00000
    3.08900    9.00000   63.30000    0.15900   15.00000
    3.08900    9.00000   66.20000    0.13500   15.00000
    3.08900    9.00000   72.20000    0.01500   30.00000
    3.08900    9.00000   76.60000    0.01000   50.00000
    3.08900    9.00000   81.80000    0.01200   40.00000
    3.08900    9.00000   88.30000    0.04000   28.00000
    3.08900    9.00000   89.80000    0.02000   40.00000
    3.08900    9.00000   92.50000    0.09300   13.00000
    3.08900    9.00000   97.20000    0.10900   13.00000
    3.08900    9.00000   97.90000    0.03500   17.00000
    3.08900    9.00000  106.00000    0.02900   24.00000
    3.08900    9.00000  109.40000    0.01200   70.00000
    3.08900    9.00000  109.90000    0.02200   23.00000
    3.08900    9.00000  111.30000    0.02100   30.00000
    3.08900    9.00000  112.80000    0.01200   30.00000
    3.08900    9.00000  113.70000    0.02000   20.00000
    3.08900    9.00000  117.50000    0.02500   20.00000
    3.08900    9.00000  121.30000    0.02200   18.00000
    3.08900    9.00000  125.50000    0.04300   14.00000
    3.08900    9.00000  128.30000    0.05300   30.00000
    3.08900    9.00000  128.40000    0.03600   28.00000
    3.08900    9.00000  131.70000    0.05000   24.00000
    3.08900    9.00000  134.10000    0.02900   14.00000
    3.08900    9.00000  136.10000    0.01700   24.00000
    3.08900    9.00000  143.30000    0.01200   30.00000
    3.08900    9.00000  146.60000    0.01400   40.00000
    3.08900    9.00000  149.40000    0.03600   14.00000
    3.08900    9.00000  156.40000    0.11300   12.00000
    3.08900   10.20000   16.90000    0.43000   14.00000
    3.08900   10.20000   20.40000    0.15200   19.00000
    3.08900   10.20000   23.50000    0.03400   29.00000
    3.08900   10.20000   26.70000    0.07700   16.00000
    3.08900   10.20000   35.40000    0.04400   20.00000
    3.08900   10.20000   36.30000    0.03900   21.00000
    3.08900   10.20000   36.40000    0.02500   30.00000
    3.08900   10.20000   39.70000    0.04800   17.00000
    3.08900   10.20000   43.00000    0.03500   23.00000
    3.08900   10.20000   46.80000    0.03700   19.00000
    3.08900   10.20000   53.20000    0.01400   40.00000
    3.08900   10.20000   55.50000    0.02100   24.00000
    3.08900   10.20000   57.50000    0.01500   30.00000
    3.08900   10.20000   57.70000    0.09500   30.00000
    3.08900   10.20000   60.00000    0.14200   17.00000
    3.08900   10.20000   60.10000    0.10800   16.00000
    3.08900   10.20000   63.90000    0.11300   12.00000
    3.08900   10.20000   63.90000    0.08600   12.00000
    3.08900   10.20000   67.80000    0.04400   14.00000
    3.08900   10.20000   69.20000    0.04700   30.00000
    3.08900   10.20000   71.10000    0.05400   17.00000
    3.08900   10.20000   81.80000    0.01800   22.00000
    3.08900   10.20000   82.60000    0.03300   24.00000
    3.08900   10.20000   86.60000    0.01700   40.00000
    3.08900   10.20000   89.40000    0.02100   24.00000
    3.08900   10.20000   90.90000    0.01400   21.00000
    3.08900   10.20000   98.60000    0.00800   40.00000
    3.08900   10.20000  102.70000    0.02700   22.00000
    3.08900   10.20000  107.00000    0.03800   18.00000
    3.08900   10.20000  110.30000    0.03200   22.00000
    3.08900   10.20000  110.40000    0.01800   22.00000
    3.08900   10.20000  113.80000    0.01160   20.00000
    3.08900   10.20000  114.20000    0.01500   30.00000
    3.08900   10.20000  118.60000    0.01100   27.00000
    3.08900   10.20000  120.50000    0.01000   30.00000
    3.08900   10.20000  121.90000    0.01560   19.00000
    3.08900   10.20000  129.40000    0.04000   20.00000
    3.08900   10.20000  132.30000    0.02500   30.00000
    3.08900   10.20000  136.10000    0.02100   24.00000
    3.08900   10.20000  140.00000    0.01600   40.00000
    3.08900   10.20000  147.20000    0.01300   40.00000
    3.08900   10.20000  150.40000    0.02800   25.00000
    3.08900   10.20000  156.70000    0.01900   40.00000
    3.85400    7.20000   24.80000    0.27100
    3.85400    7.20000   32.20000    0.11100
    3.85400    7.20000   38.70000    0.16400   11.00000
    3.85400    7.20000   38.80000    0.12800
    3.85400    7.20000   44.90000    0.12600   10.00000
    3.85400    7.20000   53.00000    0.10600    9.00000
    3.85400    7.20000   58.60000    0.03000   13.00000
    3.85400    7.20000   63.20000    0.04500    9.00000
    3.85400    7.20000   68.40000    0.04600    9.00000
    3.85400    7.20000   74.80000    0.09500
    3.85400    7.20000   83.70000    0.11900
    3.85400    7.20000   92.80000    0.09200
    3.85400    7.20000   99.10000    0.05800   10.00000
    3.85400    7.20000  101.90000    0.05400   11.00000
    3.85400    7.20000  108.80000    0.09600    7.00000
    3.85400    7.20000  109.40000    0.07990
    3.85400    7.20000  112.60000    0.11500    9.00000
    3.85400    7.20000  117.30000    0.11300   10.00000
    3.85400    7.20000  124.30000    0.12400    9.00000
    3.85400    7.20000  127.70000    0.11200   10.00000
    3.85400    7.20000  132.00000    0.11000    8.00000
    3.85400    7.20000  132.10000    0.06500   11.00000
    3.85400    7.20000  140.50000    0.08400    6.00000
    3.85400    7.20000  146.60000    0.12700   10.00000
    3.85400    7.20000  156.30000    0.24700   12.00000
    3.85400    8.40000   40.90000    0.14800
    3.85400    8.40000   40.90000    0.17400    9.00000
    3.85400    8.40000   47.90000    0.23300   10.00000
    3.85400    8.40000   54.90000    0.31000   13.00000
    3.85400    8.40000   70.70000    0.13200    8.00000
    3.85400    8.40000   77.00000    0.08400   11.00000
    3.85400    8.40000   81.70000    0.09600    9.00000
    3.85400    8.40000   85.00000    0.11300   10.00000
    3.85400    8.40000   89.80000    0.07200   10.00000
    3.85400    8.40000   93.00000    0.11300   11.00000
    3.85400    8.40000   98.40000    0.05100   10.00000
    3.85400    8.40000  106.80000    0.07500   11.00000
    3.85400    8.40000  114.40000    0.08000   11.00000
    3.85400    8.40000  121.90000    0.07500   11.00000
    3.85400    8.40000  130.00000    0.06400   14.00000
    3.85400    8.40000  136.90000    0.12900   14.00000
    3.85400    9.00000   18.90000    0.24000   13.00000
    3.85400    9.00000   25.00000    0.25100   11.00000
    3.85400    9.00000   27.90000    0.20500   10.00000
    3.85400    9.00000   31.70000    0.21500   12.00000
    3.85400    9.00000   39.10000    0.38100
    3.85400    9.00000   39.20000    0.29700    9.00000
    3.85400    9.00000   41.50000    0.36000    8.00000
    3.85400    9.00000   45.30000    0.33000   21.00000
    3.85400    9.00000   48.70000    0.26700
    3.85400    9.00000   52.00000    0.25000   12.00000
    3.85400    9.00000   55.70000    0.26800
    3.85400    9.00000   58.90000    0.10200    7.00000
    3.85400    9.00000   61.70000    0.10600   26.00000
    3.85400    9.00000   64.50000    0.10000   25.00000
    3.85400    9.00000   66.90000    0.10900   13.00000
    3.85400    9.00000   69.60000    0.18800    9.00000
    3.85400    9.00000   71.90000    0.18400   11.00000
    3.85400    9.00000   75.20000    0.18900
    3.85400    9.00000   82.30000    0.19400   11.00000
    3.85400    9.00000   84.30000    0.14800   11.00000
    3.85400    9.00000   89.60000    0.11100   13.00000
    3.85400    9.00000   92.90000    0.09300   11.00000
    3.85400    9.00000   94.30000    0.11600   10.00000
    3.85400    9.00000   99.00000    0.13400   15.00000
    3.85400    9.00000  101.40000    0.11700
    3.85400    9.00000  105.10000    0.12300    9.00000
    3.85400    9.00000  109.40000    0.13400    7.00000
    3.85400    9.00000  116.90000    0.12300   12.00000
    3.85400    9.00000  120.80000    0.09200   10.00000
    3.85400    9.00000  124.60000    0.09000   11.00000
    3.85400    9.00000  128.30000    0.10900   11.00000
    3.85400    9.00000  130.70000    0.11900   14.00000
    3.85400    9.00000  132.10000    0.11400    9.00000
    3.85400    9.00000  139.50000    0.20600    9.00000
    3.85400    9.00000  142.80000    0.22100   12.00000
    3.85400    9.00000  147.00000    0.23200   11.00000
    3.85400    9.00000  153.10000    0.30000   10.00000
    3.85400   10.20000   18.40000    0.55000   13.00000
    3.85400   10.20000   21.80000    0.49000   10.00000
    3.85400   10.20000   25.20000    0.36000   14.00000
    3.85400   10.20000   27.70000    0.21400    9.00000
    3.85400   10.20000   34.20000    0.27100   11.00000
    3.85400   10.20000   38.00000    0.29800    8.00000
    3.85400   10.20000   41.30000    0.29000   10.00000
    3.85400   10.20000   44.70000    0.23400   10.00000
    3.85400   10.20000   47.50000    0.26000   23.00000
    3.85400   10.20000   50.90000    0.18000   22.00000
    3.85400   10.20000   52.00000    0.09700   13.00000
    3.85400   10.20000   53.80000    0.13400    7.00000
    3.85400   10.20000   54.20000    0.18000   22.00000
    3.85400   10.20000   55.70000    0.13400   12.00000
    3.85400   10.20000   59.10000    0.11500    9.00000
    3.85400   10.20000   62.40000    0.10300   11.00000
    3.85400   10.20000   62.80000    0.13500    9.00000
    3.85400   10.20000   66.30000    0.07700   30.00000
    3.85400   10.20000   66.60000    0.11300   19.00000
    3.85400   10.20000   69.00000    0.11100   22.00000
    3.85400   10.20000   72.70000    0.13400   10.00000
    3.85400   10.20000   74.60000    0.14300    9.00000
    3.85400   10.20000   76.90000    0.15400   15.00000
    3.85400   10.20000   78.40000    0.12300
    3.85400   10.20000   79.40000    0.10700    8.00000
    3.85400   10.20000   81.70000    0.11500   10.00000
    3.85400   10.20000   84.20000    0.09400   11.00000
    3.85400   10.20000   88.40000    0.10600   10.00000
    3.85400   10.20000   90.30000    0.09900
    3.85400   10.20000   92.70000    0.08300    8.00000
    3.85400   10.20000   96.90000    0.12500   10.00000
    3.85400   10.20000  101.10000    0.11500   12.00000
    3.85400   10.20000  101.60000    0.10000   26.00000
    3.85400   10.20000  104.80000    0.14500   12.00000
    3.85400   10.20000  106.80000    0.13000   30.00000
    3.85400   10.20000  108.50000    0.20900    3.00000
    3.85400   10.20000  109.60000    0.14000   29.00000
    3.85400   10.20000  113.30000    0.18800   12.00000
    3.85400   10.20000  115.20000    0.17200
    3.85400   10.20000  116.60000    0.15300   10.00000
    3.85400   10.20000  121.50000    0.11000   40.00000
    3.85400   10.20000  123.80000    0.12900   15.00000
    3.85400   10.20000  128.40000    0.16300   17.00000
    3.85400   10.20000  131.70000    0.23000   10.00000
    3.85400   10.20000  135.40000    0.23000   13.00000
    3.85400   10.20000  142.60000    0.21200   14.00000
    3.85400   10.20000  145.80000    0.31000   13.00000
    3.85400   10.20000  149.40000    0.45000   16.00000
    3.85400   10.20000  152.70000    0.55000   11.00000
ENDDATA            436
ENDSUBENT          451
ENDENTRY             3
