ENTRY            O1789   20091014   20100809   20100806       O041
SUBENT        O1789001   20091014   20100809   20100806       O041
BIB                 14         30
TITLE      Spectroscopic study of P-30 by the Si-29(d,n)P-30
           reaction.
AUTHOR     (J.Uzureau, D.Ardouin, P.Avignon, A.Adam, B.Duchemin)
INSTITUTE  (2FR NTE)
           (2FR BRC)
REFERENCE  (J,NP/A,230,253,1974)
DETECTOR   (SCIN) liquid scintillator detectors were used.
FACILITY   (VDGT,2FR BRC) EN Tandem Van de Graaff generator
SAMPLE     The Si-29 target consisted of a layers of 200 mug/cm**2
           SiO(2) enriched to 90.0% in Si-29 on a 0.1 mm tantalum
           backing.
EN-SEC     (E-LVL,15-P-30)
METHOD     (TOF)
ADD-RES    (COMP) DWBA and the Hauser-Feshbach formalism.
           Neutron time-of-flight spectrum from the Si-29(d,n)
           reactions was observed.
CORRECTION The absolute differential cross sections were corrected
           by about 15% for neutron absorption in the wall of the
           scattering chamber and in the air along the flight
           path.
ERR-ANALYS The total uncertainty in absolute cross
           sections connected errors in target thickness and
           efficiency of detector is 25%.
           (ERR-DIG).Digitizing error of data.
           (ANG-ERR-D).Digitizing error of angle.
           (DATA-ERR).The uncertainty is reported by authors on
           figure.
           (E-LVL-ERR).The uncertainty is measured by authors.
STATUS     (CURVE).By CAJAD.
HISTORY    (20091010C)SB
ENDBIB              30
COMMON               1          3
EN
MEV
8.
ENDCOMMON            3
ENDSUBENT           37
SUBENT        O1789002   20091007   20100809   20100806       O041
BIB                  2         23
REACTION   (14-SI-29(D,N)15-P-30,PAR,DA) Figure 2,3,4
LEVEL-PROP (15-P-30,E-LVL=0.000,SPIN=1.0,PARITY=+1.)
           (15-P-30,E-LVL=0.698,SPIN=0.0,PARITY=+1.)
           (15-P-30,E-LVL=1.456,SPIN=2.0,PARITY=+1.)
           (15-P-30,E-LVL=1.974,SPIN=3.0,PARITY=+1.)
           (15-P-30,E-LVL=2.539,SPIN=3.0,PARITY=+1.)
           (15-P-30,E-LVL=2.724,SPIN=2.0,PARITY=+1.)
           (15-P-30,E-LVL=2.938,SPIN=2.0,PARITY=+1.)
           (15-P-30,E-LVL=3.018,SPIN=1.0,PARITY=+1.)
           (15-P-30,E-LVL=4.142,SPIN=2.0,PARITY=-1.)
           (15-P-30,E-LVL=4.229,SPIN=4.0,PARITY=-1.)
           (15-P-30,E-LVL=4.466,SPIN=0.0,PARITY=+1.)
           (15-P-30,E-LVL=4.501,SPIN=1.0,PARITY=+1.)
           (15-P-30,E-LVL=4.624,SPIN=3.0,PARITY=-1.)
           (15-P-30,E-LVL=5.507,SPIN=1.0/3.0,PARITY=-1.)
           (15-P-30,E-LVL=5.416,SPIN=0.0/2.0,PARITY=-1.)
           (15-P-30,E-LVL=5.906,SPIN=1.0/2.0,PARITY=-1.)
           (15-P-30,E-LVL=5.993,SPIN=1.0,PARITY=-1.)
           (15-P-30,E-LVL=6.093,SPIN=3.0,PARITY=-1.)
           (15-P-30,E-LVL=6.874,SPIN=3.0,PARITY=+1.)
           (15-P-30,E-LVL=6.920,SPIN=1.0,PARITY=-1.)
           (15-P-30,E-LVL=7.012,SPIN=2.0,PARITY=-1.)
           (15-P-30,E-LVL=7.048,SPIN=1.0/3.0,PARITY=+1.)
ENDBIB              23
COMMON               2          3
ANG-ERR-D  ERR-DIG
ADEG       PER-CENT
0.3        1.4
ENDCOMMON            3
DATA                 5        198
E-LVL      E-LVL-ERR  ANG-CM     DATA-CM    DATA-ERR
MEV        KEV        ADEG       MB/SR      PER-CENT
    0.00000            10.44000   14.36000
    0.00000              16.49000    6.30000
    0.00000              21.63000    2.08200
    0.00000              27.41000    0.46000    9.00000
    0.00000              32.82000    0.38000   16.00000
    0.00000              37.59000    0.81000    6.00000
    0.00000              42.56000    0.92000    5.00000
    0.00000              53.58000    0.50000    6.00000
    0.00000              64.14000    0.19300   15.00000
    0.69800   15.00000    9.83000    8.90000    3.00000
    0.69800   15.00000   15.44000    4.97000
    0.69800   15.00000   19.27000    2.21000
    0.69800   15.00000   24.63000    0.74000    5.00000
    0.69800   15.00000   32.70000    0.53900    5.00000
    0.69800   15.00000   37.69000    0.81000    5.00000
    0.69800   15.00000   42.65000    0.85000    4.00000
    0.69800   15.00000   48.06000    0.77200    3.00000
    0.69800   15.00000   58.40000    0.33500    7.00000
    0.69800   15.00000   68.72000    0.12000   30.00000
    1.45600   12.00000   10.09000    0.35000   26.00000
    1.45600   12.00000   15.58000    0.44000   11.00000
    1.45600   12.00000   21.26000    0.68000    9.00000
    1.45600   12.00000   26.02000    1.01000    7.00000
    1.45600   12.00000   31.38000    0.85000    8.00000
    1.45600   12.00000   36.73000    0.72000    8.00000
    1.45600   12.00000   41.87000    0.58000    9.00000
    1.45600   12.00000   51.97000    0.28000   18.00000
    1.45600   12.00000   62.44000    0.20000   25.00000
    1.97400   12.00000   15.62000    0.25000   20.00000
    1.97400   12.00000   21.37000    0.29000   14.00000
    1.97400   12.00000   26.83000    0.43000   14.00000
    1.97400   12.00000   31.67000    0.46000   13.00000
    1.97400   12.00000   36.79000    0.39000   13.00000
    1.97400   12.00000   42.34000    0.38000   13.00000
    1.97400   12.00000   52.85000    0.24000   17.00000
    1.97400   12.00000   63.38000    0.14000   29.00000
    2.53900   12.00000   15.61000    0.24000   21.00000
    2.53900   12.00000   20.85000    0.32000   16.00000
    2.53900   12.00000   26.15000    0.35000   14.00000
    2.53900   12.00000   31.20000    0.41000   12.00000
    2.53900   12.00000   36.54000    0.37000   14.00000
    2.53900   12.00000   42.11000    0.34000   15.00000
    2.53900   12.00000   52.14000    0.23000   17.00000
    2.53900   12.00000   62.89000    0.13000   40.00000
    2.72400   12.00000   14.04000    0.12000   30.00000
    2.72400   12.00000   19.21000    0.18000   28.00000
    2.72400   12.00000   24.40000    0.25000   16.00000
    2.72400   12.00000   30.18000    0.26000   15.00000
    2.72400   12.00000   35.02000    0.25000   12.00000
    2.72400   12.00000   40.44000    0.20000   20.00000
    2.72400   12.00000   50.56000    0.11500   23.00000
    2.72400   12.00000   61.55000    0.08600   30.00000
    2.93800   12.00000   14.87000    0.73000    7.00000
    2.93800   12.00000   20.06000    1.01000    4.00000
    2.93800   12.00000   24.84000    1.17000    7.00000
    2.93800   12.00000   30.66000    1.11000    5.00000
    2.93800   12.00000   35.81000    0.90000    6.00000
    2.93800   12.00000   40.75000    0.69000    6.00000
    2.93800   12.00000   50.96000    0.31000   16.00000
    2.93800   12.00000   62.53000    0.18000   22.00000
    3.01800   12.00000    3.49000    5.20000    6.00000
    3.01800   12.00000    8.21000    3.60000   11.00000
    3.01800   12.00000   14.04000    1.97000    4.00000
    3.01800   12.00000   19.41000    0.74000    5.00000
    3.01800   12.00000   25.01000    0.32000   16.00000
    3.01800   12.00000   30.18000    0.25000   20.00000
    3.01800   12.00000   35.83000    0.28000   14.00000
    3.01800   12.00000   40.79000    0.27000   15.00000
    3.01800   12.00000   51.15000    0.20000   25.00000
    3.01800   12.00000   61.28000    0.12000   30.00000
    4.14200    8.00000    5.61000    1.98000   14.00000
    4.14200    8.00000   10.66000    2.00000    6.00000
    4.14200    8.00000   15.25000    2.69000
    4.14200    8.00000   21.21000    2.14400
    4.14200    8.00000   26.49000    1.68900
    4.14200    8.00000   31.54000    1.10000    6.00000
    4.14200    8.00000   37.74000    0.58000    9.00000
    4.14200    8.00000   43.02000    0.47000    9.00000
    4.14200    8.00000   53.35000    0.25000   16.00000
    4.14200    8.00000   63.44000    0.23000   17.00000
    4.22900    8.00000   14.50000    0.55000   30.00000
    4.22900    8.00000   20.10000    0.51000   40.00000
    4.22900    8.00000   25.00000    0.84000   25.00000
    4.22900    8.00000   29.80000    1.09000   17.00000
    4.22900    8.00000   35.70000    0.96000   18.00000
    4.22900    8.00000   40.80000    1.07000   10.00000
    4.22900    8.00000   51.20000    0.68000    9.00000
    4.22900    8.00000   62.20000    0.41000   24.00000
    4.46600   10.00000    5.26000    4.40000    7.00000
    4.46600   10.00000   10.69000    2.69000    6.00000
    4.46600   10.00000   16.35000    1.72900
    4.46600   10.00000   22.01000    0.70000    6.00000
    4.46600   10.00000   38.76000    0.16000   25.00000
    4.46600   10.00000   43.96000    0.18000   17.00000
    4.46600   10.00000   51.38000    0.17700   14.00000
    4.46600   10.00000   62.01000    0.08000   50.00000
    4.50100    8.00000   10.19000    0.41000   27.00000
    4.50100    8.00000   15.62000    0.58000   10.00000
    4.50100    8.00000   21.06000    0.80000    7.00000
    4.50100    8.00000   26.08000    0.94000    6.00000
    4.50100    8.00000   31.39000    0.96000    6.00000
    4.50100    8.00000   36.56000    0.74000    8.00000
    4.50100    8.00000   41.50000    0.55000   11.00000
    4.50100    8.00000   52.04000    0.19000   26.00000
    4.50100    8.00000   61.94000    0.10000   40.00000
    4.62400    8.00000   10.08000    0.41000   27.00000
    4.62400    8.00000   15.21000    0.49000   10.00000
    4.62400    8.00000   20.37000    0.49000   12.00000
    4.62400    8.00000   25.95000    0.63000   10.00000
    4.62400    8.00000   31.32000    0.73000    7.00000
    4.62400    8.00000   36.03000    0.61000    8.00000
    4.62400    8.00000   41.88000    0.67000   10.00000
    4.62400    8.00000   51.59000    0.35000   11.00000
    4.62400    8.00000   61.72000    0.25000   16.00000
    5.41600    7.00000    5.44000    1.90000   16.00000
    5.41600    7.00000   10.72000    2.00000    7.00000
    5.41600    7.00000   16.23000    1.61000    6.00000
    5.41600    7.00000   21.74000    1.37300
    5.41600    7.00000   26.79000    1.02600
    5.41600    7.00000   32.30000    0.77000    8.00000
    5.41600    7.00000   37.57000    0.55000    9.00000
    5.41600    7.00000   42.85000    0.34000   12.00000
    5.50700    7.00000   27.60000    0.78000   10.00000
    5.50700    7.00000   33.58000    0.85000    7.00000
    5.50700    7.00000   38.02000    0.58000    9.00000
    5.50700    7.00000   43.81000    0.47000    9.00000
    5.50700    7.00000   54.47000    0.31000   16.00000
    5.50700    7.00000   64.68000    0.20000   25.00000
    5.90600    7.00000    5.51000    8.00000    8.00000
    5.90600    7.00000    9.97000    7.33000
    5.90600    7.00000   14.53000    6.82000
    5.90600    7.00000   20.93000    5.59000
    5.90600    7.00000   26.86000    4.04000
    5.90600    7.00000   31.43000    2.75000
    5.90600    7.00000   37.36000    1.57800
    5.90600    7.00000   42.84000    1.24000    4.00000
    5.90600    7.00000   53.12000    1.04000    4.00000
    5.90600    7.00000   63.62000    0.94000    5.00000
    5.99300    7.00000    5.14000    8.50000    7.00000
    5.99300    7.00000   10.57000    7.44000
    5.99300    7.00000   16.27000    7.47000
    5.99300    7.00000   21.75000    5.70000
    5.99300    7.00000   27.00000    4.18000
    5.99300    7.00000   32.48000    2.68000
    5.99300    7.00000   38.19000    1.61600
    5.99300    7.00000   43.90000    1.26000    6.00000
    5.99300    7.00000   54.17000    1.05000    6.00000
    5.99300    7.00000   64.90000    0.84000    7.00000
    6.09300    7.00000   11.00000    0.89000   16.00000
    6.09300    7.00000   16.98000    0.95000    9.00000
    6.09300    7.00000   22.05000    0.98000    8.00000
    6.09300    7.00000   27.13000    0.90000   10.00000
    6.09300    7.00000   32.43000    0.88000    8.00000
    6.09300    7.00000   37.97000    0.83000    8.00000
    6.09300    7.00000   43.09000    0.60000   10.00000
    6.09300    7.00000   54.00000    0.34000   15.00000
    6.09300    7.00000   64.47000    0.17000   24.00000
    6.87400    7.00000    5.37000    4.70000   13.00000
    6.87400    7.00000   11.08000    4.95000
    6.87400    7.00000   16.56000    4.76000
    6.87400    7.00000   22.04000    3.45000
    6.87400    7.00000   27.29000    2.79000
    6.87400    7.00000   32.99000    1.75500
    6.87400    7.00000   37.79000    1.18000    7.00000
    6.87400    7.00000   43.50000    0.90000    6.00000
    6.87400    7.00000   54.00000    0.51000   10.00000
    6.87400    7.00000   64.96000    0.50000   12.00000
    6.92000    7.00000    5.51000    4.20000   10.00000
    6.92000    7.00000   10.99000    4.06000    5.00000
    6.92000    7.00000   16.47000    3.77000
    6.92000    7.00000   21.72000    2.89000
    6.92000    7.00000   27.88000    2.01800
    6.92000    7.00000   32.91000    1.34000    4.00000
    6.92000    7.00000   38.84000    0.91800
    6.92000    7.00000   43.64000    0.64000    8.00000
    6.92000    7.00000   55.05000    0.41000   10.00000
    6.92000    7.00000   65.10000    0.42000   12.00000
    7.01200    7.00000    9.82000    0.70000   19.00000
    7.01200    7.00000   15.30000    0.76000    8.00000
    7.01200    7.00000   20.32000    0.53000   11.00000
    7.01200    7.00000   26.03000    0.44000    9.00000
    7.01200    7.00000   31.73000    0.36000   14.00000
    7.01200    7.00000   36.76000    0.22000   23.00000
    7.01200    7.00000   42.46000    0.21000   24.00000
    7.01200    7.00000   52.51000    0.13000   23.00000
    7.01200    7.00000   63.01000    0.11000   40.00000
    7.04800    7.00000    4.90000    2.09000   12.00000
    7.04800    7.00000   10.43000    2.04000    8.00000
    7.04800    7.00000   15.96000    2.00000    5.00000
    7.04800    7.00000   21.04000    1.94000    7.00000
    7.04800    7.00000   24.49000    1.99700
    7.04800    7.00000   26.34000    1.88100
    7.04800    7.00000   28.64000    1.97500
    7.04800    7.00000   31.89000    1.62000    6.00000
    7.04800    7.00000   36.99000    1.36000   10.00000
    7.04800    7.00000   42.54000    1.20000    6.00000
    7.04800    7.00000   52.99000    0.70000    9.00000
    7.04800    7.00000   63.43000    0.45000   11.00000
ENDDATA            200
ENDSUBENT          232
ENDENTRY             2
