ENTRY            O1780   20091005   20100809   20100806       O041
SUBENT        O1780001   20091005   20100809   20100806       O041
BIB                 11         25
TITLE      Spectroscopic study of P-31 and S-32 by the (d,n)
           reaction at E(d)=7 MeV.
AUTHOR     (J.Uzureau, A.Adam, O.Bersillon, S.Joly)
INSTITUTE  (2FR NTE)
           (2FR BRC)
REFERENCE  (J,NP/A,267,217,1976)
DETECTOR   (SCIN) Six NE 213 liquid scintillator detectors were
           used. For the Si-30(d,n) experiment the scintillators
           were 10.2 cm in diameter and 2.5 cm in thickness.
           For the P-31(d,n) experiment the scintillators
           were 10.2 cm in diameter and 5.1 cm in thickness.
FACILITY   (VDGT,2FR BRC) EN Tandem Van de Graaff generator
METHOD     (TOF)
ADD-RES    (COMP) DWBA and the Hauser-Feshbach formalism.
           Neutron time-of-flight spectrum from the Si-30(d,n) and
           the P-31(d,n) reactions were observed.
STATUS     (CURVE).By CAJAD.
ERR-ANALYS (DATA-ERR,15.,25.).The total uncertainty in absolute
           cross sections lies between 15% and 25% and is due
           primarily to statistical considerations.
           (ERR-S).Statistical error is reported by authors on
           figure.
           (ANG-ERR-D).Digitizing error of angle.
           (ERR-DIG).Digitizing error of data.
HISTORY    (20091005C)SB
ENDBIB              25
COMMON               1          3
EN
MEV
7.
ENDCOMMON            3
ENDSUBENT           32
SUBENT        O1780002   20091007   20100809   20100806       O041
BIB                  6         29
REACTION   (14-SI-30(D,N)15-P-31,PAR,DA) Figure 2-3
CORRECTION The absolute differential cross sections were corrected
           by about 15% for neutron absorption in the wall of the
           scattering chamber and in the air along the flight
           path.
SAMPLE     The Si-30 target consisted of a layers of 95 mug/cm**2
           SiO(2) enriched to 95.5% in Si-30 on a 0.5 mm gold
           backing.
EN-SEC     (E-LVL,15-P-31)
LEVEL-PROP (15-P-31,E-LVL=0.000,SPIN=0.5,PARITY=+1.)
           (15-P-31,E-LVL=1.268,SPIN=1.5,PARITY=+1.)
           (15-P-31,E-LVL=2.226,SPIN=2.5,PARITY=+1.)
           (15-P-31,E-LVL=3.125,SPIN=0.5,PARITY=+1.)
           (15-P-31,E-LVL=4.421,SPIN=3.5,PARITY=-1.)
           (15-P-31,E-LVL=5.006,SPIN=1.5,PARITY=-1.)
           (15-P-31,E-LVL=5.248,SPIN=0.5,PARITY=+1.)
           (15-P-31,E-LVL=6.376,SPIN=1.5,PARITY=-1.)
           (15-P-31,E-LVL=6.494,SPIN=1.5/0.5,PARITY=-1.)
           (15-P-31,E-LVL=7.139,SPIN=0.5/1.5,PARITY=+1.)
           (15-P-31,E-LVL=7.213,SPIN=0.5/1.5,PARITY=-1.)
           (15-P-31,E-LVL=7.901,SPIN=0.5,PARITY=-1.)
           (15-P-31,E-LVL=8.050,SPIN=1.5,PARITY=-1.)
           (15-P-31,E-LVL=8.251,SPIN=1.5,PARITY=-1.)
           (15-P-31,E-LVL=8.564,SPIN=1.5,PARITY=-1.)
ERR-ANALYS (E-LVL-ERR).The uncertainty is measured by authors,
           except E-LVL=1268, 2226 keV it is E-LVL-ERR=10 keV,
           E-LVL=3125 keV it is E-LVL-ERR=8 keV,
           E-LVL=7213 keV it is E-LVL-ERR=5 keV,
           E-LVL=8564 keV it is E-LVL-ERR=7 keV.
ENDBIB              29
COMMON               2          3
ANG-ERR-D  ERR-DIG
ADEG       PER-CENT
0.4        1.6
ENDCOMMON            3
DATA                 5        199
E-LVL      E-LVL-ERR  ANG-CM     DATA-CM    ERR-S
MEV        MEV        ADEG       MB/SR      PER-CENT
    0.00000               0.00000   17.40000
    0.00000               6.10000   15.63000
    0.00000               9.00000   10.55000
    0.00000              14.10000    6.55000
    0.00000              20.00000    2.71000    6.00000
    0.00000              25.60000    0.86000    9.00000
    0.00000              26.40000    0.62000   10.00000
    0.00000              31.40000    0.81000   10.00000
    0.00000              36.70000    0.99000    7.00000
    0.00000              42.00000    0.68000    9.00000
    0.00000              47.10000    0.61000    8.00000
    0.00000              57.60000    0.54000   11.00000
    0.00000              68.30000    0.34000   15.00000
    0.00000              81.20000    0.41000   17.00000
    1.26800    0.01000    0.00000    0.56000    7.00000
    1.26800    0.01000    7.10000    0.48000   10.00000
    1.26800    0.01000    8.20000    0.49000   10.00000
    1.26800    0.01000   13.30000    0.78000    9.00000
    1.26800    0.01000   18.80000    1.27000    7.00000
    1.26800    0.01000   23.80000    1.72000    5.00000
    1.26800    0.01000   28.70000    1.72000    3.00000
    1.26800    0.01000   33.60000    1.50000    4.00000
    1.26800    0.01000   39.50000    1.28000    5.00000
    1.26800    0.01000   45.00000    0.80000    5.00000
    1.26800    0.01000   50.30000    0.44000   14.00000
    1.26800    0.01000   61.00000    0.20000   15.00000
    1.26800    0.01000   71.40000    0.24000   13.00000
    1.26800    0.01000   81.40000    0.20000   15.00000
    2.22600    0.01000    0.00000    0.17000   24.00000
    2.22600    0.01000    5.80000    0.19000   16.00000
    2.22600    0.01000   10.70000    0.17000   24.00000
    2.22600    0.01000   16.20000    0.22000   23.00000
    2.22600    0.01000   21.00000    0.28000   14.00000
    2.22600    0.01000   26.60000    0.35000   14.00000
    2.22600    0.01000   31.50000    0.37000   11.00000
    2.22600    0.01000   36.80000    0.45000    9.00000
    2.22600    0.01000   42.20000    0.35000    9.00000
    2.22600    0.01000   47.10000    0.36000   11.00000
    2.22600    0.01000   53.10000    0.22000   18.00000
    2.22600    0.01000   63.50000    0.13000   23.00000
    2.22600    0.01000   73.90000    0.16000   19.00000
    2.22600    0.01000   83.30000    0.23000   13.00000
    3.12500    0.00800    0.00000    1.00000    7.00000
    3.12500    0.00800    7.60000    0.65000    6.00000
    3.12500    0.00800   13.30000    0.38000   11.00000
    3.12500    0.00800   18.50000    0.26000   12.00000
    3.12500    0.00800   24.40000    0.10000   40.00000
    3.12500    0.00800   35.50000    0.08300   25.00000
    3.12500    0.00800   40.00000    0.13700   22.00000
    3.12500    0.00800   45.30000    0.18000   22.00000
    3.12500    0.00800   50.40000    0.15600   19.00000
    3.12500    0.00800   61.00000    0.11100   25.00000
    3.12500    0.00800   70.70000    0.12600   21.00000
    3.12500    0.00800   81.50000    0.03700   80.00000
    4.42100    0.00400    0.00000    0.74000    9.00000
    4.42100    0.00400    5.20000    0.60000    8.00000
    4.42100    0.00400    9.80000    0.84000    5.00000
    4.42100    0.00400   14.90000    0.76000    8.00000
    4.42100    0.00400   19.50000    0.74000   14.00000
    4.42100    0.00400   25.50000    1.14000    7.00000
    4.42100    0.00400   31.60000    1.14000    7.00000
    4.42100    0.00400   35.40000    1.50000    7.00000
    4.42100    0.00400   41.20000    1.93000    5.00000
    4.42100    0.00400   45.80000    1.73000    9.00000
    4.42100    0.00400   51.40000    1.48000    3.00000
    4.42100    0.00400   61.50000    1.13000   11.00000
    4.42100    0.00400   72.20000    0.80000   11.00000
    4.42100    0.00400   82.90000    0.75000    8.00000
    5.00600    0.00400    0.00000    3.39000    8.00000
    5.00600    0.00400    5.40000    4.50000    4.00000
    5.00600    0.00400    9.50000    7.50000    5.00000
    5.00600    0.00400   15.30000    9.20000    4.00000
    5.00600    0.00400   20.90000   10.00000    4.00000
    5.00600    0.00400   26.20000    8.29000    3.00000
    5.00600    0.00400   31.60000    5.00000
    5.00600    0.00400   36.90000    3.28000    4.00000
    5.00600    0.00400   42.00000    1.41000    2.80000
    5.00600    0.00400   47.60000    1.22000    6.00000
    5.00600    0.00400   52.70000    1.49000    7.00000
    5.00600    0.00400   63.10000    1.60000    7.00000
    5.00600    0.00400   74.00000    1.11000    6.00000
    5.00600    0.00400   84.40000    0.64000    6.00000
    5.24800    0.00400    0.00000    3.49000    6.00000
    5.24800    0.00400    7.20000    2.94000    6.00000
    5.24800    0.00400   12.60000    2.17000    5.00000
    5.24800    0.00400   18.40000    1.04000   11.00000
    5.24800    0.00400   23.10000    0.41000   15.00000
    5.24800    0.00400   29.20000    0.09000   40.00000
    5.24800    0.00400   34.60000    0.05800   50.00000
    5.24800    0.00400   39.90000    0.13300   18.00000
    5.24800    0.00400   44.40000    0.23000   22.00000
    5.24800    0.00400   50.00000    0.18000   22.00000
    5.24800    0.00400   54.80000    0.29000   17.00000
    5.24800    0.00400   65.50000    0.18100   16.00000
    5.24800    0.00400   75.60000    0.17000   18.00000
    5.24800    0.00400   86.00000    0.09100   27.00000
    6.37600    0.00400    0.00000    0.69000    7.00000
    6.37600    0.00400    4.90000    0.61000   11.00000
    6.37600    0.00400    9.90000    0.83000    7.00000
    6.37600    0.00400   15.00000    0.92000    9.00000
    6.37600    0.00400   20.30000    0.96000   10.00000
    6.37600    0.00400   25.40000    1.41000    6.00000
    6.37600    0.00400   30.20000    1.45000    8.00000
    6.37600    0.00400   35.80000    1.14000    8.00000
    6.37600    0.00400   40.90000    0.90000   10.00000
    6.37600    0.00400   46.50000    0.61000   18.00000
    6.37600    0.00400   51.80000    0.54000    9.00000
    6.37600    0.00400   62.00000    0.22000   18.00000
    6.37600    0.00400   72.10000    0.30000   17.00000
    6.37600    0.00400   82.30000    0.28000   14.00000
    6.49400    0.00400    0.00000    1.96000    7.00000
    6.49400    0.00400    5.20000    1.82000    5.00000
    6.49400    0.00400    9.60000    2.61000    4.00000
    6.49400    0.00400   15.40000    2.46000    3.00000
    6.49400    0.00400   20.20000    2.77000    3.00000
    6.49400    0.00400   25.70000    2.18000
    6.49400    0.00400   31.30000    1.53000    8.00000
    6.49400    0.00400   36.10000    1.08000    8.00000
    6.49400    0.00400   41.70000    0.64000    8.00000
    6.49400    0.00400   47.00000    0.53000   11.00000
    6.49400    0.00400   51.80000    0.59000   12.00000
    6.49400    0.00400   61.90000    0.58000    9.00000
    6.49400    0.00400   72.20000    0.41000   17.00000
    6.49400    0.00400   82.30000    0.40000   10.00000
    7.13900    0.00400    0.00000    6.42000
    7.13900    0.00400    8.80000    5.38000
    7.13900    0.00400   14.40000    4.24000
    7.13900    0.00400   19.20000    2.57000
    7.13900    0.00400   24.80000    1.10800
    7.13900    0.00400   29.10000    0.48000   15.00000
    7.13900    0.00400   36.20000    0.22000   23.00000
    7.13900    0.00400   41.00000    0.61000    8.00000
    7.13900    0.00400   46.00000    0.74000    8.00000
    7.13900    0.00400   51.00000    0.85000    7.00000
    7.13900    0.00400   56.30000    0.79000    8.00000
    7.13900    0.00400   66.40000    0.76000    8.00000
    7.13900    0.00400   76.50000    0.63000   22.00000
    7.21300    0.00500    3.70000    0.71000    8.00000
    7.21300    0.00500    9.20000    0.83000   11.00000
    7.21300    0.00500   14.10000    0.73000   10.00000
    7.21300    0.00500   19.40000    0.59000    7.00000
    7.21300    0.00500   25.10000    0.54000   11.00000
    7.21300    0.00500   29.80000    0.33000   12.00000
    7.21300    0.00500   35.30000    0.22000   23.00000
    7.21300    0.00500   40.60000    0.13000   40.00000
    7.21300    0.00500   45.50000    0.15000   30.00000
    7.21300    0.00500   50.70000    0.20000   30.00000
    7.21300    0.00500   61.90000    0.24000   25.00000
    7.21300    0.00500   71.60000    0.13000   40.00000
    7.21300    0.00500   82.00000    0.25000   24.00000
    7.90100    0.00400    0.00000    5.40000    4.00000
    7.90100    0.00400    9.70000    4.91000
    7.90100    0.00400   24.90000    2.64000    3.00000
    7.90100    0.00400   30.90000    1.81000   13.00000
    7.90100    0.00400   41.70000    0.87000   13.00000
    7.90100    0.00400   45.80000    0.79000    5.00000
    7.90100    0.00400   51.80000    0.64000   13.00000
    7.90100    0.00400   62.50000    0.80000    9.00000
    7.90100    0.00400   72.70000    0.50000   12.00000
    7.90100    0.00400   83.20000    0.25000   20.00000
    8.05000    0.00400    1.62000    1.15000   10.00000
    8.05000    0.00400    6.69000    1.01000   12.00000
    8.05000    0.00400   11.77000    1.03000   13.00000
    8.05000    0.00400   17.33000    0.93000   11.00000
    8.05000    0.00400   22.64000    0.72000   11.00000
    8.05000    0.00400   27.71000    0.67000    9.00000
    8.05000    0.00400   33.26000    0.55000   15.00000
    8.05000    0.00400   38.57000    0.46000   26.00000
    8.05000    0.00400   53.80000    0.38000   24.00000
    8.05000    0.00400   64.44000    0.32000   28.00000
    8.05000    0.00400   74.84000    0.31000   23.00000
    8.05000    0.00400   85.23000    0.26000   30.00000
    8.25100    0.00400    1.06000    1.47000   10.00000
    8.25100    0.00400    2.98000    1.27000    4.00000
    8.25100    0.00400    6.13000    1.23000   11.00000
    8.25100    0.00400   11.20000    1.06000   10.00000
    8.25100    0.00400   16.99000    0.90000   12.00000
    8.25100    0.00400   22.06000    0.74000   14.00000
    8.25100    0.00400   27.37000    0.67000   13.00000
    8.25100    0.00400   32.67000    0.46000   15.00000
    8.25100    0.00400   38.00000    0.47000   17.00000
    8.25100    0.00400   43.33000    0.52000   17.00000
    8.25100    0.00400   48.08000    0.18000   50.00000
    8.25100    0.00400   53.70000    0.32000   28.00000
    8.25100    0.00400   74.98000    0.29000   24.00000
    8.56400    0.00700    0.00000    2.05000   11.00000
    8.56400    0.00700    5.77000    1.69000    9.00000
    8.56400    0.00700   11.10000    1.71000    9.00000
    8.56400    0.00700   16.66000    1.58000    8.00000
    8.56400    0.00700   21.95000    1.11000    9.00000
    8.56400    0.00700   27.26000    0.87000   10.00000
    8.56400    0.00700   32.30000    0.53000   19.00000
    8.56400    0.00700   37.59000    0.34000   26.00000
    8.56400    0.00700   42.70000    0.48000   19.00000
    8.56400    0.00700   48.04000    0.60000   18.00000
    8.56400    0.00700   53.36000    0.56000   16.00000
    8.56400    0.00700   63.75000    0.43000   19.00000
    8.56400    0.00700   74.15000    0.43000   21.00000
    8.56400    0.00700   84.05000    0.31000   40.00000
ENDDATA            201
ENDSUBENT          239
SUBENT        O1780003   20091007   20100809   20100806       O041
BIB                  5         10
REACTION   (14-SI-30(D,N)15-P-31,PAR,DA) Figure 2.
CORRECTION The absolute differential cross sections were corrected
           by about 15% for neutron absorption in the wall of the
           scattering chamber and in the air along the flight
           path.
SAMPLE     The Si-30 target consisted of a layers of 95 mug/cm**2
           SiO(2) enriched to 95.5% in Si-30 on a 0.5 mm gold
           backing.
EN-SEC     (E-LVL,15-P-31)
ERR-ANALYS (E-LVL-ERR).The uncertainty is measured by authors.
ENDBIB              10
COMMON               3          3
E-LVL-ERR  ANG-ERR-D  ERR-DIG
MEV        ADEG       PER-CENT
0.004      0.4        1.6
ENDCOMMON            3
DATA                 5         22
E-LVL      E-LVL      ANG-CM     DATA-CM    ERR-S
MEV        MEV        ADEG       MB/SR      PER-CENT
    6.59000    6.61000    0.00000    0.71000    6.00000
    6.59000    6.61000    6.40000    0.69000    9.00000
    6.59000    6.61000   11.40000    1.02000    9.00000
    6.59000    6.61000   16.40000    0.95000    8.00000
    6.59000    6.61000   21.80000    0.83000   10.00000
    6.59000    6.61000   27.30000    0.84000    5.00000
    6.59000    6.61000   32.60000    0.76000    9.00000
    6.59000    6.61000   37.40000    0.80000   13.00000
    6.59000    6.61000   43.20000    0.47000    9.00000
    6.59000    6.61000   48.30000    0.54000   13.00000
    6.59000    6.61000   53.30000    0.47000   13.00000
    6.59000    6.61000   63.40000    0.40000   10.00000
    6.59000    6.61000   73.80000    0.40000   13.00000
    6.59000    6.61000   83.60000    0.30000   13.00000
    6.91000    6.92000    0.00000    1.91000
    6.91000    6.92000    7.80000    2.10000    6.00000
    6.91000    6.92000   12.90000    1.93000   10.00000
    6.91000    6.92000   23.20000    2.03000    9.00000
    6.91000    6.92000   28.80000    1.76000   10.00000
    6.91000    6.92000   65.40000    0.55000   15.00000
    6.91000    6.92000   75.00000    0.32000   16.00000
    6.91000    6.92000   85.60000    0.20000   20.00000
ENDDATA             24
ENDSUBENT           43
SUBENT        O1780004   20091007   20100809   20100806       O041
BIB                  5         32
REACTION   (15-P-31(D,N)16-S-32,PAR,DA) Figure 5,6,7
SAMPLE     The P-31 target was prepared by evaporation of red
           phosphorus on a 0.5 mm gold backing. The target
           thickness was about 190 mug/cm**2.
EN-SEC     (E-LVL,16-S-32)
LEVEL-PROP (16-S-32,E-LVL=0.000,SPIN=0.0,PARITY=+1.)
           (16-S-32,E-LVL=2.226,SPIN=2.0,PARITY=+1.)
           (16-S-32,E-LVL=3.775,SPIN=0.0,PARITY=+1.)
           (16-S-32,E-LVL=4.695,SPIN=1.0,PARITY=+1.)
           (16-S-32,E-LVL=5.007,SPIN=3.0,PARITY=-1.)
           (16-S-32,E-LVL=5.551,SPIN=2.0,PARITY=+1.)
           (16-S-32,E-LVL=5.801,SPIN=1.0,PARITY=-1.)
           (16-S-32,E-LVL=6.228,SPIN=2.0,PARITY=-1.)
           (16-S-32,E-LVL=6.624,SPIN=4.0,PARITY=-1.)
           (16-S-32,E-LVL=7.005,SPIN=1.0,PARITY=+1.)
           (16-S-32,E-LVL=7.118,SPIN=2.0,PARITY=+1.)
           (16-S-32,E-LVL=7.195,SPIN=1.0,PARITY=+1.)
           (16-S-32,E-LVL=7.431,SPIN=0.0/2.0,PARITY=-1.)
           (16-S-32,E-LVL=7.539,SPIN=0.0,PARITY=+1.)
           (16-S-32,E-LVL=7.887,SPIN=0.0/2.0,PARITY=-1.)
           (16-S-32,E-LVL=8.128,SPIN=1.0,PARITY=+1.)
           (16-S-32,E-LVL=8.501,SPIN=0.0/2.0,PARITY=-1.)
           (16-S-32,E-LVL=9.060,SPIN=0.0/2.0,PARITY=-1.)
           (16-S-32,E-LVL=9.210,SPIN=1.0,PARITY=+1.)
           (16-S-32,E-LVL=9.241,SPIN=1.0,PARITY=-1.)
           (16-S-32,E-LVL=9.288,SPIN=1.0,PARITY=+1.)
           (16-S-32,E-LVL=9.389,SPIN=2.0,PARITY=-1.)
           (16-S-32,E-LVL=9.483,SPIN=1.0,PARITY=-1.)
           (16-S-32,E-LVL=9.728,SPIN=1.0,PARITY=-1.)
           (16-S-32,E-LVL=9.846,SPIN=1.0,PARITY=-1.)
           (16-S-32,E-LVL=10.327,SPIN=1.0,PARITY=-1.)
ERR-ANALYS (E-LVL-ERR).The uncertainty is measured by authors.
ENDBIB              32
COMMON               2          3
ANG-ERR-D  ERR-DIG
ADEG       PER-CENT
0.5        2.1
ENDCOMMON            3
DATA                 5        471
E-LVL      E-LVL-ERR  ANG-CM     DATA-CM    ERR-S
MEV        MEV        ADEG       MB/SR      PER-CENT
    0.00000               0.00000    7.02000    5.30000
    0.00000               5.20000    5.34000
    0.00000              10.40000    3.74000
    0.00000              15.80000    2.06000
    0.00000              21.50000    0.68000    6.00000
    0.00000              27.50000    0.23000   12.00000
    0.00000              32.00000    0.20100   10.00000
    0.00000              37.30000    0.34500    7.00000
    0.00000              42.30000    0.55000    7.00000
    0.00000              47.50000    0.51000    8.00000
    0.00000              52.80000    0.42000   10.00000
    0.00000              58.00000    0.35000    7.00000
    0.00000              63.20000    0.31600    7.00000
    0.00000              73.40000    0.20300   12.00000
    0.00000              84.10000    0.09400   15.00000
    0.00000             105.00000    0.05500   15.00000
    2.22600    0.00800    0.00000    0.49000    6.00000
    2.22600    0.00800    5.60000    0.43200    4.00000
    2.22600    0.00800   13.60000    0.44700    6.00000
    2.22600    0.00800   18.20000    0.58900
    2.22600    0.00800   23.30000    0.82000    7.00000
    2.22600    0.00800   28.40000    0.98800
    2.22600    0.00800   33.50000    1.04100
    2.22600    0.00800   39.10000    0.86100
    2.22600    0.00800   44.10000    0.61000    5.00000
    2.22600    0.00800   49.80000    0.38300    7.00000
    2.22600    0.00800   55.20000    0.22900    6.00000
    2.22600    0.00800   60.20000    0.16800    9.00000
    2.22600    0.00800   65.00000    0.15100   16.00000
    2.22600    0.00800   75.50000    0.29000   10.00000
    2.22600    0.00800   86.30000    0.19900    9.00000
    2.22600    0.00800  106.70000    0.18300   11.00000
    3.77500    0.00700    0.00000    4.45000
    3.77500    0.00700    5.90000    3.50000
    3.77500    0.00700   14.00000    2.66000
    3.77500    0.00700   19.10000    1.41000    2.80000
    3.77500    0.00700   25.10000    0.48700
    3.77500    0.00700   30.50000    0.13200   12.00000
    3.77500    0.00700   37.30000    0.04000   23.00000
    3.77500    0.00700   41.30000    0.11200   17.00000
    3.77500    0.00700   45.80000    0.18400    9.00000
    3.77500    0.00700   51.00000    0.19700   13.00000
    3.77500    0.00700   57.40000    0.14300    9.00000
    3.77500    0.00700   61.90000    0.12900   12.00000
    3.77500    0.00700   67.20000    0.08800   14.00000
    3.77500    0.00700   77.70000    0.07300   19.00000
    3.77500    0.00700   88.00000    0.08400   17.00000
    3.77500    0.00700  108.90000    0.04800   17.00000
    4.69500    0.00500    5.30000    0.27600   11.00000
    4.69500    0.00500    8.30000    0.22000    6.00000
    4.69500    0.00500   13.70000    0.28900    5.00000
    4.69500    0.00500   18.00000    0.38000    8.00000
    4.69500    0.00500   23.00000    0.51600    5.00000
    4.69500    0.00500   28.50000    0.65400    4.00000
    4.69500    0.00500   33.60000    0.66000    5.00000
    4.69500    0.00500   38.50000    0.66000    5.00000
    4.69500    0.00500   43.70000    0.51000    6.00000
    4.69500    0.00500   49.50000    0.33000    6.00000
    4.69500    0.00500   54.50000    0.21000    7.00000
    4.69500    0.00500   60.30000    0.11800   11.00000
    4.69500    0.00500   65.70000    0.06100   18.00000
    4.69500    0.00500   75.90000    0.09200   13.00000
    4.69500    0.00500   85.80000    0.10700   11.00000
    4.69500    0.00500  106.70000    0.06400   19.00000
    5.00700    0.00600    0.00000    0.37400    6.00000
    5.00700    0.00600    5.20000    0.29300    6.00000
    5.00700    0.00600   10.30000    0.34800    5.00000
    5.00700    0.00600   14.80000    0.32500    7.00000
    5.00700    0.00600   20.60000    0.40000    6.00000
    5.00700    0.00600   25.30000    0.50100
    5.00700    0.00600   30.00000    0.62000    6.00000
    5.00700    0.00600   35.50000    0.68400
    5.00700    0.00600   40.70000    0.60500    4.00000
    5.00700    0.00600   45.50000    0.62000    5.00000
    5.00700    0.00600   50.80000    0.52000    6.00000
    5.00700    0.00600   56.00000    0.45000    5.00000
    5.00700    0.00600   61.80000    0.29200    7.00000
    5.00700    0.00600   72.20000    0.25800   11.00000
    5.00700    0.00600   81.80000    0.21700
    5.00700    0.00600  102.40000    0.27600    9.00000
    5.55100    0.00600    0.00000    0.21600    5.00000
    5.55100    0.00600    5.90000    0.15800    9.00000
    5.55100    0.00600   10.70000    0.19800    9.00000
    5.55100    0.00600   15.70000    0.24700    9.00000
    5.55100    0.00600   21.10000    0.26200    8.00000
    5.55100    0.00600   26.50000    0.25200   12.00000
    5.55100    0.00600   31.50000    0.26400    6.00000
    5.55100    0.00600   37.30000    0.22500   10.00000
    5.55100    0.00600   42.10000    0.16500   12.00000
    5.55100    0.00600   47.70000    0.09400   17.00000
    5.55100    0.00600   53.00000    0.11900   10.00000
    5.55100    0.00600   58.20000    0.07600   14.00000
    5.55100    0.00600   68.60000    0.09300   13.00000
    5.55100    0.00600   78.70000    0.11800   11.00000
    5.55100    0.00600   99.30000    0.14100   11.00000
    5.80100    0.00400    0.00000    0.38000    8.00000
    5.80100    0.00400    6.50000    0.52800    4.00000
    5.80100    0.00400   11.40000    1.27000    5.00000
    5.80100    0.00400   15.80000    1.78000
    5.80100    0.00400   21.50000    1.86000
    5.80100    0.00400   26.60000    1.62000
    5.80100    0.00400   32.40000    1.01700
    5.80100    0.00400   37.00000    0.72700
    5.80100    0.00400   42.20000    0.48000    8.00000
    5.80100    0.00400   47.50000    0.53000    6.00000
    5.80100    0.00400   52.60000    0.51000    6.00000
    5.80100    0.00400   58.10000    0.44700    5.00000
    5.80100    0.00400   63.80000    0.33300    7.00000
    5.80100    0.00400   74.10000    0.19300    9.00000
    5.80100    0.00400   84.80000    0.08700   14.00000
    5.80100    0.00400  104.70000    0.15600    9.00000
    6.22800    0.00400    0.00000    0.66000    9.00000
    6.22800    0.00400    7.10000    0.78100
    6.22800    0.00400   12.30000    1.60300
    6.22800    0.00400   17.10000    2.06000
    6.22800    0.00400   22.40000    2.06000
    6.22800    0.00400   27.20000    1.93000
    6.22800    0.00400   33.10000    1.17400
    6.22800    0.00400   38.60000    0.77000    4.00000
    6.22800    0.00400   43.50000    0.48000    6.00000
    6.22800    0.00400   49.10000    0.50000    8.00000
    6.22800    0.00400   54.20000    0.51600    5.00000
    6.22800    0.00400   59.20000    0.67000    4.00000
    6.22800    0.00400   64.40000    0.51000    4.00000
    6.22800    0.00400   75.20000    0.38800    6.00000
    6.22800    0.00400   85.30000    0.18700   11.00000
    6.22800    0.00400  105.90000    0.21900   11.00000
    6.62400    0.00400    0.00000    0.39000   10.00000
    6.62400    0.00400    6.80000    0.33400    7.00000
    6.62400    0.00400   13.20000    0.36000    8.00000
    6.62400    0.00400   18.60000    0.34300    7.00000
    6.62400    0.00400   23.60000    0.45000    7.00000
    6.62400    0.00400   29.10000    0.36000    8.00000
    6.62400    0.00400   34.10000    0.41000   10.00000
    6.62400    0.00400   39.10000    0.54000    6.00000
    6.62400    0.00400   44.30000    0.47000    9.00000
    6.62400    0.00400   50.00000    0.41600    6.00000
    6.62400    0.00400   55.10000    0.39200    6.00000
    6.62400    0.00400   60.10000    0.40900    7.00000
    6.62400    0.00400   65.60000    0.29400    6.00000
    6.62400    0.00400   75.70000    0.35800    8.00000
    6.62400    0.00400   86.60000    0.22000   14.00000
    6.62400    0.00400  107.00000    0.22300    9.00000
    6.67200    0.00800    3.80000    0.07600   17.00000
    6.67200    0.00800    8.90000    0.06100   16.00000
    6.67200    0.00800   14.50000    0.10000   40.00000
    6.67200    0.00800   24.70000    0.26000   12.00000
    6.67200    0.00800   29.80000    0.23000   13.00000
    6.67200    0.00800   35.30000    0.16000   19.00000
    6.67200    0.00800   40.00000    0.20000   15.00000
    6.67200    0.00800   45.50000    0.13500   17.00000
    6.67200    0.00800   50.60000    0.13600   18.00000
    6.67200    0.00800   56.00000    0.15000   30.00000
    6.67200    0.00800   61.50000    0.09800   29.00000
    6.67200    0.00800   71.40000    0.08000   50.00000
    6.67200    0.00800  101.80000    0.12600   12.00000
    7.00500    0.00400   20.00000    0.66000   11.00000
    7.00500    0.00400   25.90000    0.91100
    7.00500    0.00400   30.60000    1.09400
    7.00500    0.00400   35.80000    0.92400
    7.00500    0.00400   40.90000    0.75800
    7.00500    0.00400   45.70000    0.58000    9.00000
    7.00500    0.00400   51.60000    0.33000    4.00000
    7.00500    0.00400   56.80000    0.21600    7.00000
    7.00500    0.00400   62.50000    0.15900   11.00000
    7.00500    0.00400   72.70000    0.15900    6.00000
    7.00500    0.00400   82.60000    0.13800   12.00000
    7.00500    0.00400  102.70000    0.10700   11.00000
    7.11800    0.00400    0.00000    0.38300    8.00000
    7.11800    0.00400    6.50000    0.39000    6.00000
    7.11800    0.00400   11.60000    0.48000    6.00000
    7.11800    0.00400   17.30000    0.83000    6.00000
    7.11800    0.00400   22.10000    1.06300
    7.11800    0.00400   27.60000    1.34000    5.00000
    7.11800    0.00400   38.00000    1.34000    4.00000
    7.11800    0.00400   42.90000    1.05000    7.00000
    7.11800    0.00400   48.20000    0.79300    3.00000
    7.11800    0.00400   53.20000    0.50500    4.00000
    7.11800    0.00400   58.80000    0.35800    6.00000
    7.11800    0.00400   64.40000    0.22800    7.00000
    7.11800    0.00400   74.70000    0.27800    4.00000
    7.11800    0.00400   84.80000    0.25900    9.00000
    7.11800    0.00400  105.00000    0.21400   10.00000
    7.19500    0.00400    0.00000    1.57000
    7.19500    0.00400    6.30000    1.41000
    7.19500    0.00400   12.30000    0.93900
    7.19500    0.00400   18.00000    0.50000   10.00000
    7.19500    0.00400   23.50000    0.18500    9.00000
    7.19500    0.00400   28.50000    0.11600   23.00000
    7.19500    0.00400   33.70000    0.08000   50.00000
    7.19500    0.00400   49.40000    0.20000   14.00000
    7.19500    0.00400   54.30000    0.17400    7.00000
    7.19500    0.00400   58.60000    0.13900   12.00000
    7.19500    0.00400   64.80000    0.12900    9.00000
    7.19500    0.00400   75.60000    0.09800   16.00000
    7.19500    0.00400   85.80000    0.05000   40.00000
    7.19500    0.00400  105.50000    0.07600   17.00000
    7.43100    0.00500    0.00000    0.72000    8.00000
    7.43100    0.00500    6.40000    0.79000    4.00000
    7.43100    0.00500   13.50000    1.29000    4.00000
    7.43100    0.00500   18.90000    1.62000    4.00000
    7.43100    0.00500   24.20000    1.50000
    7.43100    0.00500   29.40000    1.06100
    7.43100    0.00500   34.60000    1.05000    5.00000
    7.43100    0.00500   39.60000    0.66000    6.00000
    7.43100    0.00500   44.90000    0.46100    7.00000
    7.43100    0.00500   49.60000    0.30600    8.00000
    7.43100    0.00500   55.50000    0.28000    6.00000
    7.43100    0.00500   61.30000    0.28900   10.00000
    7.43100    0.00500   75.50000    0.38000    8.00000
    7.43100    0.00500   85.30000    0.28000   14.00000
    7.43100    0.00500  105.80000    0.20100    9.00000
    7.53900    0.00400    0.00000    3.65000
    7.53900    0.00400    8.00000    3.09000
    7.53900    0.00400   13.60000    2.15000
    7.53900    0.00400   18.60000    1.30900
    7.53900    0.00400   24.00000    0.54600
    7.53900    0.00400   29.20000    0.18700
    7.53900    0.00400   34.40000    0.05700   40.00000
    7.53900    0.00400   39.70000    0.12600   24.00000
    7.53900    0.00400   44.70000    0.26100   10.00000
    7.53900    0.00400   50.20000    0.24600    8.00000
    7.53900    0.00400   55.50000    0.20300    8.00000
    7.53900    0.00400   60.40000    0.16400   12.00000
    7.53900    0.00400   65.60000    0.14800   13.00000
    7.53900    0.00400   86.10000    0.12600   16.00000
    7.53900    0.00400   96.80000    0.15600    1.90000
    7.53900    0.00400  106.30000    0.10800   11.00000
    7.88700    0.00400    0.00000    0.49900    6.00000
    7.88700    0.00400    5.00000    0.67000    6.00000
    7.88700    0.00400   10.80000    0.74000    5.00000
    7.88700    0.00400   15.40000    0.74000    7.00000
    7.88700    0.00400   21.30000    0.71000    6.00000
    7.88700    0.00400   27.50000    0.59400    5.00000
    7.88700    0.00400   32.90000    0.36600    8.00000
    7.88700    0.00400   38.20000    0.31600    9.00000
    7.88700    0.00400   43.60000    0.21400   10.00000
    7.88700    0.00400   49.10000    0.19500    8.00000
    7.88700    0.00400   54.50000    0.13200   11.00000
    7.88700    0.00400   59.60000    0.18400   10.00000
    7.88700    0.00400   64.50000    0.20500   10.00000
    7.88700    0.00400   75.00000    0.17200   12.00000
    7.88700    0.00400   85.50000    0.14700   14.00000
    7.88700    0.00400  105.60000    0.15700   11.00000
    8.12800    0.00300    0.00000    7.00000    4.00000
    8.12800    0.00300    5.80000    5.91000
    8.12800    0.00300   11.20000    4.32000
    8.12800    0.00300   15.20000    2.57000
    8.12800    0.00300   20.00000    1.09400
    8.12800    0.00300   25.70000    0.30600
    8.12800    0.00300   31.70000    0.12500    9.00000
    8.12800    0.00300   36.80000    0.19700   10.00000
    8.12800    0.00300   40.60000    0.30700    8.00000
    8.12800    0.00300   46.80000    0.43000    9.00000
    8.12800    0.00300   50.70000    0.44000    7.00000
    8.12800    0.00300   57.30000    0.39000    8.00000
    8.12800    0.00300   62.60000    0.30700    7.00000
    8.12800    0.00300   73.10000    0.22600    9.00000
    8.12800    0.00300   83.10000    0.15600   10.00000
    8.12800    0.00300  103.70000    0.08100   15.00000
    8.50100    0.00300    0.00000    2.46000    7.00000
    8.50100    0.00300    5.00000    2.40000
    8.50100    0.00300   12.20000    2.42000
    8.50100    0.00300   17.40000    2.66000
    8.50100    0.00300   23.20000    2.42000
    8.50100    0.00300   28.20000    2.03000
    8.50100    0.00300   33.60000    1.43500
    8.50100    0.00300   38.90000    0.98800    2.70000
    8.50100    0.00300   44.60000    0.71000    4.00000
    8.50100    0.00300   60.00000    0.59000    7.00000
    8.50100    0.00300   65.60000    0.50400    4.00000
    8.50100    0.00300   75.50000    0.49600    4.00000
    8.50100    0.00300   86.10000    0.33700    8.00000
    8.50100    0.00300  106.40000    0.37700    7.00000
    9.06000    0.00300    0.00000    1.54000   10.00000
    9.06000    0.00300    5.10000    1.51000    8.00000
    9.06000    0.00300   10.50000    1.31000    7.00000
    9.06000    0.00300   13.40000    1.38000    6.00000
    9.06000    0.00300   20.00000    1.15000    3.00000
    9.06000    0.00300   26.50000    0.99000    4.00000
    9.06000    0.00300   31.90000    0.66600
    9.06000    0.00300   37.50000    0.49200    4.00000
    9.06000    0.00300   42.80000    0.32700    8.00000
    9.06000    0.00300   48.50000    0.24800   12.00000
    9.06000    0.00300   53.70000    0.27500   10.00000
    9.06000    0.00300   74.20000    0.31000   13.00000
    9.06000    0.00300   84.50000    0.22800    8.00000
    9.06000    0.00300  104.90000    0.18100   13.00000
    9.21000    0.00400    0.00000    1.23000    8.00000
    9.21000    0.00400    3.20000    0.88000    8.00000
    9.21000    0.00400    8.80000    0.72000    7.00000
    9.21000    0.00400   14.40000    0.48000    6.00000
    9.21000    0.00400   19.80000    0.33000   27.00000
    9.21000    0.00400   25.40000    0.23900   11.00000
    9.21000    0.00400   31.00000    0.21000   30.00000
    9.21000    0.00400   35.70000    0.15800   17.00000
    9.21000    0.00400   41.80000    0.15700   11.00000
    9.21000    0.00400   46.80000    0.14400   12.00000
    9.21000    0.00400   51.70000    0.16300   17.00000
    9.21000    0.00400   57.10000    0.09500   19.00000
    9.21000    0.00400   62.10000    0.17000   24.00000
    9.21000    0.00400   72.20000    0.09100   20.00000
    9.21000    0.00400   82.50000    0.13100   15.00000
    9.21000    0.00400  103.10000    0.05700   23.00000
    9.24100    0.00400    0.00000    0.72000    8.00000
    9.24100    0.00400    5.10000    0.81000    6.00000
    9.24100    0.00400   10.00000    0.78000    8.00000
    9.24100    0.00400   15.30000    0.75000    4.00000
    9.24100    0.00400   20.70000    0.72000   15.00000
    9.24100    0.00400   26.00000    0.66000    9.00000
    9.24100    0.00400   30.80000    0.46000   15.00000
    9.24100    0.00400   36.20000    0.42000   10.00000
    9.24100    0.00400   41.90000    0.32800    7.00000
    9.24100    0.00400   47.20000    0.31800    7.00000
    9.24100    0.00400   52.30000    0.30800    6.00000
    9.24100    0.00400   57.30000    0.35700    8.00000
    9.24100    0.00400   62.70000    0.21000   19.00000
    9.24100    0.00400   72.50000    0.30800    8.00000
    9.24100    0.00400   83.00000    0.23800    6.00000
    9.24100    0.00400  103.50000    0.15000   14.00000
    9.28800    0.00400    0.00000    0.66000   12.00000
    9.28800    0.00400    5.40000    0.53000    9.00000
    9.28800    0.00400   10.30000    0.40000   10.00000
    9.28800    0.00400   15.40000    0.28000   14.00000
    9.28800    0.00400   21.70000    0.22000   30.00000
    9.28800    0.00400   26.80000    0.22400   12.00000
    9.28800    0.00400   32.00000    0.15000   70.00000
    9.28800    0.00400   37.30000    0.15000   27.00000
    9.28800    0.00400   42.70000    0.15000   27.00000
    9.28800    0.00400   48.10000    0.16000   12.00000
    9.28800    0.00400   52.60000    0.16400   13.00000
    9.28800    0.00400   58.30000    0.10900   22.00000
    9.28800    0.00400   63.70000    0.08000   40.00000
    9.28800    0.00400   73.60000    0.08500   30.00000
    9.28800    0.00400   84.10000    0.10700   18.00000
    9.28800    0.00400  104.50000    0.06200   40.00000
    9.38900    0.00300    0.00000    4.90000    6.00000
    9.38900    0.00300    2.30000    4.94000
    9.38900    0.00300    6.40000    5.29000
    9.38900    0.00300   11.50000    5.06000
    9.38900    0.00300   17.20000    4.39000    4.00000
    9.38900    0.00300   26.40000    2.75000    4.00000
    9.38900    0.00300   32.10000    1.78000    4.00000
    9.38900    0.00300   37.80000    0.96000    6.00000
    9.38900    0.00300   42.60000    0.72400
    9.38900    0.00300   48.00000    0.76300
    9.38900    0.00300   53.10000    0.73000
    9.38900    0.00300   58.50000    0.79000    5.00000
    9.38900    0.00300   63.90000    0.77000    5.00000
    9.38900    0.00300   74.70000    0.60000    7.00000
    9.38900    0.00300   84.60000    0.36800    7.00000
    9.38900    0.00300  105.30000    0.29500    7.00000
    9.48300    0.00400    0.00000    1.55000    6.00000
    9.48300    0.00400    7.20000    1.42000    8.00000
    9.48300    0.00400   13.60000    1.28000    5.00000
    9.48300    0.00400   18.40000    1.32000    7.00000
    9.48300    0.00400   29.50000    0.96000   11.00000
    9.48300    0.00400   35.00000    0.47000    9.00000
    9.48300    0.00400   40.10000    0.47100    5.00000
    9.48300    0.00400   45.80000    0.32000   13.00000
    9.48300    0.00400   50.90000    0.27000   15.00000
    9.48300    0.00400   61.10000    0.22400   13.00000
    9.48300    0.00400   76.60000    0.25000   16.00000
    9.48300    0.00400   87.40000    0.19000   16.00000
    9.48300    0.00400  107.20000    0.21200   13.00000
    9.72800    0.00400    0.00000    1.63000
    9.72800    0.00400    5.90000    1.90000
    9.72800    0.00400   14.80000    1.77000
    9.72800    0.00400   20.10000    1.61000
    9.72800    0.00400   24.70000    1.23000    4.00000
    9.72800    0.00400   29.10000    0.99000    7.00000
    9.72800    0.00400   33.50000    0.75900
    9.72800    0.00400   38.90000    0.50400
    9.72800    0.00400   40.30000    0.43100    6.00000
    9.72800    0.00400   45.10000    0.41300    6.00000
    9.72800    0.00400   52.50000    0.51000    5.00000
    9.72800    0.00400   62.60000    0.51000    6.00000
    9.72800    0.00400   83.70000    0.23100   12.00000
    9.72800    0.00400  105.10000    0.27300   11.00000
    9.84600    0.00400    5.80000    0.63500    3.00000
    9.84600    0.00400   10.60000    0.64200
    9.84600    0.00400   12.70000    0.58000    7.00000
    9.84600    0.00400   15.70000    0.55800    1.80000
    9.84600    0.00400   21.70000    0.42000    7.00000
    9.84600    0.00400   27.90000    0.40400    6.00000
    9.84600    0.00400   33.50000    0.23000   13.00000
    9.84600    0.00400   38.50000    0.14000   15.00000
    9.84600    0.00400   44.10000    0.10900   16.00000
    9.84600    0.00400   48.80000    0.10300   14.00000
    9.84600    0.00400   54.10000    0.09700   13.00000
    9.84600    0.00400   59.70000    0.07100   40.00000
    9.84600    0.00400   83.90000    0.06000   70.00000
    9.84600    0.00400  103.90000    0.05000   24.00000
   10.07300    0.00300    0.00000    7.96000
   10.07300    0.00300    5.00000    7.72000
   10.07300    0.00300   10.00000    7.59000
   10.07300    0.00300   15.20000    6.87000
   10.07300    0.00300   21.10000    5.72000
   10.07300    0.00300   31.00000    2.88000
   10.07300    0.00300   36.00000    1.70000    5.00000
   10.07300    0.00300   41.30000    1.34000    5.00000
   10.07300    0.00300   46.60000    1.35000    5.00000
   10.07300    0.00300   51.50000    1.10000    5.00000
   10.07300    0.00300   57.10000    1.29000    3.00000
   10.07300    0.00300   62.10000    1.02000
   10.07300    0.00300   72.40000    1.04000    4.00000
   10.07300    0.00300   82.40000    0.50000    8.00000
   10.07300    0.00300  102.90000    0.41000    7.00000
   10.25300    0.00400    0.00000    1.43000    8.00000
   10.25300    0.00400    5.80000    1.62000    3.00000
   10.25300    0.00400   11.20000    1.58000    5.00000
   10.25300    0.00400   16.30000    1.65000    4.00000
   10.25300    0.00400   21.80000    1.60000    4.00000
   10.25300    0.00400   27.20000    1.48000    5.00000
   10.25300    0.00400   32.40000    1.40000    4.00000
   10.25300    0.00400   37.60000    1.00000    5.00000
   10.25300    0.00400   42.80000    0.75000    5.00000
   10.25300    0.00400   48.10000    0.98000    4.00000
   10.25300    0.00400   53.30000    0.67000    4.00000
   10.25300    0.00400   58.40000    0.68000    6.00000
   10.25300    0.00400   63.60000    0.50000    5.00000
   10.25300    0.00400   75.80000    0.41100    5.00000
   10.25300    0.00400   85.00000    0.20000   10.00000
   10.25300    0.00400  105.40000    0.24500   12.00000
   10.28600    0.00400    0.00000    0.83000    8.00000
   10.28600    0.00400    5.40000    0.90000    8.00000
   10.28600    0.00400   10.50000    0.77000    6.00000
   10.28600    0.00400   16.20000    0.86000    7.00000
   10.28600    0.00400   21.40000    0.81000    5.00000
   10.28600    0.00400   26.80000    0.75000    8.00000
   10.28600    0.00400   32.00000    0.59000    7.00000
   10.28600    0.00400   37.50000    0.41600    6.00000
   10.28600    0.00400   42.60000    0.42000    7.00000
   10.28600    0.00400   48.00000    0.40600    7.00000
   10.28600    0.00400   52.90000    0.35700    8.00000
   10.28600    0.00400   58.30000    0.36300    7.00000
   10.28600    0.00400   63.50000    0.30600    8.00000
   10.28600    0.00400   75.00000    0.26600    9.00000
   10.28600    0.00400   84.20000    0.12400   13.00000
   10.28600    0.00400  105.60000    0.15700   17.00000
   10.32700    0.00400    4.70000    2.46000
   10.32700    0.00400   10.00000    2.29000
   10.32700    0.00400   14.70000    1.78000
   10.32700    0.00400   20.30000    1.59000
   10.32700    0.00400   25.60000    1.13600
   10.32700    0.00400   31.20000    0.61000    8.00000
   10.32700    0.00400   36.40000    0.41000   15.00000
   10.32700    0.00400   41.40000    0.28000   14.00000
   10.32700    0.00400   47.00000    0.50000   10.00000
   10.32700    0.00400   52.30000    0.44300    7.00000
   10.32700    0.00400   57.00000    0.50100    6.00000
   10.32700    0.00400   62.00000    0.41000   10.00000
   10.32700    0.00400   72.00000    0.43000    9.00000
   10.32700    0.00400   82.80000    0.23400   12.00000
   10.32700    0.00400  103.10000    0.16600   12.00000
   10.39400    0.00400    0.00000    1.48000   11.00000
   10.39400    0.00400    5.70000    1.63000   12.00000
   10.39400    0.00400   11.10000    1.37000   12.00000
   10.39400    0.00400   16.40000    1.22000   13.00000
   10.39400    0.00400   21.50000    1.25000    7.00000
   10.39400    0.00400   27.10000    1.07000    4.00000
   10.39400    0.00400   31.70000    0.59000   14.00000
   10.39400    0.00400   37.30000    0.46000    7.00000
   10.39400    0.00400   42.50000    0.25000   24.00000
   10.39400    0.00400   47.90000    0.35000   20.00000
   10.39400    0.00400   52.70000    0.30000   13.00000
   10.39400    0.00400   58.30000    0.30000   13.00000
   10.39400    0.00400   63.30000    0.19000   30.00000
   10.39400    0.00400   73.20000    0.28000   18.00000
   10.39400    0.00400   84.00000    0.10000   40.00000
   10.39400    0.00400  103.90000    0.09000   30.00000
ENDDATA            473
ENDSUBENT          514
SUBENT        O1780005   20091007   20100809   20100806       O041
BIB                  3          5
REACTION   (15-P-31(D,N)16-S-32,PAR,DA) Figure 7
SAMPLE     The P-31 target was prepared by evaporation of red
           phosphorus on a 0.5 mm gold backing. The target
           thickness was about 190 mug/cm**2.
EN-SEC     (E-LVL,16-S-32)
ENDBIB               5
COMMON               4          3
E-LVL      E-LVL      ANG-ERR-D  ERR-DIG
MEV        MEV        ADEG       PER-CENT
10.22      10.23      0.5        2.1
ENDCOMMON            3
DATA                 3         16
ANG-CM     DATA-CM    ERR-S
ADEG       MB/SR      PER-CENT
        0.0         1.        10.
        5.2       1.17         4.
       10.6      1.277
       15.7       1.16         4.
       21.1        1.1         5.
        25.       0.99         6.
       30.7         1.         4.
       35.9       0.71         4.
       42.1      0.611         4.
       46.9      0.594         4.
       52.7       0.51         5.
       57.7      0.571         5.
        63.       0.36         7.
       73.9      0.305         6.
        83.      0.141         9.
      103.4      0.198        13.
ENDDATA             18
ENDSUBENT           32
ENDENTRY             5
