ENTRY            O1795   20091129   20100809   20100806       O041
SUBENT        O1795001   20091129   20100809   20100806       O041
BIB                 14         31
TITLE      Nuclear structure studies with pick-up reactions on
           even tellurium nuclei-The Te-128(d,t) and Te-128(He3,a)
           reactions.
AUTHOR     (T.Roedland, J.R.Lien, G.Loevhoeiden, J.S.Vaagen,
           V.Oeygaard, C.Ellegaard)
INSTITUTE  (2NORBGN)
           (2DENNBI)
REFERENCE  (J,PS,32,201,1985)
FACILITY   (VDGT,2DENNBI)
DETECTOR   (MAGSP) multiangle magnetic spectrograph
           (SI) monitor detector at fixed geometry, recording
           elastically scattered particles.
INC-SOURCE *E-RSL-FW*.Energy resolution.
MONITOR    Cross section normalization was obtained through
           comparison of the measured yield of elastically
           scattered particles to the elastic scattering cross
           section calculated from the DWBA .
SAMPLE     Target material was Te-128, isotopic enrichment 99,19%,
           Te-120 less than 0.04%, Te-122 0.01%, Te-123 0.02%,
           Te-124 0.03%, Te-125 0.04%, Te-126 0.17%, Te-130 0.54%.
           The effective thickness of the rotating target was
           found to be about 50 mug/cm**2.
ADD-RES    (COMP).DWBA analysis.
           (POT).Spectroscopic factors were deduced.
           Triton and alpha spectrum were observed.
ERR-ANALYS (ANG-ERR-D) Angle digitizing error
           (ERR-DIG) Data digitizing error
           (ERR-S).Error bars represent statistical uncertainties.
EN-SEC     (E-LVL,52-TE-127)
STATUS     (CURVE).By CAJAD.
HISTORY    (20091129C)SB
ENDBIB              31
COMMON               2          3
ANG-ERR-D  ERR-DIG
ADEG       PER-CENT
0.4        2.4
ENDCOMMON            3
ENDSUBENT           38
SUBENT        O1795002   20091201   20100809   20100806       O041
BIB                  1          1
REACTION   (52-TE-128(D,T)52-TE-127,PAR,DA) Fig.3-4
ENDBIB               1
COMMON               2          3
EN         E-RSL-FW
MEV        KEV
17.        12.
ENDCOMMON            3
DATA                 4        652
E-LVL      ANG-CM     DATA-CM    ERR-S
MEV        ADEG       MB/SR      PER-CENT
    0.00000    8.50000    2.82000    8.00000
    0.00000   13.20000    4.20000   12.00000
    0.00000   23.30000    3.33000    4.00000
    0.00000   28.40000    2.10000    6.00000
    0.00000   33.40000    2.95000    8.00000
    0.00000   38.30000    2.70000    8.00000
    0.00000   43.20000    1.40000    9.00000
    0.00000   48.30000    1.11000    8.00000
    0.00000   53.30000    1.26000    7.00000
    0.00000   58.50000    0.98000    5.00000
    0.00000   63.30000    0.64000    8.00000
    0.00000   68.20000    0.44000   11.00000
    0.00000   73.40000    0.40000    7.00000
    0.00000   78.30000    0.36000   14.00000
    0.06200   12.60000    1.80000    4.00000
    0.06200   27.40000    2.92000   10.00000
    0.06200   32.30000    2.34000    5.00000
    0.06200   36.90000    3.49000    5.00000
    0.06200   42.20000    2.79000    7.00000
    0.06200   47.10000    1.78000    7.00000
    0.06200   52.30000    1.45000    8.00000
    0.06200   57.80000    0.94000    6.00000
    0.06200   62.20000    0.71000    6.00000
    0.06200   67.70000    0.64000    6.00000
    0.06200   72.90000    0.65000    6.00000
    0.06200   77.20000    0.42100    7.00000
    0.08900   12.10000    0.17800    6.00000
    0.08900   22.30000    0.40000    7.00000
    0.08900   27.20000    0.72800
    0.08900   31.80000    1.03500
    0.08900   36.70000    0.94000    6.00000
    0.08900   42.20000    0.70000
    0.08900   47.10000    0.49000
    0.08900   52.40000    0.51300
    0.08900   57.00000    0.42200
    0.08900   62.20000    0.32100
    0.08900   67.10000    0.24700    8.00000
    0.08900   72.60000    0.22000
    0.08900   76.90000    0.23100
    0.34000   12.50000    0.00590   30.00000
    0.34000   27.70000    0.01490   13.00000
    0.34000   32.60000    0.01710   11.00000
    0.34000   37.20000    0.01310   14.00000
    0.34000   42.40000    0.01000   30.00000
    0.34000   47.30000    0.00690   29.00000
    0.34000   52.60000    0.01180   14.00000
    0.34000   57.40000    0.00390   23.00000
    0.34000   62.30000    0.00490   18.00000
    0.34000   67.60000    0.00580   17.00000
    0.47500    6.60000    0.01100   17.00000
    0.47500   11.80000    0.01000   22.00000
    0.47500   16.50000    0.01200   18.00000
    0.47500   22.00000    0.01080   17.00000
    0.47500   27.00000    0.00710   13.00000
    0.47500   32.00000    0.00590   17.00000
    0.47500   36.90000    0.00590   19.00000
    0.47500   41.60000    0.00590   19.00000
    0.47500   47.10000    0.00300   30.00000
    0.47500   57.30000    0.00210   50.00000
    0.47500   62.30000    0.00400   27.00000
    0.47500   67.00000    0.00200   50.00000
    0.50300    7.20000    0.09400    7.00000
    0.50300   12.40000    0.10100    6.00000
    0.50300   17.40000    0.10300    7.00000
    0.50300   22.00000    0.07100   11.00000
    0.50300   27.00000    0.05100    8.00000
    0.50300   32.50000    0.06800    6.00000
    0.50300   37.20000    0.04700   11.00000
    0.50300   42.70000    0.02900   10.00000
    0.50300   47.40000    0.02630    6.00000
    0.50300   52.30000    0.03630    8.00000
    0.50300   57.80000    0.02120   11.00000
    0.50300   62.80000    0.01280   15.00000
    0.50300   67.70000    0.00920    9.00000
    0.50300   73.00000    0.01300   16.00000
    0.60300    6.70000    0.01510   13.00000
    0.60300   11.90000    0.03000   13.00000
    0.60300   17.10000    0.04100   10.00000
    0.60300   22.00000    0.05200   13.00000
    0.60300   26.80000    0.02300   17.00000
    0.60300   32.00000    0.02300   17.00000
    0.60300   37.30000    0.02400   17.00000
    0.60300   42.30000    0.01580   17.00000
    0.60300   47.00000    0.00890   21.00000
    0.60300   52.00000    0.00890   30.00000
    0.60300   57.50000    0.01300   23.00000
    0.60300   61.90000    0.00890   30.00000
    0.60300   72.50000    0.00400   25.00000
    0.60300   77.40000    0.00810   23.00000
    0.63300    7.90000    0.02300   26.00000
    0.63300   13.00000    0.04500    9.00000
    0.63300   17.50000    0.08400    6.00000
    0.63300   22.60000    0.10850
    0.63300   26.90000    0.10350
    0.63300   32.70000    0.06490
    0.63300   37.60000    0.05530
    0.63300   42.40000    0.06200
    0.63300   47.70000    0.03770    8.00000
    0.63300   52.50000    0.03480    7.00000
    0.63300   57.40000    0.03710    7.00000
    0.63300   62.30000    0.03430    8.00000
    0.63300   67.50000    0.02080   10.00000
    0.63300   77.20000    0.01250   15.00000
    0.68700   12.00000    0.00800   30.00000
    0.68700   16.30000    0.02200   18.00000
    0.68700   21.30000    0.04000   13.00000
    0.68700   25.80000    0.05870
    0.68700   31.00000    0.05410
    0.68700   36.30000    0.04530
    0.68700   41.00000    0.03160    8.00000
    0.68700   46.20000    0.03100   10.00000
    0.68700   51.30000    0.04240
    0.68700   56.30000    0.03010    7.00000
    0.68700   61.30000    0.02440    5.00000
    0.68700   66.20000    0.02040    8.00000
    0.68700   70.80000    0.02140    7.00000
    0.68700   76.30000    0.02110   10.00000
    0.76300    9.00000    0.04600   11.00000
    0.76300   18.90000    0.01400   21.00000
    0.76300   23.30000    0.00930   20.00000
    0.76300   27.90000    0.01000   30.00000
    0.76300   33.40000    0.00930   19.00000
    0.76300   38.00000    0.01040   27.00000
    0.76300   42.90000    0.01560   18.00000
    0.76300   48.10000    0.01030   21.00000
    0.76300   58.10000    0.00840   25.00000
    0.76300   62.80000    0.00740   26.00000
    0.76300   68.00000    0.01280   14.00000
    0.76300   72.00000    0.00540   20.00000
    0.76300   77.10000    0.00550   40.00000
    0.78300    7.80000    1.46000    8.00000
    0.78300   12.80000    2.16000    6.00000
    0.78300   18.10000    2.88000    8.00000
    0.78300   22.80000    2.23000    9.00000
    0.78300   27.80000    1.30000    8.00000
    0.78300   32.80000    1.62000    6.00000
    0.78300   38.10000    1.67000    6.00000
    0.78300   43.10000    1.13000   11.00000
    0.78300   48.60000    0.67000    7.00000
    0.78300   53.40000    0.71000    8.00000
    0.78300   59.00000    0.78000    5.00000
    0.78300   63.70000    0.58000    5.00000
    0.78300   68.60000    0.37000   11.00000
    0.78300   73.60000    0.26300    6.00000
    0.78300   79.20000    0.26000   12.00000
    0.92600    7.20000    0.02400   25.00000
    0.92600   12.30000    0.07300    5.00000
    0.92600   16.90000    0.15100    7.00000
    0.92600   21.80000    0.28700    6.00000
    0.92600   26.40000    0.44200    7.00000
    0.92600   31.70000    0.46000    7.00000
    0.92600   36.90000    0.33800    7.00000
    0.92600   41.90000    0.29700    6.00000
    0.92600   46.50000    0.27500    5.00000
    0.92600   51.80000    0.25800    4.00000
    0.92600   57.00000    0.18800    6.00000
    0.92600   61.40000    0.14600    5.00000
    0.92600   67.30000    0.13500    7.00000
    0.92600   72.20000    0.13700    6.00000
    0.92600   76.80000    0.11300    6.00000
    0.96600    7.70000    0.00610   30.00000
    0.96600   12.30000    0.01420   13.00000
    0.96600   17.50000    0.01440   15.00000
    0.96600   22.50000    0.01660   11.00000
    0.96600   27.40000    0.00720   15.00000
    0.96600   32.30000    0.01020   19.00000
    0.96600   37.50000    0.01310   15.00000
    0.96600   42.50000    0.00720   14.00000
    0.96600   47.70000    0.00600   17.00000
    0.96600   52.60000    0.00400   25.00000
    0.96600   62.50000    0.00300   30.00000
    0.96600   68.00000    0.00490   20.00000
    1.07500    8.10000    0.02500   24.00000
    1.07500   13.00000    0.02400   17.00000
    1.07500   17.90000    0.03500   17.00000
    1.07500   22.70000    0.03000   13.00000
    1.07500   27.60000    0.02200   14.00000
    1.07500   32.80000    0.02410   12.00000
    1.07500   37.70000    0.02190    7.00000
    1.07500   42.90000    0.01290   13.00000
    1.07500   47.50000    0.00770   12.00000
    1.07500   52.30000    0.01260   13.00000
    1.07500   57.80000    0.00940   19.00000
    1.07500   62.70000    0.01070   17.00000
    1.07500   68.20000    0.00280   40.00000
    1.07500   77.30000    0.00485   10.00000
    1.14000    8.60000    0.61900
    1.14000   13.80000    0.88700
    1.14000   18.50000    1.27100
    1.14000   23.70000    0.98200
    1.14000   28.50000    0.60400
    1.14000   33.70000    0.72000    6.00000
    1.14000   38.60000    0.75000    5.00000
    1.14000   43.50000    0.52000    8.00000
    1.14000   48.00000    0.33300    8.00000
    1.14000   53.20000    0.35800    5.00000
    1.14000   58.70000    0.32600
    1.14000   63.00000    0.25600
    1.14000   68.40000    0.17800   13.00000
    1.14000   72.70000    0.13900    6.00000
    1.14000   78.20000    0.11600   11.00000
    1.15700   27.70000    0.01490   13.00000
    1.15700   32.30000    0.03500   14.00000
    1.15700   37.20000    0.04300   14.00000
    1.15700   42.40000    0.04200   12.00000
    1.15700   47.40000    0.01900   16.00000
    1.15700   52.60000    0.02800   14.00000
    1.15700   57.20000    0.03000   10.00000
    1.15700   62.50000    0.01790   16.00000
    1.15700   67.50000    0.00750   15.00000
    1.15700   72.70000    0.01800   22.00000
    1.15700   78.20000    0.01400   29.00000
    1.20600   12.80000    0.00800   26.00000
    1.20600   18.10000    0.00920   24.00000
    1.20600   22.70000    0.01120   20.00000
    1.20600   27.30000    0.00700   13.00000
    1.20600   32.90000    0.00730   12.00000
    1.20600   42.80000    0.00510   20.00000
    1.20600   47.50000    0.00210   50.00000
    1.20600   52.30000    0.00320   30.00000
    1.20600   57.30000    0.00320   30.00000
    1.29000    6.30000    0.31600
    1.29000   11.10000    0.43000
    1.29000   16.30000    0.59400
    1.29000   21.30000    0.51400
    1.29000   26.00000    0.32800
    1.29000   30.90000    0.38600
    1.29000   36.20000    0.38000
    1.29000   41.50000    0.27100    6.00000
    1.29000   46.00000    0.16700    8.00000
    1.29000   51.50000    0.18400
    1.29000   56.50000    0.18800
    1.29000   61.50000    0.13800
    1.29000   66.20000    0.10000   15.00000
    1.29000   71.90000    0.06490
    1.29000   76.60000    0.05500   22.00000
    1.30800    8.30000    0.01700   40.00000
    1.30800   12.80000    0.02300   22.00000
    1.30800   18.30000    0.02800   18.00000
    1.30800   22.90000    0.02600   15.00000
    1.30800   27.50000    0.01600   30.00000
    1.30800   32.70000    0.01600   19.00000
    1.30800   38.20000    0.01500   27.00000
    1.30800   42.80000    0.00810   25.00000
    1.30800   47.70000    0.01020   28.00000
    1.30800   52.90000    0.01340   22.00000
    1.30800   57.80000    0.01110   19.00000
    1.30800   62.70000    0.00900   40.00000
    1.35400    7.50000    0.01090   19.00000
    1.35400   13.30000    0.00800   22.00000
    1.35400   18.20000    0.00800   22.00000
    1.35400   23.10000    0.00800   11.00000
    1.35400   27.50000    0.00700   14.00000
    1.35400   33.00000    0.00400   22.00000
    1.35400   37.60000    0.00610   16.00000
    1.35400   42.50000    0.00380   26.00000
    1.35400   47.50000    0.00390   23.00000
    1.35400   52.70000    0.00300   30.00000
    1.35400   62.50000    0.00400   22.00000
    1.35400   67.80000    0.00200   50.00000
    1.35400   72.70000    0.00200   50.00000
    1.37800    5.90000    0.31100    5.00000
    1.37800   10.50000    0.50000    8.00000
    1.37800   15.70000    0.69000    9.00000
    1.37800   20.40000    0.60000   10.00000
    1.37800   25.90000    0.36000    8.00000
    1.37800   30.90000    0.40000   10.00000
    1.37800   36.10000    0.43000    7.00000
    1.37800   41.20000    0.29200    9.00000
    1.37800   46.40000    0.17500    7.00000
    1.37800   51.60000    0.19700    8.00000
    1.37800   56.30000    0.20900    5.00000
    1.37800   62.00000    0.15700   10.00000
    1.37800   66.60000    0.08800   14.00000
    1.37800   71.60000    0.07220
    1.37800   76.90000    0.08300   12.00000
    1.40500    7.80000    0.21600    7.00000
    1.40500   12.70000    0.05300    8.00000
    1.40500   17.80000    0.10200    4.00000
    1.40500   22.50000    0.13400    7.00000
    1.40500   27.70000    0.04800    6.00000
    1.40500   32.70000    0.04100    7.00000
    1.40500   38.10000    0.08100    6.00000
    1.40500   43.10000    0.07900    8.00000
    1.40500   48.00000    0.03400   12.00000
    1.40500   53.00000    0.02310    8.00000
    1.40500   58.00000    0.02510   10.00000
    1.40500   63.00000    0.01870    9.00000
    1.40500   68.00000    0.01600   19.00000
    1.40500   73.00000    0.01780   10.00000
    1.40500   78.30000    0.01180   25.00000
    1.42900    8.20000    0.00500   40.00000
    1.42900   18.30000    0.00690   29.00000
    1.42900   22.90000    0.00990   19.00000
    1.42900   28.50000    0.01180   15.00000
    1.42900   33.40000    0.01460   13.00000
    1.42900   38.30000    0.01280   15.00000
    1.42900   42.90000    0.00780   24.00000
    1.42900   48.10000    0.01090   18.00000
    1.42900   53.00000    0.00760   11.00000
    1.42900   58.30000    0.00770   10.00000
    1.42900   63.20000    0.00590   17.00000
    1.42900   73.30000    0.00190   50.00000
    1.44700   19.40000    0.01010   21.00000
    1.44700   24.20000    0.00830   12.00000
    1.44700   28.90000    0.01010   19.00000
    1.44700   34.00000    0.00790   24.00000
    1.44700   38.90000    0.00890   11.00000
    1.44700   44.20000    0.00920   20.00000
    1.44700   49.30000    0.00620   18.00000
    1.44700   53.90000    0.00600   15.00000
    1.44700   58.70000    0.00400   22.00000
    1.44700   63.90000    0.00500   18.00000
    1.44700   69.10000    0.00410   22.00000
    1.44700   73.70000    0.00400   22.00000
    1.49100   17.70000    0.00500   20.00000
    1.49100   22.60000    0.00780   13.00000
    1.49100   27.30000    0.00980   19.00000
    1.49100   37.50000    0.00900   13.00000
    1.49100   42.50000    0.00980   19.00000
    1.49100   47.40000    0.00960   18.00000
    1.49100   52.50000    0.00680   15.00000
    1.49100   57.50000    0.00580   17.00000
    1.49100   62.70000    0.00660   15.00000
    1.49100   67.50000    0.00290   30.00000
    1.49100   72.40000    0.00380   26.00000
    1.49100   77.60000    0.00670   28.00000
    1.55400    6.80000    0.53000    5.00000
    1.55400   12.00000    0.78000    4.00000
    1.55400   16.80000    1.28300
    1.55400   21.80000    1.07000    7.00000
    1.55400   27.00000    0.69000    6.00000
    1.55400   31.90000    0.76000    7.00000
    1.55400   37.10000    0.69700
    1.55400   42.00000    0.47000    6.00000
    1.55400   46.90000    0.33200    7.00000
    1.55400   52.40000    0.39100
    1.55400   57.30000    0.37300
    1.55400   62.20000    0.25900    6.00000
    1.55400   67.40000    0.14400   12.00000
    1.55400   71.80000    0.11620
    1.55400   76.90000    0.13900   14.00000
    1.56700    8.00000    0.05000    8.00000
    1.56700   12.90000    0.10100   15.00000
    1.56700   18.40000    0.10000   22.00000
    1.56700   23.30000    0.08700   13.00000
    1.56700   28.50000    0.05700   16.00000
    1.56700   33.10000    0.05100   16.00000
    1.56700   38.50000    0.07000   17.00000
    1.56700   43.30000    0.04700   19.00000
    1.56700   48.10000    0.03300   18.00000
    1.56700   53.30000    0.02600   19.00000
    1.56700   58.50000    0.05100   10.00000
    1.56700   63.00000    0.03200   16.00000
    1.56700   68.20000    0.02600   23.00000
    1.56700   73.50000    0.03300   18.00000
    1.56700   78.60000    0.01600   30.00000
    1.61400   13.90000    0.01290   15.00000
    1.61400   19.20000    0.01810   14.00000
    1.61400   23.60000    0.02120   12.00000
    1.61400   29.10000    0.02000   15.00000
    1.61400   33.80000    0.02800   11.00000
    1.61400   39.10000    0.03600    8.00000
    1.61400   43.90000    0.02100   19.00000
    1.61400   49.00000    0.01420   18.00000
    1.61400   53.60000    0.01420   20.00000
    1.61400   58.90000    0.01740   14.00000
    1.61400   63.50000    0.01440   20.00000
    1.61400   68.70000    0.01120   26.00000
    1.61400   73.80000    0.00820   26.00000
    1.70200    7.50000    0.00600   40.00000
    1.70200   12.70000    0.00510   40.00000
    1.70200   17.50000    0.01000   21.00000
    1.70200   22.10000    0.01210   17.00000
    1.70200   27.30000    0.01010   18.00000
    1.70200   32.80000    0.00810   11.00000
    1.70200   36.80000    0.00920   21.00000
    1.70200   42.30000    0.00690   14.00000
    1.70200   47.30000    0.00400   25.00000
    1.70200   52.20000    0.00400   22.00000
    1.70200   56.80000    0.00500   18.00000
    1.70200   62.00000    0.00400   22.00000
    1.70200   67.40000    0.00510   40.00000
    1.73200   19.80000    0.00840   23.00000
    1.73200   24.70000    0.00920   11.00000
    1.73200   29.30000    0.00740   12.00000
    1.73200   34.90000    0.01230   15.00000
    1.73200   44.20000    0.00530   19.00000
    1.73200   49.40000    0.00750   13.00000
    1.73200   54.20000    0.00550   20.00000
    1.73200   59.50000    0.00650   15.00000
    1.73200   64.60000    0.00450   22.00000
    1.73200   69.80000    0.00560   40.00000
    1.73200   74.30000    0.00440   23.00000
    1.77000    6.20000    0.00590   30.00000
    1.77000   11.30000    0.00980   18.00000
    1.77000   16.20000    0.02000   15.00000
    1.77000   21.10000    0.02300   13.00000
    1.77000   26.50000    0.01200   17.00000
    1.77000   31.70000    0.01740   12.00000
    1.77000   36.90000    0.01800   17.00000
    1.77000   41.70000    0.01110   20.00000
    1.77000   47.00000    0.01030   17.00000
    1.77000   52.00000    0.01020   19.00000
    1.77000   57.00000    0.00720   14.00000
    1.77000   62.30000    0.00520   19.00000
    1.77000   66.70000    0.00620   30.00000
    1.77000   72.40000    0.00210   50.00000
    1.80400   12.90000    0.00390   50.00000
    1.80400   18.20000    0.00800   24.00000
    1.80400   22.90000    0.01400   14.00000
    1.80400   27.80000    0.01420   15.00000
    1.80400   32.80000    0.01940   11.00000
    1.80400   37.70000    0.01830   10.00000
    1.80400   43.20000    0.01240   16.00000
    1.80400   47.60000    0.01240   15.00000
    1.80400   52.80000    0.01080   18.00000
    1.80400   57.70000    0.01120   19.00000
    1.80400   63.00000    0.01020   19.00000
    1.80400   67.60000    0.00830   25.00000
    1.80400   72.80000    0.00310   29.00000
    1.87500    8.20000    0.04100   17.00000
    1.87500   13.20000    0.05900   14.00000
    1.87500   18.20000    0.12100    7.00000
    1.87500   23.10000    0.09700    8.00000
    1.87500   28.30000    0.06200   11.00000
    1.87500   32.90000    0.04600   11.00000
    1.87500   38.20000    0.04500    9.00000
    1.87500   43.10000    0.04500   11.00000
    1.87500   48.10000    0.04600   13.00000
    1.87500   53.30000    0.03800   11.00000
    1.87500   58.20000    0.03400   12.00000
    1.87500   63.10000    0.02200   11.00000
    1.87500   68.30000    0.01300   40.00000
    1.87500   73.00000    0.01490   12.00000
    1.88700    8.90000    0.12100   10.00000
    1.88700   13.70000    0.06000    8.00000
    1.88700   18.60000    0.05400   13.00000
    1.88700   23.60000    0.05600   13.00000
    1.88700   28.60000    0.02100   24.00000
    1.88700   33.60000    0.02400   17.00000
    1.88700   38.80000    0.04600   13.00000
    1.88700   43.70000    0.03500   11.00000
    1.88700   48.70000    0.01490   19.00000
    1.88700   53.50000    0.00900   40.00000
    1.88700   58.70000    0.01390   21.00000
    1.88700   63.70000    0.01490   12.00000
    1.88700   68.60000    0.01300   40.00000
    1.88700   73.20000    0.00980   20.00000
    1.91400    7.80000    0.01100   40.00000
    1.91400   12.40000    0.02100   14.00000
    1.91400   17.40000    0.02000   15.00000
    1.91400   23.20000    0.02000    9.00000
    1.91400   28.20000    0.01250   16.00000
    1.91400   32.50000    0.01120   19.00000
    1.91400   38.10000    0.01120   17.00000
    1.91400   43.00000    0.00820   23.00000
    1.91400   48.00000    0.00520   19.00000
    1.91400   53.50000    0.00310   30.00000
    1.91400   58.50000    0.00520   19.00000
    1.91400   63.70000    0.00420   21.00000
    1.91400   73.60000    0.00210   50.00000
    1.93800   13.10000    0.01010   22.00000
    1.93800   18.60000    0.01290   16.00000
    1.93800   23.70000    0.01900   16.00000
    1.93800   29.00000    0.02700   15.00000
    1.93800   33.90000    0.03000   17.00000
    1.93800   39.10000    0.02700   15.00000
    1.93800   43.80000    0.02800   18.00000
    1.93800   48.60000    0.01780   15.00000
    1.93800   53.80000    0.01920   10.00000
    1.93800   58.70000    0.01640   14.00000
    1.93800   63.90000    0.01850   10.00000
    1.93800   68.80000    0.01500   20.00000
    1.93800   73.40000    0.01430   15.00000
    1.93800   78.10000    0.00450   24.00000
    1.95400    8.20000    0.26800
    1.95400   12.90000    0.07850
    1.95400   17.90000    0.10100    8.00000
    1.95400   22.80000    0.11910
    1.95400   27.70000    0.06200   10.00000
    1.95400   33.20000    0.07100    8.00000
    1.95400   37.90000    0.10500   10.00000
    1.95400   42.50000    0.07500    9.00000
    1.95400   47.50000    0.03400    9.00000
    1.95400   52.40000    0.02540   11.00000
    1.95400   57.70000    0.04300   12.00000
    1.95400   62.30000    0.03800   11.00000
    1.95400   67.40000    0.02400   17.00000
    1.95400   72.50000    0.01050   19.00000
    1.95400   77.40000    0.00850   13.00000
    1.97400    8.60000    0.01300   30.00000
    1.97400   13.70000    0.02100   14.00000
    1.97400   19.40000    0.03000   13.00000
    1.97400   24.30000    0.03500   14.00000
    1.97400   29.10000    0.02300   17.00000
    1.97400   33.70000    0.01500   27.00000
    1.97400   38.80000    0.01300   23.00000
    1.97400   43.60000    0.01900   14.00000
    1.97400   48.60000    0.00800   50.00000
    1.97400   53.60000    0.01000   30.00000
    1.97400   58.50000    0.00950   20.00000
    1.97400   63.40000    0.00830   24.00000
    1.97400   67.90000    0.00520   40.00000
    1.97400   73.20000    0.00630   30.00000
    1.97400   78.40000    0.00640   16.00000
    1.98500   17.40000    0.00810   40.00000
    1.98500   22.80000    0.02100   19.00000
    1.98500   27.40000    0.01700   24.00000
    1.98500   32.60000    0.01900   21.00000
    1.98500   37.60000    0.02500   16.00000
    1.98500   42.20000    0.01600   25.00000
    1.98500   47.40000    0.01300   30.00000
    1.98500   52.30000    0.01050   28.00000
    1.98500   57.50000    0.01470   19.00000
    1.98500   63.00000    0.00900   30.00000
    1.98500   72.50000    0.01050   20.00000
    1.98500   77.80000    0.01030   19.00000
    1.99800    8.50000    0.02000   70.00000
    1.99800   13.20000    0.04500   13.00000
    1.99800   18.10000    0.03500   23.00000
    1.99800   23.00000    0.03700   11.00000
    1.99800   27.90000    0.02880
    1.99800   32.40000    0.02100   19.00000
    1.99800   37.70000    0.03300   12.00000
    1.99800   48.00000    0.02200   18.00000
    1.99800   53.10000    0.01050   28.00000
    1.99800   58.30000    0.01300   30.00000
    1.99800   62.90000    0.01090   25.00000
    1.99800   68.10000    0.01100   27.00000
    1.99800   73.30000    0.00800   40.00000
    1.99800   78.10000    0.00550   22.00000
    2.00800    8.30000    0.05600   27.00000
    2.00800   12.40000    0.01200   30.00000
    2.00800   18.00000    0.04400   20.00000
    2.00800   22.60000    0.01440   20.00000
    2.00800   27.30000    0.01020   29.00000
    2.00800   32.80000    0.02300   22.00000
    2.00800   37.20000    0.01200   25.00000
    2.00800   47.70000    0.02000   20.00000
    2.00800   52.70000    0.01880   15.00000
    2.00800   57.30000    0.01200   30.00000
    2.00800   62.90000    0.00730   27.00000
    2.00800   67.80000    0.00860   24.00000
    2.00800   73.10000    0.00800   50.00000
    2.00800   78.00000    0.00840   13.00000
    2.02600    7.90000    0.01400   21.00000
    2.02600   17.90000    0.02790    9.00000
    2.02600   23.10000    0.04200    7.00000
    2.02600   27.50000    0.02830    9.00000
    2.02600   33.00000    0.01850    9.00000
    2.02600   37.60000    0.02250   12.00000
    2.02600   47.40000    0.01410   14.00000
    2.02600   52.70000    0.01120   15.00000
    2.02600   57.80000    0.01420   13.00000
    2.02600   62.80000    0.01100   16.00000
    2.02600   67.70000    0.00620   30.00000
    2.02600   77.60000    0.00510   20.00000
    2.09800   12.80000    0.01000   21.00000
    2.09800   18.40000    0.01560   13.00000
    2.09800   23.40000    0.01640   12.00000
    2.09800   28.30000    0.01480   14.00000
    2.09800   32.70000    0.01050   20.00000
    2.09800   37.60000    0.00820   24.00000
    2.09800   42.90000    0.01170   19.00000
    2.09800   47.80000    0.00540   20.00000
    2.09800   52.80000    0.00320   30.00000
    2.09800   57.80000    0.00860   13.00000
    2.09800   62.80000    0.00750   13.00000
    2.09800   67.70000    0.00320   30.00000
    2.09800   72.70000    0.00340   30.00000
    2.11700    7.30000    0.42800
    2.11700   12.60000    0.09010
    2.11700   17.50000    0.11500    9.00000
    2.11700   22.50000    0.14400
    2.11700   27.40000    0.06700    9.00000
    2.11700   32.70000    0.09800    6.00000
    2.11700   37.30000    0.17400    7.00000
    2.11700   42.50000    0.13000    6.00000
    2.11700   47.50000    0.05000    8.00000
    2.11700   51.90000    0.02120    9.00000
    2.11700   57.40000    0.04700    9.00000
    2.11700   62.60000    0.05700    7.00000
    2.11700   67.20000    0.04100   15.00000
    2.11700   72.20000    0.02180    9.00000
    2.13700   16.60000    0.02040   13.00000
    2.13700   21.50000    0.02940    9.00000
    2.13700   26.70000    0.03100   13.00000
    2.13700   31.70000    0.02770    9.00000
    2.13700   36.90000    0.02400   13.00000
    2.13700   41.80000    0.02400   13.00000
    2.13700   47.10000    0.01440   15.00000
    2.13700   52.10000    0.01530   12.00000
    2.13700   57.00000    0.01280   16.00000
    2.13700   62.20000    0.01680   14.00000
    2.13700   67.10000    0.01700   18.00000
    2.13700   71.90000    0.00830   13.00000
    2.17400    7.70000    0.01320   16.00000
    2.17400   12.30000    0.00920   22.00000
    2.17400   17.80000    0.02270   11.00000
    2.17400   22.80000    0.02800   11.00000
    2.17400   27.40000    0.01190   16.00000
    2.17400   32.60000    0.01560   13.00000
    2.17400   37.50000    0.02090   14.00000
    2.17400   42.40000    0.01400   13.00000
    2.17400   47.30000    0.00980   18.00000
    2.17400   52.20000    0.00710   15.00000
    2.17400   57.40000    0.01090   17.00000
    2.17400   62.60000    0.00800   11.00000
    2.17400   72.10000    0.00400   22.00000
    2.19600   13.60000    0.01000   30.00000
    2.19600   18.30000    0.01690   12.00000
    2.19600   23.60000    0.03000   10.00000
    2.19600   28.50000    0.03400   12.00000
    2.19600   33.20000    0.03710    7.00000
    2.19600   38.40000    0.03500    9.00000
    2.19600   43.20000    0.03000   13.00000
    2.19600   48.50000    0.03200   13.00000
    2.19600   53.00000    0.02370   10.00000
    2.19600   57.90000    0.01830    9.00000
    2.19600   63.10000    0.02160   13.00000
    2.19600   73.10000    0.00830   10.00000
    2.21700   12.60000    0.01690   17.00000
    2.21700   16.90000    0.02360   11.00000
    2.21700   21.90000    0.02900   10.00000
    2.21700   26.50000    0.01990   15.00000
    2.21700   31.80000    0.02130   12.00000
    2.21700   37.00000    0.01750   16.00000
    2.21700   42.00000    0.01850   14.00000
    2.21700   46.90000    0.00970   22.00000
    2.21700   51.90000    0.00980   18.00000
    2.21700   56.50000    0.00950    8.00000
    2.21700   61.50000    0.00960   19.00000
    2.21700   72.00000    0.00380   24.00000
    2.27900   21.20000    0.02180   13.00000
    2.27900   26.40000    0.01710   11.00000
    2.27900   31.30000    0.01500   14.00000
    2.27900   36.00000    0.01590   14.00000
    2.27900   41.20000    0.00910   20.00000
    2.27900   46.50000    0.01000   18.00000
    2.27900   51.40000    0.00900    9.00000
    2.27900   56.10000    0.00690   14.00000
    2.27900   61.30000    0.00810   10.00000
    2.27900   71.50000    0.00680   29.00000
    2.46100    4.90000    0.03900   21.00000
    2.46100    9.80000    0.01900   21.00000
    2.46100   15.20000    0.00800   40.00000
    2.46100   19.80000    0.03300   15.00000
    2.46100   25.60000    0.01500   20.00000
    2.46100   30.60000    0.01000   30.00000
    2.46100   40.50000    0.00920   22.00000
    2.46100   71.40000    0.00300   30.00000
ENDDATA            654
ENDSUBENT          664
SUBENT        O1795003   20091201   20100809   20100806       O041
BIB                  1          1
REACTION   (52-TE-128(HE3,A)52-TE-127,PAR,DA) Fig.5-6
ENDBIB               1
COMMON               2          3
EN         E-RSL-FW
MEV        KEV
24.        32.
ENDCOMMON            3
DATA                 4        139
E-LVL      ANG-CM     DATA-CM    ERR-S
MEV        ADEG       MB/SR      PER-CENT
    0.00000    7.10000    0.01880    8.00000
    0.00000   12.30000    0.00990   18.00000
    0.00000   17.50000    0.02600   12.00000
    0.00000   22.40000    0.06600    5.00000
    0.00000   27.30000    0.05600    7.00000
    0.00000   32.50000    0.06000    7.00000
    0.00000   37.40000    0.07070
    0.00000   42.30000    0.06610
    0.00000   47.20000    0.06070
    0.00000   52.50000    0.05670
    0.00000   57.10000    0.04080    5.00000
    0.00000   62.30000    0.03750
    0.00000   67.20000    0.02490   12.00000
    0.00000   72.10000    0.01730    9.00000
    0.00000   77.70000    0.01880    9.00000
    0.09000    7.10000    1.01000
    0.09000   11.80000    0.68400
    0.09000   17.30000    0.75200
    0.09000   22.20000    0.76300
    0.09000   26.80000    0.72600
    0.09000   32.00000    0.60000    7.00000
    0.09000   36.90000    0.53000    8.00000
    0.09000   42.10000    0.44500    5.00000
    0.09000   47.10000    0.31100
    0.09000   52.30000    0.23600
    0.09000   57.20000    0.17900
    0.09000   62.50000    0.10830
    0.09000   67.40000    0.08100    5.00000
    0.09000   72.40000    0.05400    6.00000
    0.09000   77.30000    0.04090    7.00000
    0.78500    6.30000    0.05600    9.00000
    0.78500   12.00000    0.02850   11.00000
    0.78500   16.90000    0.03640    6.00000
    0.78500   21.50000    0.05600    9.00000
    0.78500   26.70000    0.05300    8.00000
    0.78500   31.70000    0.05500    7.00000
    0.78500   36.60000    0.06760
    0.78500   42.20000    0.05300    8.00000
    0.78500   46.80000    0.05130    5.00000
    0.78500   51.70000    0.04020    5.00000
    0.78500   56.60000    0.04700    6.00000
    0.78500   61.60000    0.03200    9.00000
    0.78500   66.60000    0.03160    9.00000
    0.78500   71.90000    0.02140   10.00000
    0.78500   77.20000    0.01470   13.00000
    0.92500    7.60000    0.26000
    0.92500   13.10000    0.18500
    0.92500   18.20000    0.21100
    0.92500   23.10000    0.20400
    0.92500   28.20000    0.18900
    0.92500   33.10000    0.18600
    0.92500   37.30000    0.17400
    0.92500   42.80000    0.14600    4.00000
    0.92500   47.60000    0.11430
    0.92500   52.50000    0.09110
    0.92500   57.30000    0.06580
    0.92500   62.80000    0.04170
    0.92500   67.40000    0.03370    7.00000
    0.92500   72.90000    0.02240   12.00000
    0.92500   77.70000    0.01700   10.00000
    1.15100    8.10000    0.04800    6.00000
    1.15100   12.60000    0.02980   10.00000
    1.15100   17.80000    0.04620    6.00000
    1.15100   22.70000    0.05600    7.00000
    1.15100   28.30000    0.05400    7.00000
    1.15100   33.20000    0.05000    8.00000
    1.15100   37.70000    0.06200    5.00000
    1.15100   43.00000    0.06100    7.00000
    1.15100   47.90000    0.05480    5.00000
    1.15100   52.40000    0.03800    8.00000
    1.15100   57.70000    0.03220    6.00000
    1.15100   62.60000    0.02050    9.00000
    1.15100   67.20000    0.01830    8.00000
    1.15100   72.40000    0.01200   16.00000
    1.15100   77.30000    0.00930   17.00000
    1.29100    5.60000    0.01650   12.00000
    1.29100   10.70000    0.00790   11.00000
    1.29100   16.20000    0.01540   12.00000
    1.29100   21.40000    0.02570    9.00000
    1.29100   26.30000    0.02480   11.00000
    1.29100   30.70000    0.02280    8.00000
    1.29100   36.20000    0.02870    9.00000
    1.29100   40.60000    0.02550    8.00000
    1.29100   46.60000    0.02470    9.00000
    1.29100   50.90000    0.01950    9.00000
    1.29100   56.50000    0.02050    8.00000
    1.29100   61.70000    0.01070   15.00000
    1.29100   66.70000    0.00880   20.00000
    1.29100   71.60000    0.00880   23.00000
    1.29100   77.00000    0.00680   13.00000
    1.38300    6.40000    0.01830   11.00000
    1.38300   11.80000    0.01090   17.00000
    1.38300   16.80000    0.02700   11.00000
    1.38300   21.90000    0.03480    5.00000
    1.38300   26.50000    0.02900    9.00000
    1.38300   32.10000    0.03200    9.00000
    1.38300   36.60000    0.03470    9.00000
    1.38300   41.90000    0.02840    6.00000
    1.38300   46.50000    0.02030    8.00000
    1.38300   51.30000    0.02690    9.00000
    1.38300   56.60000    0.02210    9.00000
    1.38300   61.90000    0.01360   14.00000
    1.38300   66.80000    0.01450   11.00000
    1.38300   71.50000    0.00900   22.00000
    1.38300   76.70000    0.00780   10.00000
    1.43500   11.20000    0.01380   12.00000
    1.43500   16.60000    0.01960    8.00000
    1.43500   21.30000    0.01770   10.00000
    1.43500   25.80000    0.01960    8.00000
    1.43500   31.20000    0.01270   13.00000
    1.43500   36.50000    0.01190   17.00000
    1.43500   41.10000    0.01290   15.00000
    1.43500   46.40000    0.00490   20.00000
    1.43500   51.40000    0.00400   22.00000
    1.55600   13.70000    0.02160   11.00000
    1.55600   19.50000    0.04700    9.00000
    1.55600   24.00000    0.05200
    1.55600   29.40000    0.05780
    1.55600   34.20000    0.06540
    1.55600   38.70000    0.08020
    1.55600   44.20000    0.07550
    1.55600   49.00000    0.06400    8.00000
    1.55600   53.50000    0.05300    5.00000
    1.55600   58.90000    0.04700    9.00000
    1.55600   63.40000    0.03660    5.00000
    1.55600   68.30000    0.02870   10.00000
    1.55600   72.80000    0.01720   13.00000
    1.55600   77.90000    0.01650   11.00000
    1.61500    9.00000    0.04650    5.00000
    1.61500   14.30000    0.03100    6.00000
    1.61500   19.50000    0.03400    9.00000
    1.61500   24.50000    0.03460    8.00000
    1.61500   28.80000    0.02900   10.00000
    1.61500   34.00000    0.02030    8.00000
    1.61500   38.30000    0.01970    8.00000
    1.61500   43.60000    0.01770   11.00000
    1.61500   48.50000    0.01240   16.00000
    1.61500   53.10000    0.01180   17.00000
    1.61500   58.70000    0.00990   22.00000
ENDDATA            141
ENDSUBENT          151
ENDENTRY             3
