ENTRY            O1790   20091015   20100809   20100806       O041
SUBENT        O1790001   20091015   20100809   20100806       O041
BIB                 15         31
TITLE      Study of Al-27 by the Mg-26(d,n)Al-27 reaction.
AUTHOR     (J.Uzureau, A.Adam, S.Joly)
INSTITUTE  (2FR NTE)
           (2FR BRC)
REFERENCE  (J,NP/A,250,163,1975)
DETECTOR   (SCIN) liquid scintillator detectors NE213, diameter
             10 cm, thick 2.5 cm, were used.
FACILITY   (VDGT,2FR BRC)  Tandem Van de Graaff generator
SAMPLE     The MgO, enriched to 99% in Mg-26, thicknesses
            100 mug/cm**2 and 300 mug/cm**2 at 6 MeV and 8 MeV,
           respectively, on 0.1 mm tantalum backing, were used.
EN-SEC     (E-LVL,13-AL-27)
METHOD     (TOF)
ADD-RES    (COMP) DWBA and the Hauser-Feshbach formalism.
CORRECTION The absolute differential cross sections were corrected
           by about 15% for neutron absorption in the wall of the
           scattering chamber and in the air along the flight
           path.
INC-SOURCE *EN-RSL*.The energy resolution at E(d)=6 MeV varied
           from 32 keV at E-LVL=6.16 MeV to 18 keV at
           E-LVL=8.71 MeV.
ERR-ANALYS The total uncertainty in absolute cross
           sections connected errors in target thickness and
           efficiency of detector is 25%.
           (ERR-DIG).Digitizing error of data.
           (ANG-ERR-D).Digitizing error of angle.
           (DATA-ERR).The uncertainty is reported by authors on
           figure.
           (E-LVL-ERR).The uncertainty is measured by authors.
STATUS     (CURVE).By CAJAD.
HISTORY    (20091014C)SB
ENDBIB              31
COMMON               1          3
EN-RSL
KEV
32.
ENDCOMMON            3
ENDSUBENT           38
SUBENT        O1790002   20091015   20100809   20100806       O041
BIB                  2         27
REACTION   (12-MG-26(D,N)13-AL-27,PAR,DA) Figure 2,3,4
LEVEL-PROP (13-AL-27,E-LVL=0.000,SPIN=2.5,PARITY=+1.)
           (13-AL-27,E-LVL=0.844,SPIN=0.5,PARITY=+1.)
           (13-AL-27,E-LVL=1.013,SPIN=1.5,PARITY=+1.)
           (13-AL-27,E-LVL=2.731,SPIN=2.5,PARITY=-1.)
           (13-AL-27,E-LVL=2.981,SPIN=1.5,PARITY=-1.)
           (13-AL-27,E-LVL=3.675,SPIN=0.5,PARITY=+1.)
           (13-AL-27,E-LVL=3.951,SPIN=1.5/2.5,PARITY=+1.)
           (13-AL-27,E-LVL=4.405,SPIN=2.5,PARITY=+1.)
           (13-AL-27,E-LVL=5.152,SPIN=0.5/1.5,PARITY=-1.)
           (13-AL-27,E-LVL=6.155,SPIN=0.5/1.5,PARITY=-1.)
           (13-AL-27,E-LVL=6.475,SPIN=3.5,PARITY=-1.)
           (13-AL-27,E-LVL=6.605,SPIN=0.5/1.5,PARITY=-1.)
           (13-AL-27,E-LVL=6.813,SPIN=0.5,PARITY=+1.)
           (13-AL-27,E-LVL=6.995,SPIN=0.5/1.5,PARITY=-1.)
           (13-AL-27,E-LVL=7.069,SPIN=0.5,PARITY=+1.)
           (13-AL-27,E-LVL=7.862,SPIN=1.5,PARITY=+1.)
           (13-AL-27,E-LVL=8.135,SPIN=0.5,PARITY=+1.)
           (13-AL-27,E-LVL=8.187,SPIN=0.5/1.5,PARITY=-1.)
           (13-AL-27,E-LVL=8.604,SPIN=1.5,PARITY=-1.)
           (13-AL-27,E-LVL=8.717,SPIN=0.5,PARITY=+1.)
           (13-AL-27,E-LVL=8.916,SPIN=0.5/1.5,PARITY=-1.)
           (13-AL-27,E-LVL=8.971,SPIN=0.5/1.5,PARITY=-1.)
           (13-AL-27,E-LVL=9.050,SPIN=2.5,PARITY=+1.)
           (13-AL-27,E-LVL=9.609,SPIN=1.5,PARITY=-1.)
           (13-AL-27,E-LVL=9.636,SPIN=0.5,PARITY=-1.)
           (13-AL-27,E-LVL=9.674,SPIN=0.5,PARITY=-1.)
ENDBIB              27
COMMON               2          3
ANG-ERR-D  ERR-DIG
ADEG       PER-CENT
0.4        2.1
ENDCOMMON            3
DATA                 6        290
EN         E-LVL      E-LVL-ERR  ANG-CM     DATA-CM    DATA-ERR
MEV        MEV        KEV        ADEG       MB/SR      PER-CENT
    6.00000    0.84400    8.00000    0.00000   14.20000
    6.00000    0.84400    8.00000   10.50000    9.43000
    6.00000    0.84400    8.00000   15.70000    5.01000
    6.00000    0.84400    8.00000   20.60000    2.33000
    6.00000    0.84400    8.00000   26.60000    0.64000    5.00000
    6.00000    0.84400    8.00000   35.30000    0.47000   11.00000
    6.00000    0.84400    8.00000   41.80000    0.54000    9.00000
    6.00000    0.84400    8.00000   47.30000    0.65000    6.00000
    6.00000    0.84400    8.00000   52.80000    0.45000   11.00000
    6.00000    0.84400    8.00000   62.90000    0.35000    9.00000
    6.00000    0.84400    8.00000   73.20000    0.29000   14.00000
    6.00000    0.84400    8.00000   83.60000    0.24300   12.00000
    6.00000    0.84400    8.00000  104.30000    0.14000   21.00000
    6.00000    3.67500    6.00000    0.00000    2.51000
    6.00000    3.67500    6.00000    5.00000    2.29000
    6.00000    3.67500    6.00000   10.50000    1.86000
    6.00000    3.67500    6.00000   16.10000    0.98500
    6.00000    3.67500    6.00000   21.80000    0.61000    7.00000
    6.00000    3.67500    6.00000   26.50000    0.30000   10.00000
    6.00000    3.67500    6.00000   31.90000    0.15100   17.00000
    6.00000    3.67500    6.00000   37.10000    0.12100   18.00000
    6.00000    3.67500    6.00000   42.70000    0.09100   21.00000
    6.00000    3.67500    6.00000   47.50000    0.09000   30.00000
    6.00000    3.67500    6.00000   53.10000    0.07100   40.00000
    6.00000    3.67500    6.00000   63.60000    0.04500   60.00000
    6.00000    3.67500    6.00000   73.30000    0.04100   60.00000
    6.00000    3.67500    6.00000   84.30000    0.06400   30.00000
    6.00000    3.67500    6.00000  104.40000    0.05000   60.00000
    6.00000    6.81300    4.00000    0.00000   24.50000
    6.00000    6.81300    4.00000    5.20000   23.40000
    6.00000    6.81300    4.00000   11.00000   16.70000
    6.00000    6.81300    4.00000   16.80000    9.35000
    6.00000    6.81300    4.00000   22.00000    4.67000
    6.00000    6.81300    4.00000   26.80000    1.76000
    6.00000    6.81300    4.00000   32.70000    0.51000    6.00000
    6.00000    6.81300    4.00000   37.80000    0.65000    6.00000
    6.00000    6.81300    4.00000   42.70000    1.05000    5.00000
    6.00000    6.81300    4.00000   48.20000    1.29000    4.00000
    6.00000    6.81300    4.00000   53.30000    1.63000    2.50000
    6.00000    6.81300    4.00000   63.70000    1.54000    4.00000
    6.00000    6.81300    4.00000   84.70000    0.60000    5.00000
    6.00000    6.81300    4.00000  104.70000    0.46000    9.00000
    6.00000    7.06900    7.00000    0.00000    0.78900
    6.00000    7.06900    7.00000    4.90000    0.64000    6.00000
    6.00000    7.06900    7.00000   10.40000    0.43700    6.00000
    6.00000    7.06900    7.00000   16.00000    0.31800    9.00000
    6.00000    7.06900    7.00000   21.20000    0.18400   12.00000
    6.00000    7.06900    7.00000   26.00000    0.06600   30.00000
    6.00000    7.06900    7.00000   31.50000    0.04400   30.00000
    6.00000    7.06900    7.00000   41.50000    0.06500   40.00000
    6.00000    7.06900    7.00000   47.00000    0.08300   25.00000
    6.00000    7.06900    7.00000   51.80000    0.09600   24.00000
    6.00000    7.06900    7.00000   62.80000    0.11900   21.00000
    6.00000    7.06900    7.00000   72.80000    0.13300   20.00000
    6.00000    7.06900    7.00000   83.60000    0.09000   26.00000
    6.00000    8.13500    5.00000    0.00000    1.90000
    6.00000    8.13500    5.00000    5.40000    1.77000
    6.00000    8.13500    5.00000   10.40000    1.42600
    6.00000    8.13500    5.00000   16.20000    0.87500
    6.00000    8.13500    5.00000   22.10000    0.43200
    6.00000    8.13500    5.00000   26.50000    0.27300   10.00000
    6.00000    8.13500    5.00000   32.10000    0.16000   13.00000
    6.00000    8.13500    5.00000   37.50000    0.18000   15.00000
    6.00000    8.13500    5.00000   42.70000    0.24700   11.00000
    6.00000    8.13500    5.00000   47.80000    0.33100    8.00000
    6.00000    8.13500    5.00000   53.30000    0.31000   10.00000
    6.00000    8.13500    5.00000   63.60000    0.41000   10.00000
    6.00000    8.13500    5.00000   74.00000    0.35800    8.00000
    6.00000    8.13500    5.00000   84.10000    0.25400   11.00000
    6.00000    8.13500    5.00000  104.30000    0.26700   10.00000
    6.00000    8.71700    6.00000    0.00000    4.65000
    6.00000    8.71700    6.00000    5.40000    4.78000
    6.00000    8.71700    6.00000   10.90000    3.53000
    6.00000    8.71700    6.00000   15.80000    2.16000
    6.00000    8.71700    6.00000   21.40000    1.22500
    6.00000    8.71700    6.00000   26.60000    0.58500
    6.00000    8.71700    6.00000   32.40000    0.30000   13.00000
    6.00000    8.71700    6.00000   47.70000    0.47000    6.00000
    6.00000    8.71700    6.00000   53.40000    0.52000    6.00000
    6.00000    8.71700    6.00000   63.80000    0.64000    9.00000
    6.00000    8.71700    6.00000   73.90000    0.60000    7.00000
    6.00000    8.71700    6.00000   84.30000    0.44000    9.00000
    6.00000    8.71700    6.00000  104.40000    0.48000   10.00000
    8.00000    0.00000              15.40000    0.62000    6.00000
    8.00000    0.00000              20.10000    1.05000    5.00000
    8.00000    0.00000              25.60000    1.34000    5.00000
    8.00000    0.00000              30.90000    1.44000    6.00000
    8.00000    0.00000              36.20000    1.43000    6.00000
    8.00000    0.00000              41.80000    1.25000    7.00000
    8.00000    0.00000              51.90000    0.92000    8.00000
    8.00000    0.00000              62.50000    0.77000    6.00000
    8.00000    0.00000              73.40000    0.52000    8.00000
    8.00000    0.00000              83.20000    0.51000    8.00000
    8.00000    1.01300   10.00000   25.90000    0.23400   11.00000
    8.00000    1.01300   10.00000   31.40000    0.22500    9.00000
    8.00000    1.01300   10.00000   36.90000    0.29500    9.00000
    8.00000    1.01300   10.00000   41.90000    0.23000    9.00000
    8.00000    1.01300   10.00000   52.10000    0.12500   13.00000
    8.00000    1.01300   10.00000   62.10000    0.12600   10.00000
    8.00000    1.01300   10.00000   73.20000    0.11400   16.00000
    8.00000    1.01300   10.00000   82.70000    0.17400   17.00000
    8.00000    2.73100    7.00000   13.40000    0.28000   11.00000
    8.00000    2.73100    7.00000   18.90000    0.32000    9.00000
    8.00000    2.73100    7.00000   23.70000    0.36000   11.00000
    8.00000    2.73100    7.00000   28.70000    0.38800    6.00000
    8.00000    2.73100    7.00000   34.50000    0.35600    8.00000
    8.00000    2.73100    7.00000   39.50000    0.33000    8.00000
    8.00000    2.73100    7.00000   50.20000    0.24300    7.00000
    8.00000    2.73100    7.00000   60.20000    0.15200   13.00000
    8.00000    2.73100    7.00000   70.80000    0.20700    8.00000
    8.00000    2.73100    7.00000   81.00000    0.21200    9.00000
    8.00000    2.98100    5.00000   14.30000    1.15000    3.00000
    8.00000    2.98100    5.00000   19.60000    1.85000
    8.00000    2.98100    5.00000   24.60000    2.22000
    8.00000    2.98100    5.00000   29.90000    2.28000
    8.00000    2.98100    5.00000   35.80000    1.89000
    8.00000    2.98100    5.00000   40.50000    1.40300
    8.00000    2.98100    5.00000   50.60000    0.48000    6.00000
    8.00000    2.98100    5.00000   61.70000    0.31000   13.00000
    8.00000    2.98100    5.00000   72.10000    0.39000    7.00000
    8.00000    2.98100    5.00000   82.10000    0.38000    8.00000
    8.00000    3.95100    5.00000   12.90000    0.14700   10.00000
    8.00000    3.95100    7.00000   17.90000    0.20000   11.00000
    8.00000    3.95100    7.00000   23.20000    0.21800    7.00000
    8.00000    3.95100    7.00000   28.80000    0.24900    8.00000
    8.00000    3.95100    7.00000   33.50000    0.22300    6.00000
    8.00000    3.95100    7.00000   39.00000    0.18600    8.00000
    8.00000    3.95100    7.00000   49.60000    0.13500   10.00000
    8.00000    3.95100    7.00000   60.10000    0.13800   10.00000
    8.00000    3.95100    7.00000   80.20000    0.15100    8.00000
    8.00000    4.40500    5.00000   13.50000    0.21900   10.00000
    8.00000    4.40500    5.00000   18.80000    0.32300    8.00000
    8.00000    4.40500    5.00000   24.10000    0.37400    5.00000
    8.00000    4.40500    5.00000   29.40000    0.46000    7.00000
    8.00000    4.40500    5.00000   34.10000    0.42200    6.00000
    8.00000    4.40500    5.00000   39.70000    0.39200    6.00000
    8.00000    4.40500    5.00000   50.50000    0.25700    7.00000
    8.00000    4.40500    5.00000   61.50000    0.14400   13.00000
    8.00000    4.40500    5.00000   71.50000    0.13700    9.00000
    8.00000    4.40500    5.00000   81.50000    0.10900   14.00000
    8.00000    5.15200    6.00000   15.80000    0.25100    6.00000
    8.00000    5.15200    6.00000   21.20000    0.26000    7.00000
    8.00000    5.15200    6.00000   26.40000    0.20500    7.00000
    8.00000    5.15200    6.00000   31.80000    0.15000    9.00000
    8.00000    5.15200    6.00000   36.90000    0.14500   14.00000
    8.00000    5.15200    6.00000   42.10000    0.09600   13.00000
    8.00000    5.15200    6.00000   52.60000    0.12900   15.00000
    8.00000    5.15200    6.00000   63.20000    0.05700   28.00000
    8.00000    5.15200    6.00000   72.90000    0.07300   23.00000
    8.00000    5.15200    6.00000   83.00000    0.08100   17.00000
    8.00000    6.15500    4.00000   14.10000    1.55000    7.00000
    8.00000    6.15500    4.00000   19.70000    1.22000    4.00000
    8.00000    6.15500    4.00000   25.10000    1.05000    9.00000
    8.00000    6.15500    4.00000   30.30000    0.61000    5.00000
    8.00000    6.15500    4.00000   35.70000    0.38000   13.00000
    8.00000    6.15500    4.00000   41.10000    0.32000    8.00000
    8.00000    6.15500    4.00000   51.40000    0.35500    8.00000
    8.00000    6.15500    4.00000   61.90000    0.18800    9.00000
    8.00000    6.15500    4.00000   72.20000    0.21300    8.00000
    8.00000    6.15500    4.00000   82.20000    0.15400   11.00000
    8.00000    6.47500    5.00000   27.20000    2.05000    4.00000
    8.00000    6.47500    5.00000   32.60000    1.84000    5.00000
    8.00000    6.47500    5.00000   38.40000    1.93000    4.00000
    8.00000    6.47500    5.00000   48.60000    1.67000    4.00000
    8.00000    6.47500    5.00000   58.70000    1.01000   12.00000
    8.00000    6.47500    5.00000   69.50000    0.69000    7.00000
    8.00000    6.47500    5.00000   81.40000    0.71000    7.00000
    8.00000    6.60500    4.00000    2.00000    5.00000    1.80000
    8.00000    6.60500    4.00000   14.10000    6.02000    4.00000
    8.00000    6.60500    4.00000   19.00000    4.49000    5.00000
    8.00000    6.60500    4.00000   24.90000    3.07000
    8.00000    6.60500    4.00000   30.10000    2.04000
    8.00000    6.60500    4.00000   35.00000    1.11000    9.00000
    8.00000    6.60500    4.00000   51.20000    0.74000    8.00000
    8.00000    6.60500    4.00000   61.20000    0.83000    7.00000
    8.00000    6.60500    4.00000   72.00000    0.59000    7.00000
    8.00000    6.60500    4.00000   81.80000    0.41000   12.00000
    8.00000    6.99500    7.00000   14.90000    1.47000    8.00000
    8.00000    6.99500    7.00000   20.80000    0.99000    9.00000
    8.00000    6.99500    7.00000   26.50000    0.64000   11.00000
    8.00000    6.99500    7.00000   31.10000    0.42000   12.00000
    8.00000    6.99500    7.00000   36.80000    0.32000   13.00000
    8.00000    6.99500    7.00000   42.20000    0.23000   17.00000
    8.00000    6.99500    7.00000   52.20000    0.22900    9.00000
    8.00000    6.99500    7.00000   62.80000    0.21000   14.00000
    8.00000    6.99500    7.00000   83.60000    0.19400    8.00000
    8.00000    7.67800    5.00000   12.50000    0.31200    6.00000
    8.00000    7.67800    5.00000   18.30000    0.37400
    8.00000    7.67800    5.00000   23.50000    0.42800    6.00000
    8.00000    7.67800    5.00000   28.50000    0.42000    7.00000
    8.00000    7.67800    5.00000   33.90000    0.36000   11.00000
    8.00000    7.67800    5.00000   39.40000    0.30000   13.00000
    8.00000    7.67800    5.00000   49.30000    0.22200   12.00000
    8.00000    7.67800    5.00000   60.30000    0.18900   10.00000
    8.00000    7.67800    5.00000   70.20000    0.20000   20.00000
    8.00000    7.67800    5.00000   81.40000    0.23100   10.00000
    8.00000    7.86200    4.00000   14.80000    1.53400
    8.00000    7.86200    4.00000   20.10000    1.63000
    8.00000    7.86200    4.00000   25.30000    1.64000
    8.00000    7.86200    4.00000   31.10000    1.42400
    8.00000    7.86200    4.00000   36.40000    1.17800
    8.00000    7.86200    4.00000   62.90000    0.21100   10.00000
    8.00000    7.86200    4.00000   73.20000    0.26800    9.00000
    8.00000    7.86200    4.00000   83.80000    0.18300   14.00000
    8.00000    8.18700    4.00000   13.80000    1.51000    5.00000
    8.00000    8.18700    4.00000   18.20000    1.16000    3.00000
    8.00000    8.18700    4.00000   23.30000    0.89100    3.00000
    8.00000    8.18700    4.00000   28.90000    0.52000   10.00000
    8.00000    8.18700    4.00000   34.30000    0.33400    7.00000
    8.00000    8.18700    4.00000   39.40000    0.29700    9.00000
    8.00000    8.18700    4.00000   49.40000    0.29700    8.00000
    8.00000    8.18700    4.00000   59.90000    0.27600    8.00000
    8.00000    8.18700    4.00000   70.40000    0.20800   13.00000
    8.00000    8.18700    4.00000   82.20000    0.08400   18.00000
    8.00000    8.49800    5.00000   15.10000    0.70000   13.00000
    8.00000    8.49800    5.00000   19.10000    0.76000    8.00000
    8.00000    8.49800    5.00000   24.50000    0.75000    8.00000
    8.00000    8.49800    5.00000   29.50000    0.71000    6.00000
    8.00000    8.49800    5.00000   35.00000    0.76000    5.00000
    8.00000    8.49800    5.00000   40.70000    0.64000    8.00000
    8.00000    8.49800    5.00000   50.90000    0.43000   14.00000
    8.00000    8.49800    5.00000   72.80000    0.19200   15.00000
    8.00000    8.49800    5.00000   82.20000    0.11500   20.00000
    8.00000    8.60400    5.00000   14.80000   10.49000
    8.00000    8.60400    5.00000   20.00000    7.51000
    8.00000    8.60400    5.00000   25.10000    5.06000
    8.00000    8.60400    5.00000   30.20000    3.25000    6.00000
    8.00000    8.60400    5.00000   35.60000    2.13000    8.00000
    8.00000    8.60400    5.00000   41.00000    1.68000   11.00000
    8.00000    8.60400    5.00000   51.20000    1.91000    5.00000
    8.00000    8.60400    5.00000   61.70000    1.66000    5.00000
    8.00000    8.60400    5.00000   72.20000    0.89000    7.00000
    8.00000    8.60400    5.00000   82.20000    0.40000    7.00000
    8.00000    8.91600    6.00000   15.60000    2.47000
    8.00000    8.91600    6.00000   21.00000    1.65000    4.00000
    8.00000    8.91600    6.00000   26.60000    1.26000    6.00000
    8.00000    8.91600    6.00000   37.10000    0.57000   11.00000
    8.00000    8.91600    6.00000   42.50000    0.40300    6.00000
    8.00000    8.91600    6.00000   52.80000    0.34000    9.00000
    8.00000    8.91600    6.00000   63.30000    0.24500    9.00000
    8.00000    8.91600    6.00000   73.80000    0.25500    7.00000
    8.00000    8.91600    6.00000   84.00000    0.17600   11.00000
    8.00000    8.97100    6.00000   15.00000    2.71000
    8.00000    8.97100    6.00000   19.70000    1.76000
    8.00000    8.97100    6.00000   26.20000    1.45700
    8.00000    8.97100    6.00000   31.40000    0.91100
    8.00000    8.97100    6.00000   42.30000    0.47200    5.00000
    8.00000    8.97100    6.00000   53.30000    0.30500    6.00000
    8.00000    8.97100    6.00000   63.70000    0.15800   13.00000
    8.00000    8.97100    6.00000   73.60000    0.13900   14.00000
    8.00000    8.97100    6.00000   83.80000    0.11900   13.00000
    8.00000    9.05800    5.00000   14.90000    0.62000    8.00000
    8.00000    9.05800    5.00000   20.40000    0.68000    6.00000
    8.00000    9.05800    5.00000   25.60000    0.52000    8.00000
    8.00000    9.05800    5.00000   31.10000    0.39000    8.00000
    8.00000    9.05800    5.00000   36.00000    0.47000   11.00000
    8.00000    9.05800    5.00000   42.00000    0.40000    7.00000
    8.00000    9.05800    5.00000   63.20000    0.19000   21.00000
    8.00000    9.05800    5.00000   73.40000    0.19400   13.00000
    8.00000    9.05800    5.00000   83.60000    0.11300   20.00000
    8.00000    9.60900    5.00000   15.30000    2.54000
    8.00000    9.60900    5.00000   19.50000    1.69000
    8.00000    9.60900    5.00000   25.30000    1.38100
    8.00000    9.60900    5.00000   30.50000    0.86000    6.00000
    8.00000    9.60900    5.00000   35.20000    0.65000   11.00000
    8.00000    9.60900    5.00000   41.70000    0.45000    7.00000
    8.00000    9.60900    5.00000   52.60000    0.44000    9.00000
    8.00000    9.60900    5.00000   62.80000    0.29600   10.00000
    8.00000    9.60900    5.00000   73.20000    0.25000   12.00000
    8.00000    9.60900    5.00000   83.70000    0.21900    9.00000
    8.00000    9.63600    6.00000   15.30000    1.26000    5.00000
    8.00000    9.63600    6.00000   21.10000    0.85700    4.00000
    8.00000    9.63600    6.00000   26.30000    0.47000   11.00000
    8.00000    9.63600    6.00000   31.80000    0.38000   11.00000
    8.00000    9.63600    6.00000   37.50000    0.25000   20.00000
    8.00000    9.63600    6.00000   42.50000    0.30000   13.00000
    8.00000    9.63600    6.00000   53.40000    0.30000   17.00000
    8.00000    9.63600    6.00000   63.60000    0.23000   17.00000
    8.00000    9.63600    6.00000   74.30000    0.18000   22.00000
    8.00000    9.63600    6.00000   84.20000    0.17000   18.00000
    8.00000    9.67400    5.00000   15.00000    2.41000    6.00000
    8.00000    9.67400    5.00000   20.70000    1.80000    6.00000
    8.00000    9.67400    5.00000   26.20000    1.51000    5.00000
    8.00000    9.67400    5.00000   31.60000    1.06000    8.00000
    8.00000    9.67400    5.00000   36.80000    0.93000    5.00000
    8.00000    9.67400    5.00000   42.20000    0.66000    8.00000
    8.00000    9.67400    5.00000   53.10000    0.54000    7.00000
    8.00000    9.67400    5.00000   63.20000    0.52000   12.00000
    8.00000    9.67400    5.00000   73.60000    0.42000   10.00000
    8.00000    9.67400    5.00000   83.70000    0.35400    8.00000
ENDDATA            292
ENDSUBENT          328
ENDENTRY             2
