ENTRY            O1793   20091117   20100809   20100806       O041
SUBENT        O1793001   20091117   20100809   20100806       O041
BIB                 13         26
TITLE      The reactions Zn-68,70(He3,d)Ga-69,71 and level
           systematics of the odd-mass Ga isotopes.
AUTHOR     (A.Ricatto, P.David)
REFERENCE  (J,NP/A,228,461,1974)
INSTITUTE  (2GERBON)
SAMPLE     Self-supporting foils, approximately 100 mug/cm**2
           thick, prepared by vacuum evaporation of highly
           enriched ZnO power-more or equal 98.5% for Zn-68 and
           more or equal 79.0% for Zn-70, was used.
FACILITY   (VDGT,2GERMPH) The Heidelberg EN tandem accelerator.
DETECTOR   (MAGSP) A broad-range magnetic spectrograph of the
           Browne-Buechner type.
METHOD     (SITA)
INC-SOURCE *EN-RSL*.The typical resolution.
ADD-RES    (COMP).DWBA analysis.
           Spectrum of deuterons from the Zn-68(He3,d)Ga-69
           reaction was observed.
           Spectrum of  deuterons from the Zn-70(He3,d)Ga-71
           reaction was observed.
ERR-ANALYS (ERR-DIG).Digitizing error of data.
           (ANG-ERR-D).Digitizing error of angle.
           (E-LVL-ERR).Level energy error
           (ERR-S).Statistical error is reported by authors on
           figure.
STATUS     (CURVE) By CAJAD
HISTORY    (20091109C) SB
ENDBIB              26
COMMON               4          3
EN-RSL     E-LVL-ERR  ANG-ERR-D  ERR-DIG
KEV        KEV        ADEG       PER-CENT
20.        15.        0.17       2.
ENDCOMMON            3
ENDSUBENT           33
SUBENT        O1793002   20091117   20100809   20100806       O041
BIB                  2          2
REACTION   (30-ZN-68(HE3,D)31-GA-69,PAR,DA) fig 3
EN-SEC     (E-LVL,31-GA-69)
ENDBIB               2
COMMON               1          3
EN
MEV
15.
ENDCOMMON            3
DATA                 4        243
E-LVL      ANG-CM     DATA-CM    ERR-S
MEV        ADEG       MB/SR      PER-CENT
    0.00000    3.79000    1.67000
    0.00000    6.23000    2.54000
    0.00000    8.93000    3.11000
    0.00000   11.50000    3.35000
    0.00000   14.21000    2.95000
    0.00000   16.67000    2.35000
    0.00000   19.27000    1.60400
    0.00000   24.69000    0.88300
    0.00000   29.83000    1.52100
    0.00000   35.11000    1.52000    3.00000
    0.31900    4.13000    1.27900
    0.31900    6.57000    2.04000
    0.31900    9.14000    2.45000
    0.31900   11.59000    2.51000
    0.31900   14.30000    2.17000
    0.31900   17.13000    1.76900
    0.31900   19.73000    1.06800
    0.31900   24.90000    0.72700
    0.31900   30.04000    1.21900
    0.31900   35.32000    1.13400
    0.57400    4.39000    0.09600    6.00000
    0.57400    7.22000    0.08400   10.00000
    0.57400    9.65000    0.13800    8.00000
    0.57400   12.22000    0.18600
    0.57400   14.79000    0.23900
    0.57400   17.47000    0.46700
    0.57400   20.04000    0.65000    6.00000
    0.57400   25.19000    0.71000    7.00000
    0.57400   30.35000    0.75000
    0.57400   35.64000    0.51800    4.00000
    0.87200    4.44000    0.44900
    0.87200    7.01000    0.65600
    0.87200    9.58000    0.91000
    0.87200   12.16000    0.87200
    0.87200   14.74000    0.84700
    0.87200   17.45000    0.67000
    0.87200   20.03000    0.51100    3.00000
    0.87200   25.34000    0.25100    4.00000
    0.87200   30.48000    0.35100    4.00000
    0.87200   35.88000    0.39600    6.00000
    1.02700    4.66000    0.19700    7.00000
    1.02700    7.36000    0.21600
    1.02700    9.92000    0.31700
    1.02700   12.50000    0.31500
    1.02700   15.08000    0.27100    3.00000
    1.02700   17.92000    0.20300
    1.02700   20.39000    0.14860
    1.02700   25.44000    0.08200    6.00000
    1.02700   30.83000    0.13500    6.00000
    1.02700   36.11000    0.13700    6.00000
    1.72300    4.43000    0.01417
    1.72300   11.13000    0.02350
    1.72300   15.38000    0.05170
    1.72300   15.50000    0.04460
    1.72300   17.92000    0.09350
    1.72300   20.71000    0.14000    8.00000
    1.72300   25.71000    0.16100    6.00000
    1.72300   30.97000    0.12300    5.00000
    1.72300   36.23000    0.10000    8.00000
    1.97100    5.11000    0.28100
    1.97100    7.78000    0.40400
    1.97100   10.33000    0.55000
    1.97100   13.01000    0.64400
    1.97100   15.46000    0.64700
    1.97100   18.03000    0.54500
    1.97100   20.72000    0.47000
    1.97100   25.96000    0.51200
    1.97100   31.08000    0.77700
    1.97100   36.32000    0.99000    4.00000
    2.02100    5.09000    0.06300   11.00000
    2.02100    7.66000    0.04800    8.00000
    2.02100   10.34000    0.05600    9.00000
    2.02100   15.44000    0.13100   11.00000
    2.02100   18.24000    0.19400
    2.02100   20.31000    0.22600
    2.02100   22.01000    0.26300
    2.02100   25.54000    0.32800
    2.02100   30.79000    0.31900    3.00000
    2.02100   36.30000    0.22400    3.00000
    2.22000    5.01000    0.44000    5.00000
    2.22000    7.46000    0.25400    7.00000
    2.22000   10.27000    0.15300    4.00000
    2.22000   12.84000    0.08900   10.00000
    2.22000   15.53000    0.05500   15.00000
    2.22000   17.98000    0.09300   10.00000
    2.22000   21.90000    0.12770
    2.22000   25.69000    0.13190
    2.22000   36.09000    0.05650
    2.47600    5.38000    0.07300
    2.47600    7.95000    0.09400   11.00000
    2.47600   10.64000    0.15400    9.00000
    2.47600   13.21000    0.16800    5.00000
    2.47600   15.66000    0.27200    4.00000
    2.47600   18.23000    0.32200
    2.47600   20.92000    0.33300
    2.47600   25.93000    0.22100    6.00000
    2.47600   31.19000    0.14300    5.00000
    2.47600   36.33000    0.13020
    2.47600   38.66000    0.13990
    2.52100    5.38000    0.08200
    2.52100    7.95000    0.07000    7.00000
    2.52100   10.64000    0.14400   10.00000
    2.52100   13.33000    0.14300    7.00000
    2.52100   15.78000    0.13000    6.00000
    2.52100   18.47000    0.11790
    2.52100   18.47000    0.09480
    2.52100   20.92000    0.07630
    2.52100   20.92000    0.06720
    2.52100   22.39000    0.05340
    2.52100   26.06000    0.03590
    2.52100   26.18000    0.04030
    2.52100   31.44000    0.05930
    2.52100   36.58000    0.07100
    2.52100   38.66000    0.05500
    2.52100   41.10000    0.04490
    2.56400    8.07000    0.04200   17.00000
    2.56400   10.52000    0.05500   13.00000
    2.56400   13.09000    0.04500   13.00000
    2.56400   15.78000    0.06900   13.00000
    2.56400   18.35000    0.07900    9.00000
    2.56400   26.18000    0.14800
    2.56400   31.20000    0.21500
    2.56400   36.46000    0.28000
    2.65100    5.26000    0.15940
    2.65100    8.07000    0.23900    7.00000
    2.65100   10.64000    0.36600    5.00000
    2.65100   13.46000    0.39000    4.00000
    2.65100   15.66000    0.41500    3.00000
    2.65100   21.04000    0.29900
    2.65100   22.63000    0.18800
    2.65100   26.30000    0.16100
    2.65100   31.32000    0.17000
    2.65100   35.11000    0.20300
    2.65100   36.21000    0.20300
    2.65100   37.07000    0.19300
    2.65100   37.80000    0.18500
    2.65100   39.64000    0.16800
    2.74000    5.50000    0.06280
    2.74000    7.95000    0.06800
    2.74000   10.64000    0.13860
    2.74000   13.33000    0.13000    3.00000
    2.74000   15.90000    0.12300    5.00000
    2.74000   18.47000    0.06340    4.00000
    2.74000   23.24000    0.04980
    2.74000   26.18000    0.04720
    2.74000   31.32000    0.06970
    2.74000   33.52000    0.06520
    2.74000   34.50000    0.06540
    2.74000   35.23000    0.06550
    2.74000   36.58000    0.05410
    2.78900    5.26000    0.09800    6.00000
    2.78900    7.83000    0.08600   12.00000
    2.78900   10.64000    0.13400   10.00000
    2.78900   13.21000    0.14300   10.00000
    2.78900   15.66000    0.14800    5.00000
    2.78900   18.23000    0.11400    6.00000
    2.78900   20.55000    0.07620
    2.78900   25.94000    0.05860
    2.78900   31.32000    0.06820
    2.78900   36.34000    0.07080
    2.91500    5.14000    0.14600    8.00000
    2.91500    7.83000    0.13900    7.00000
    2.91500   10.40000    0.16800    8.00000
    2.91500   12.85000    0.20100    9.00000
    2.91500   14.07000    0.24100    4.00000
    2.91500   15.54000    0.29600    5.00000
    2.91500   18.11000    0.33800
    2.91500   20.80000    0.34400
    2.91500   25.81000    0.22800
    2.91500   31.20000    0.18100
    2.91500   36.34000    0.14100    2.80000
    3.08900    5.10000    0.17400
    3.08900    7.54000    0.21900    7.00000
    3.08900   10.21000    0.38200    7.00000
    3.08900   12.64000    0.34900    6.00000
    3.08900   15.07000    0.47300    6.00000
    3.08900   15.19000    0.29600
    3.08900   17.87000    0.42200    4.00000
    3.08900   20.30000    0.60100    5.00000
    3.08900   25.53000    0.33500    6.00000
    3.08900   30.63000    0.25600    7.00000
    3.08900   35.74000    0.22800    6.00000
    3.31400    5.35000    0.05600   13.00000
    3.31400   10.33000    0.07000    4.00000
    3.31400   12.88000    0.08300    8.00000
    3.31400   15.44000    0.17200   13.00000
    3.31400   18.23000    0.13100    8.00000
    3.31400   25.77000    0.10700    4.00000
    3.31400   30.87000    0.10600    6.00000
    3.31400   36.10000    0.07000    6.00000
    3.35800    5.35000    0.08900    4.00000
    3.35800    7.90000    0.07700   12.00000
    3.35800   10.57000    0.09800    7.00000
    3.35800   13.25000    0.15400    8.00000
    3.35800   15.80000    0.20600    5.00000
    3.35800   18.35000    0.25100
    3.35800   26.01000    0.17100    5.00000
    3.35800   31.12000    0.10300   11.00000
    3.35800   36.47000    0.12200   10.00000
    3.76000    5.35000    0.11100    7.00000
    3.76000    8.02000    0.11000    5.00000
    3.76000   10.57000    0.13500   11.00000
    3.76000   13.25000    0.14100    8.00000
    3.76000   15.92000    0.12000    8.00000
    3.76000   18.23000    0.09700   11.00000
    3.76000   26.01000    0.09100    8.00000
    3.76000   31.24000    0.07600   11.00000
    3.76000   36.34000    0.09700    8.00000
    4.02100    5.35000    0.16200    6.00000
    4.02100    7.90000    0.17500   11.00000
    4.02100   10.70000    0.25000    8.00000
    4.02100   13.25000    0.28800    5.00000
    4.02100   15.92000    0.25800    6.00000
    4.11500    5.47000    0.33000
    4.11500    8.14000    0.22100    7.00000
    4.11500   10.70000    0.17700    8.00000
    4.11500   13.25000    0.09300    8.00000
    4.11500   15.92000    0.07600    8.00000
    4.11500   18.48000    0.11000    8.00000
    4.11500   26.26000    0.13600    6.00000
    4.15200    6.15000    0.36100    6.00000
    4.15200    8.68000    0.24900    6.00000
    4.15200   11.36000    0.21200    6.00000
    4.15200   13.90000    0.15800    8.00000
    4.15200   16.22000    0.16600    8.00000
    4.15200   19.02000    0.15800    8.00000
    4.15200   26.73000    0.20900
    4.15200   31.84000    0.18300    4.00000
    4.15200   36.84000    0.18300    4.00000
    4.19000    5.85000    0.22000    4.00000
    4.19000    8.50000    0.15300
    4.19000   13.69000    0.07000    9.00000
    4.19000   16.12000    0.06300   13.00000
    4.19000   18.83000    0.08700    9.00000
    4.19000   26.50000    0.07300    8.00000
    4.19000   31.77000    0.09450
    4.19000   36.88000    0.07710
    4.83000    5.54000    0.41800    6.00000
    4.83000    8.18000    0.22900    5.00000
    4.83000   10.86000    0.20500    4.00000
    4.83000   13.39000    0.13500    7.00000
    4.83000   15.81000    0.10700    7.00000
    4.83000   26.18000    0.11200    8.00000
ENDDATA            245
ENDSUBENT          256
SUBENT        O1793003   20091118   20100809   20100806       O041
BIB                  2          2
REACTION   (30-ZN-70(HE3,D)31-GA-71,PAR,DA) fig 4
EN-SEC     (E-LVL,31-GA-71)
ENDBIB               2
COMMON               1          3
EN
MEV
17.
ENDCOMMON            3
DATA                 5        171
E-LVL      E-LVL      ANG-CM     DATA-CM    ERR-S
MEV        MEV        ADEG       MB/SR      PER-CENT
    0.00000               7.81000    3.69000
    0.00000              10.64000    4.24000    4.00000
    0.00000              13.12000    3.66000
    0.00000              15.60000    2.84000
    0.00000              20.99000    0.87000    8.00000
    0.00000              26.13000    1.44000    6.00000
    0.00000              36.78000    0.79900    4.00000
    0.39000               5.10000    0.17700    7.00000
    0.39000               7.90000    0.28900    3.00000
    0.39000              10.72000    0.36200    4.00000
    0.39000              13.20000    0.30900    5.00000
    0.39000              15.81000    0.21400    6.00000
    0.39000              20.93000    0.09100   12.00000
    0.39000              26.38000    0.06400   17.00000
    0.39000              36.72000    0.08200    9.00000
    0.48700    0.51200    5.22000    0.50700    4.00000
    0.48700    0.51200    8.15000    0.86100
    0.48700    0.51200   10.71000    1.16000
    0.48700    0.51200   13.30000    1.17800
    0.48700    0.51200   16.03000    1.01400
    0.48700    0.51200   21.23000    0.70300
    0.48700    0.51200   26.28000    0.77000    5.00000
    0.48700    0.51200   36.81000    0.38700    1.80000
    1.10900               5.24000    1.74000
    1.10900               7.91000    3.24000
    1.10900              10.61000    3.53000
    1.10900              13.34000    2.95000
    1.10900              15.70000    2.15000
    1.10900              20.97000    0.66000    8.00000
    1.10900              26.37000    0.88400
    1.10900              36.75000    0.65400
    1.48500               5.26000    0.19900    9.00000
    1.48500               8.08000    0.25000    5.00000
    1.48500              10.77000    0.34800    7.00000
    1.48500              13.34000    0.43200
    1.48500              15.79000    0.57000
    1.48500              21.08000    0.63000    6.00000
    1.48500              26.27000    0.55000    9.00000
    1.48500              36.75000    0.58700
    1.64300               5.12000    0.08800   14.00000
    1.64300               7.79000    0.15500   13.00000
    1.64300              10.49000    0.17700   11.00000
    1.64300              13.00000    0.10700   11.00000
    1.64300              15.73000    0.08200   11.00000
    1.64300              20.96000    0.03900   23.00000
    1.64300              26.23000    0.06400   17.00000
    1.64300              36.72000    0.05600   11.00000
    1.71300               5.16000    0.70000    6.00000
    1.71300               7.79000    0.40200    6.00000
    1.71300              10.40000    0.30000    8.00000
    1.71300              15.64000    0.13700    7.00000
    1.71300              20.87000    0.36000    8.00000
    1.71300              26.20000    0.25300   10.00000
    1.71300              36.71000    0.16700    5.00000
    2.14700               4.80000    0.08500   11.00000
    2.14700               7.59000    0.14200   11.00000
    2.14700              10.40000    0.21400    6.00000
    2.14700              15.26000    0.11500   10.00000
    2.14700              20.59000    0.07200   18.00000
    2.14700              36.27000    0.05900   10.00000
    2.20600               5.73000    0.06200   15.00000
    2.20600               8.29000    0.07500   12.00000
    2.20600              10.85000    0.10000   12.00000
    2.20600              13.41000    0.11500   10.00000
    2.20600              15.96000    0.17500   11.00000
    2.20600              21.19000    0.32600    8.00000
    2.20600              26.34000    0.35000   11.00000
    2.20600              37.10000    0.15500    6.00000
    2.31000               5.66000    0.31600    6.00000
    2.31000               8.44000    0.49200    5.00000
    2.31000              11.11000    0.75600    3.00000
    2.31000              13.71000    0.59000    5.00000
    2.31000              21.55000    0.18400   13.00000
    2.31000              26.60000    0.15700   13.00000
    2.31000              37.30000    0.14100    4.00000
    2.34600               5.75000    0.16800    7.00000
    2.34600               8.43000    0.22500    7.00000
    2.34600              11.35000    0.29400   10.00000
    2.34600              13.71000    0.22000    9.00000
    2.34600              16.42000    0.21200    9.00000
    2.34600              21.53000    0.08200   18.00000
    2.34600              26.93000    0.09500   17.00000
    2.34600              37.13000    0.09000    8.00000
    2.44700               5.63000    0.16000    9.00000
    2.44700               8.31000    0.21500    7.00000
    2.44700              11.10000    0.31900    7.00000
    2.44700              13.71000    0.22900    9.00000
    2.44700              16.24000    0.09300   12.00000
    2.44700              21.32000    0.05300   25.00000
    2.44700              37.01000    0.09200    9.00000
    2.51600               5.63000    0.23700    8.00000
    2.51600               8.42000    0.36800    8.00000
    2.51600              11.09000    0.49000    5.00000
    2.51600              16.29000    0.33700    5.00000
    2.51600              21.29000    0.12100   11.00000
    2.51600              26.67000    0.15100   11.00000
    2.51600              36.85000    0.17600    6.00000
    2.96700               5.66000    0.15600   12.00000
    2.96700               8.21000    0.22300    8.00000
    2.96700              11.01000    0.28800    8.00000
    2.96700              13.59000    0.27700    6.00000
    2.96700              16.16000    0.32900    8.00000
    2.96700              21.25000    0.17900   15.00000
    2.96700              26.51000    0.22100   12.00000
    2.96700              36.86000    0.16300   10.00000
    3.15300               5.48000    0.10800    9.00000
    3.15300               7.95000    0.09200   12.00000
    3.15300              10.72000    0.17900    9.00000
    3.15300              13.31000    0.16300   11.00000
    3.15300              15.74000    0.22200    7.00000
    3.15300              21.02000    0.21300   10.00000
    3.15300              36.69000    0.10400    9.00000
    3.22700               5.14000    0.15600   12.00000
    3.22700               7.81000    0.23400    9.00000
    3.22700              10.60000    0.35000    9.00000
    3.22700              13.07000    0.29700    9.00000
    3.22700              15.66000    0.25700   10.00000
    3.22700              20.66000    0.09600   14.00000
    3.22700              36.38000    0.10100   11.00000
    3.60700               4.98000    0.15300    9.00000
    3.60700               7.43000    0.19900    8.00000
    3.60700              12.56000    0.30000   10.00000
    3.60700              15.01000    0.39000   10.00000
    3.60700              20.48000    0.31200    8.00000
    3.60700              36.18000    0.17700    5.00000
    3.74900               5.13000    0.14100    8.00000
    3.74900               7.82000    0.19300    8.00000
    3.74900              10.40000    0.31400    7.00000
    3.74900              12.84000    0.37100    5.00000
    3.74900              15.41000    0.47900    6.00000
    3.74900              20.77000    0.44000    9.00000
    3.74900              36.45000    0.18500    5.00000
    3.81300               5.45000    0.66800    4.00000
    3.81300               8.12000    0.41500    5.00000
    3.81300              10.55000    0.33500    8.00000
    3.81300              13.20000    0.15600   14.00000
    3.81300              21.01000    0.21100   14.00000
    3.81300              36.83000    0.10700    7.00000
    4.13000               1.23000    0.80600
    4.13000               5.35000    0.45000   11.00000
    4.13000               8.02000    0.34000   12.00000
    4.13000              10.69000    0.24300    9.00000
    4.13000              13.10000    0.12300   10.00000
    4.13000              21.17000    0.23400   11.00000
    4.13000              36.74000    0.13900    7.00000
    4.21100               5.49000    0.45000    9.00000
    4.21100               8.04000    0.29300    9.00000
    4.21100              10.59000    0.22500    7.00000
    4.21100              13.12000    0.10400   11.00000
    4.21100              15.81000    0.13300   10.00000
    4.21100              20.93000    0.17400   10.00000
    4.21100              36.86000    0.06600   12.00000
    4.64400               5.52000    0.46800    5.00000
    4.64400               7.93000    0.27200    5.00000
    4.64400              10.85000    0.20800    8.00000
    4.64400              13.27000    0.13300   10.00000
    4.64400              15.83000    0.14900   11.00000
    4.64400              36.76000    0.06100    8.00000
    4.81300               5.38000    0.14900   11.00000
    4.81300               8.08000    0.22400   10.00000
    4.81300              13.19000    0.19200   11.00000
    4.81300              15.76000    0.25900    8.00000
    4.81300              20.88000    0.31000   10.00000
    4.81300              36.57000    0.12700    9.00000
    5.22100               5.44000    0.65000    8.00000
    5.22100               7.99000    0.49000    8.00000
    5.22100              10.55000    0.48700    6.00000
    5.22100              12.97000    0.33400    7.00000
    5.22100              15.51000    0.18400    7.00000
    5.22100              20.77000    0.35200    8.00000
    5.22100              36.33000    0.12600   10.00000
ENDDATA            173
ENDSUBENT          184
ENDENTRY             3
