ENTRY            30927   20120120   20130328   20130321       3158
SUBENT        30927001   20120120   20130328   20130321       3158
BIB                 15         59
TITLE      Measurements of discrete gamma-ray production cross
           sections for the interactions of 14.9MeV neutrons with
           cobalt.
AUTHOR     (Zhou Hongyu,Tang Lin,Fan Guoying,Yan Yiming,Sun Suxu,
           Wang Qi,Lan Liqiao,Wen Chenlin,Hua Ming,Liu Shuzhen,
           Rong Yaning,Yan Hua)
INSTITUTE  (3CPRBNU)
REFERENCE  (C,88MITO,,311,1988) Main reference, Tables given
REL-REF    (M,30904001,Zhou Hongyu+,R,INDC(CPR)-10,1986)
            Details of method. Similar experiment by same authors
            for other elements
SAMPLE     The cobalt sample was a solid cylinder in 3cm dia and
           3cm high; the purity was more than 99.9%
FACILITY   (CCW,3CPRBNU)
INC-SOURCE (D-T) 300keV pulsed deuteron and solid T-Ti
             target.Average neutron intensity was 5 x 10**8 n/sec.
METHOD     (TOF)
           (ASSOP)
           The experiments were carried out at a pulse neutron
           time-of-flight facility. The repetition frequency of
           pulsed beams was 3.16MHz.The FWHM of pulses was 1nsec.
MONITOR    The neutron flux was determined by associated alpha
           particle counting.
           Au-Si detector was used as associated alpha-particle
           detector.
DETECTOR   (GELI) The gamma-ray spectra were detected by the
                  coaxial Ge(Li) detector which was placed in a
                  heavy shield
CORRECTION Corrections for neutron                      estimated
           and gamma-ray yields :                       to be :
           -Neutron attenuation in the backing and
            cooling water of the neutron target               2.5%
           -The neutron attenuation in the sample            29.2%
           -The gamma-ray attenuation in the sample    50.2-628.9%
           -The neutron elastic multiple scattering           7.9%
           -The neutron inelastic multiple
            scattering                                        3.7%
           Corrections for gamma-ray count loss caused by the
           threshold of timing channel of Ge(Li)detector were
           also made
ERR-ANALYS (DATA-ERR)The errors of the differential cross sections
           were estimated taking account of the uncertainties in:
           (ERR-1,1.,100.) Determining the counts in the full
             energy peak,which depends on the individual
             gamma-ray peak                               (1-100)%
           (ERR-2,2.,4.) Determining neutron flux incident upon
             the sample                                     (2-4)%
           (ERR-3,1.5,3.) Absolute detection efficiency for full
             energy peak                                  (1.5-3)%
           (ERR-4,1.,3.) The correction factor F            (1-3)%
STATUS     (TABLE) Data taken from 88MITO,311,88,Tab1,2 were
             adjusted by correction factor, see HISTORY
HISTORY    (19890520C) VOF
           (19931204A) LQC.- All previous Data and Data-err in
           all subentries were multiplied with a factor 0.80896
           according to the authors opinion.
           (20090912A) SD:Updated to new date formats,lower case.
           Cosmetic changes, codes for partial uncertainties
           (20120120A) NDS(VZ): REL-REF: ND/B->NDS in 002
ENDBIB              59
COMMON               1          3
EN
MEV
14.9
ENDCOMMON            3
ENDSUBENT           66
SUBENT        30927002   20120120   20130328   20130321       3158
BIB                  4         14
REACTION   (27-CO-59(N,X)0-G-0,PAR,DA)
REL-REF    (R,,D.M.Lederer+,B,LEDERER-7,,1978)
           (R,,P.Andersson,J,NDS,39,641,1983)
           (R,,L.K.Peker,J,NDS,42,457,1984)
           Probable reaction types and transitions of every
           gamma-ray line were taken according to these references
FLAG       (1.) Probable reaction (n,inl)
           (2.) Probable reaction (n,a)
           (3.) Probable reaction (n,2n)
           (4.) Probable reaction (n,p)
           (5.) Probable reaction (n,np)
           (6.) Probable reaction (n,inl), but also probable gamma
               transition from 2348.0 keV level for (n,2n)reaction
HISTORY    (20120120A) NDS(VZ): REL-REF: ND/B->NDS
ENDBIB              14
NOCOMMON             0          0
DATA                 6        440
ANG        E          DATA       DATA-ERR   LVL-INI    FLAG
ADEG       KEV        MB/SR      MB/SR      KEV        NO-DIM
30.0             111.5  4.303      0.250          111.5        3.
30.0             142.3  0.436      0.093         2159.1        2.
30.0             211.9  1.011      0.153          211.9        2.
30.0             235.7  0.741      0.294         1749.4        3.
30.0             262.7  0.428      0.150         1744.3        1.
30.0             269.0  0.922      0.186         1459.1        1.
30.0             302.6  0.359      0.114         1378.0        3.
30.0             320.9  8.073      0.404          373.7        3.
30.0             333.1  0.430      0.085         3423.7        1.
30.0             335.3  0.500      0.100          335.3        2.
30.0             345.9  0.738      0.118          457.4        3.
30.0             349.2  0.567      0.090          373.7        3.
30.0             365.7  4.117      0.218          365.7        3.
30.0             382.5  0.946      0.105         1401.6        1.
30.0             432.5  4.271      0.234          457.4        3.
30.0             452.3  0.556      0.141         2539.6        1.
30.0             472.9  0.786      0.118         1522.3        3.
30.0             494.0  0.841      0.121         1980.0        2.
30.0             504.5  1.626      0.177         1548.6        3.
30.0             520.3  0.338      0.091         1757.4        3.
30.0             541.2  0.242      0.104         5256.0        1.
30.0             554.2  1.229      0.129         1744.3        1.
30.0             570.8  1.504      0.137          570.8        4.
30.0             579.9  0.706      0.141         1239.9        2.
30.0             582.8  0.447      0.134         1039.1        3.
30.0             649.9  0.423      0.088         2712.7        1.
30.0             693.9  4.999      0.299         2153.1        1.
30.0             701.7  0.702      0.258         1075.4        3.
30.0             722.9  0.464      0.080         2204.5        1.
30.0             727.1  1.909      0.137         1184.5        3.
30.0             774.0  0.881      0.153          885.5        3.
30.0             795.5  1.286      0.355         2539.8        1.
30.0             810.5  4.683      0.250          810.5        5.
30.0             871.0  0.482      0.130         1236.7        3.
30.0             894.8  0.678      0.135         4139.0        5.
30.0             913.3  0.471      0.141         2204.5        6.
30.0             963.0  0.736      0.110         2153.1        1.
30.0             992.2  3.171      0.250         2183.0        1.
30.0            1013.9  0.351      0.175         3890.0        5.
30.0            1023.0  1.011      0.129         1075.4        3.
30.0            1040.3  1.140      0.186         1040.3        3.
30.0            1044.2  0.699      0.139         1044.2        3.
30.0            1050.5  7.175      0.380         1075.4        3.
30.0            1099.0  4.255      0.218         1099.0        1.
30.0            1125.2  0.584      0.107         1236.7        3.
30.0            1171.7  1.464      0.161         4086.3        1.
30.0            1190.1 16.041      0.800         1190.1        1.
30.0            1236.7  1.124      0.226         1236.7        3.
30.0            1265.4  1.221      0.129         1290.3        3.
30.0            1291.2  2.337      0.153         1291.2        1.
30.0            1323.3  0.368      0.110         2133.8        5.
30.0            1327.1  0.479      0.145         1351.5        3.
30.0            1396.5  0.378      0.113
30.0            1398.9  0.341      0.110         1509.4        2.
30.0            1411.5  0.351      0.140         1865.8        2.
30.0            1459.2 11.729      0.590         1459.2        1.
30.0            1481.6  3.397      0.226         1481.6        1.
30.0            1524.0  0.249      0.080         1865.0        2.
30.0            1555.3  0.207      0.240         1555.3        3.
30.0            1726.2  0.456      0.220         3860.0        5.
30.0            1744.3  1.658      0.177         1744.3        1.
30.0            1993.5  0.419      0.114         2105.0        3.
30.0            2087.3  0.510      0.119         2087.3        1.
40.0             111.5  4.295      0.250          111.5        3.
40.0             142.3  0.440      0.080         2159.1        2.
40.0             211.9  0.986      0.113          211.9        2.
40.0             235.7  0.469      0.110         1749.4        3.
40.0             262.7  0.396      0.079         1744.3        1.
40.0             269.0  0.865      0.088         1459.1        1.
40.0             302.6  0.517      0.080         1378.0        3.
40.0             320.9  8.081      0.380          373.7        3.
40.0             333.1  0.440      0.331         3423.7        1.
40.0             335.3  0.558      0.111          335.3        2.
40.0             345.9  0.592      0.080          457.4        3.
40.0             349.2  0.535      0.072          373.7        3.
40.0             365.7  3.939      0.202          365.7        3.
40.0             382.5  0.978      0.097         1401.6        1.
40.0             432.5  4.190      0.210          457.4        3.
40.0             452.3  0.522      0.114         2539.6        1.
40.0             472.9  0.849      0.161         1522.3        3.
40.0             494.0  0.857      0.088         1980.0        2.
40.0             504.5  1.901      0.194         1548.6        3.
40.0             520.3  0.385      0.161         1757.4        3.
40.0             541.2  0.388      0.080         5256.0        1.
40.0             554.2  1.318      0.113         1744.3        1.
40.0             570.8  1.480      0.088          570.8        4.
40.0             579.9  0.626      0.190         1239.9        2.
40.0             582.8  0.400      0.201         1039.1        3.
40.0             649.9  0.605      0.183         2712.7        1.
40.0             693.9  4.934      0.250         2153.1        1.
40.0             701.7  0.615      0.270         1075.4        3.
40.0             722.9  0.460      0.094         2204.5        1.
40.0             727.1  1.537      0.169         1184.5        3.
40.0             774.0  0.897      0.097          885.5        3.
40.0             795.5  1.253      0.105         2539.8        1.
40.0             810.5  4.546      0.218          810.5        5.
40.0             871.0  0.637      0.080         1236.7        3.
40.0             894.8  0.528      0.082         4139.0        5.
40.0             913.3  0.443      0.073         2204.5        6.
40.0             963.0  1.059      0.105         2153.1        1.
40.0             992.2  3.252      0.210         2183.0        1.
40.0            1013.9  0.343      0.104         3890.0        5.
40.0            1023.0  0.833      0.088         1075.4        3.
40.0            1040.3  1.294      0.105         1040.3        3.
40.0            1044.2  0.682      0.074         1044.2        3.
40.0            1050.5  7.029      0.412         1075.4        3.
40.0            1099.0  4.060      0.202         1099.0        1.
40.0            1125.2  0.567      0.088         1236.7        3.
40.0            1171.7  1.472      0.105         4086.3        1.
40.0            1190.1 16.122      0.598         1190.1        1.
40.0            1236.7  1.116      0.226         1236.7        3.
40.0            1265.4  1.278      0.097         1290.3        3.
40.0            1291.2  2.483      0.129         1291.2        1.
40.0            1323.3  0.368      0.101         2133.8        5.
40.0            1327.1  0.465      0.148         1351.5        3.
40.0            1396.5  0.389      0.080
40.0            1398.9  0.372      0.076         1509.4        2.
40.0            1411.5  0.369      0.112         1865.8        2.
40.0            1459.2 11.535      0.501         1459.2        1.
40.0            1481.6  3.041      0.161         1481.6        1.
40.0            1524.0  0.290      0.088         1865.0        2.
40.0            1555.3  0.358      0.108         1555.3        3.
40.0            1726.2  0.513      0.182         3860.0        5.
40.0            1744.3  1.844      0.186         1744.3        1.
40.0            1993.5  0.376      0.092         2105.0        3.
40.0            2087.3  0.492      0.103         2087.3        1.
55.0             111.5  4.174      0.242          111.5        3.
55.0             142.3  0.495      0.082         2159.1        2.
55.0             211.9  1.059      0.072          211.9        2.
55.0             235.7  0.697      0.137         1749.4        3.
55.0             262.7  0.398      0.129         1744.3        1.
55.0             269.0  0.906      0.088         1459.1        1.
55.0             302.6  0.494      0.082         1378.0        3.
55.0             320.9  8.761      0.412          373.7        3.
55.0             333.1  0.456      0.071         3423.7        1.
55.0             335.3  0.461      0.071          335.3        2.
55.0             345.9  0.825      0.088          457.4        3.
55.0             349.2  0.658      0.071          373.7        3.
55.0             365.7  4.174      0.250          365.7        3.
55.0             382.5  0.906      0.088         1401.6        1.
55.0             432.5  4.732      0.234          457.4        3.
55.0             452.3  0.757      0.106         2539.6        1.
55.0             472.9  0.715      0.098         1522.3        3.
55.0             494.0  0.760      0.083         1980.0        2.
55.0             504.5  1.876      0.105         1548.6        3.
55.0             520.3  0.381      0.074         1757.4        3.
55.0             541.2  0.340      0.116         5256.0        1.
55.0             554.2  1.415      0.121         1744.3        1.
55.0             570.8  1.270      0.105          570.8        4.
55.0             579.9  0.889      0.186         1239.9        2.
55.0             582.8  0.554      0.140         1039.1        3.
55.0             649.9  0.487      0.117         2712.7        1.
55.0             693.9  4.991      0.234         2153.1        1.
55.0             701.7  0.751      0.228         1075.4        3.
55.0             722.9  0.492      0.101         2204.5        1.
55.0             727.1  1.844      0.202         1184.5        3.
55.0             774.0  1.245      0.113          885.5        3.
55.0             795.5  1.528      0.129         2539.8        1.
55.0             810.5  5.023      0.242          810.5        5.
55.0             871.0  0.833      0.097         1236.7        3.
55.0             894.8  0.669      0.097         4139.0        5.
55.0             913.3  0.534      0.109         2204.5        6.
55.0             963.0  0.623      0.080         2153.1        1.
55.0             992.2  3.235      0.161         2183.0        1.
55.0            1013.9  0.344      0.138         3890.0        5.
55.0            1023.0  1.019      0.088         1075.4        3.
55.0            1040.3  0.954      0.105         1040.3        3.
55.0            1044.2  0.642      0.100         1044.2        3.
55.0            1050.5  7.199      0.364         1075.4        3.
55.0            1099.0  4.457      0.218         1099.0        1.
55.0            1125.2  0.664      0.078         1236.7        3.
55.0            1171.7  1.415      0.105         4086.3        1.
55.0            1190.1 15.944      0.728         1190.1        1.
55.0            1236.7  1.181      0.234         1236.7        3.
55.0            1265.4  1.156      0.097         1290.3        3.
55.0            1291.2  2.879      0.169         1291.2        1.
55.0            1323.3  0.465      0.080         2133.8        5.
55.0            1327.1  0.592      0.197         1351.5        3.
55.0            1396.5  0.600      0.182
55.0            1398.9  0.473      0.143         1509.4        2.
55.0            1411.5  0.226      0.140         1865.8        2.
55.0            1459.2 12.692      0.558         1459.2        1.
55.0            1481.6  3.785      0.202         1481.6        1.
55.0            1524.0  0.241      0.072         1865.0        2.
55.0            1555.3  0.506      0.153         1555.3        3.
55.0            1726.2  0.560      0.225         3860.0        5.
55.0            1744.3  1.860      0.121         1744.3        1.
55.0            1993.5  0.323      0.258         2105.0        3.
55.0            2087.3  0.630      0.190         2087.3        1.
90.0             111.5  4.166      0.242          111.5        3.
90.0             142.3  0.453      0.090         2159.1        2.
90.0             211.9  0.930      0.088          211.9        2.
90.0             235.7  0.647      0.129         1749.4        3.
90.0             262.7  0.419      0.061         1744.3        1.
90.0             269.0  0.719      0.080         1459.1        1.
90.0             302.6  0.542      0.069         1378.0        3.
90.0             320.9  8.817      0.412          373.7        3.
90.0             333.1  0.520      0.057         3423.7        1.
90.0             335.3  0.630      0.068          335.3        2.
90.0             345.9  0.779      0.080          457.4        3.
90.0             349.2  0.511      0.072          373.7        3.
90.0             365.7  3.996      0.202          365.7        3.
90.0             382.5  1.011      0.080         1401.6        1.
90.0             432.5  4.522      0.226          457.4        3.
90.0             452.3  0.617      0.064         2539.6        1.
90.0             472.9  0.773      0.188         1522.3        3.
90.0             494.0  0.817      0.080         1980.0        2.
90.0             504.5  1.755      0.145         1548.6        3.
90.0             520.3  0.483      0.099         1757.4        3.
90.0             541.2  0.343      0.070         5256.0        1.
90.0             554.2  1.383      0.105         1744.3        1.
90.0             570.8  1.391      0.088          570.8        4.
90.0             579.9  0.743      0.116         1239.9        2.
90.0             582.8  0.440      0.094         1039.1        3.
90.0             649.9  0.611      0.097         2712.7        1.
90.0             693.9  4.950      0.250         2153.1        1.
90.0             701.7  0.572      0.229         1075.4        3.
90.0             722.9  0.549      0.139         2204.5        1.
90.0             727.1  1.795      0.121         1184.5        3.
90.0             774.0  1.189      0.097          885.5        3.
90.0             795.5  1.350      0.097         2539.8        1.
90.0             810.5  4.562      0.226          810.5        5.
90.0             871.0  0.632      0.093         1236.7        3.
90.0             894.8  0.552      0.113         4139.0        5.
90.0             913.3  0.402      0.082         2204.5        6.
90.0             963.0  0.633      0.088         2153.1        1.
90.0             992.2  3.365      0.177         2183.0        1.
90.0            1013.9  0.325      0.131         3890.0        5.
90.0            1023.0  0.569      0.072         1075.4        3.
90.0            1040.3  0.808      0.126         1040.3        3.
90.0            1044.2  0.590      0.097         1044.2        3.
90.0            1050.5  7.070      0.331         1075.4        3.
90.0            1099.0  4.263      0.202         1099.0        1.
90.0            1125.2  0.323      0.162         1236.7        3.
90.0            1171.7  1.464      0.145         4086.3        1.
90.0            1190.1 15.653      0.679         1190.1        1.
90.0            1236.7  0.986      0.129         1236.7        3.
90.0            1265.4  0.978      0.088         1290.3        3.
90.0            1291.2  2.710      0.161         1291.2        1.
90.0            1323.3  0.383      0.078         2133.8        5.
90.0            1327.1  0.897      0.113         1351.5        3.
90.0            1396.5  0.451      0.107
90.0            1398.9  0.516      0.124         1509.4        2.
90.0            1411.5  0.254      0.067         1865.8        2.
90.0            1459.2 11.009      0.509         1459.2        1.
90.0            1481.6  3.235      0.169         1481.6        1.
90.0            1524.0  0.258      0.129         1865.0        2.
90.0            1555.3  0.204      0.113         1555.3        3.
90.0            1726.2  0.337      0.097         3860.0        5.
90.0            1744.3  1.901      0.113         1744.3        1.
90.0            1993.5  0.242      0.080         2105.0        3.
90.0            2087.3  0.516      0.121         2087.3        1.
110.0            142.3  0.428      0.085         2159.1        2.
110.0            211.9  0.986      0.088          211.9        2.
110.0            235.7  0.404      0.194         1749.4        3.
110.0            262.7  0.410      0.093         1744.3        1.
110.0            269.0  0.726      0.086         1459.1        1.
110.0            302.6  0.572      0.078         1378.0        3.
110.0            320.9  8.477      0.396          373.7        3.
110.0            333.1  0.334      0.067         3423.7        1.
110.0            335.3  0.338      0.080          335.3        2.
110.0            345.9  0.729      0.080          457.4        3.
110.0            349.2  0.590      0.064          373.7        3.
110.0            365.7  3.971      0.202          365.7        3.
110.0            382.5  0.873      0.088         1401.6        1.
110.0            432.5  4.060      0.202          457.4        3.
110.0            452.3  0.724      0.099         2539.6        1.
110.0            472.9  0.660      0.084         1522.3        3.
110.0            494.0  0.825      0.072         1980.0        2.
110.0            504.5  1.892      0.129         1548.6        3.
110.0            520.3  0.207      0.080         1757.4        3.
110.0            541.2  0.380      0.093         5256.0        1.
110.0            554.2  1.245      0.097         1744.3        1.
110.0            570.8  1.512      0.113          570.8        4.
110.0            579.9  0.873      0.137         1239.9        2.
110.0            582.8  0.539      0.110         1039.1        3.
110.0            649.9  0.426      0.084         2712.7        1.
110.0            693.9  5.056      0.258         2153.1        1.
110.0            701.7  0.551      0.194         1075.4        3.
110.0            722.9  0.444      0.091         2204.5        1.
110.0            727.1  1.714      0.186         1184.5        3.
110.0            774.0  1.084      0.121          885.5        3.
110.0            795.5  1.464      0.113         2539.8        1.
110.0            810.5  4.554      0.242          810.5        5.
110.0            871.0  0.612      0.087         1236.7        3.
110.0            894.8  0.536      0.210         4139.0        5.
110.0            913.3  0.639      0.238         2204.5        6.
110.0            963.0  0.630      0.070         2153.1        1.
110.0            992.2  3.260      0.194         2183.0        1.
110.0           1013.9  0.306      0.239         3890.0        5.
110.0           1023.0  0.778      0.117         1075.4        3.
110.0           1040.3  1.100      0.169         1040.3        3.
110.0           1044.2  0.787      0.160         1044.2        3.
110.0           1050.5  6.981      0.315         1075.4        3.
110.0           1099.0  4.020      0.210         1099.0        1.
110.0           1125.2  0.406      0.083         1236.7        3.
110.0           1171.7  1.577      0.291         4086.3        1.
110.0           1190.1 15.022      0.639         1190.1        1.
110.0           1236.7  1.164      0.202         1236.7        3.
110.0           1265.4  1.043      0.097         1290.3        3.
110.0           1291.2  2.604      0.153         1291.2        1.
110.0           1323.3  0.370      0.112         2133.8        5.
110.0           1327.1  0.702      0.177         1351.5        3.
110.0           1396.5  0.515      0.258
110.0           1398.9  0.460      0.231         1509.4        2.
110.0           1411.5  0.347      0.174         1865.8        2.
110.0           1459.2 10.880      0.493         1459.2        1.
110.0           1481.6  3.154      0.169         1481.6        1.
110.0           1524.0  0.182      0.091         1865.0        2.
110.0           1555.3  0.422      0.169         1555.3        3.
110.0           1726.2  0.399      0.200         3860.0        5.
110.0           1744.3  1.844      0.194         1744.3        1.
110.0           1993.5  0.304      0.213         2105.0        3.
110.0           2087.3  0.611      0.282         2087.3        1.
125.0            111.5  4.481      0.258          111.5        3.
125.0            142.3  0.528      0.105         2159.1        2.
125.0            211.9  0.841      0.080          211.9        2.
125.0            235.7  0.646      0.129         1749.4        3.
125.0            262.7  0.376      0.066         1744.3        1.
125.0            269.0  0.938      0.080         1459.1        1.
125.0            302.6  0.546      0.096         1378.0        3.
125.0            320.9  8.526      0.396          373.7        3.
125.0            333.1  0.382      0.059         3423.7        1.
125.0            335.3  0.572      0.063          335.3        2.
125.0            345.9  0.775      0.067          457.4        3.
125.0            349.2  0.763      0.076          373.7        3.
125.0            365.7  4.230      0.210          365.7        3.
125.0            382.5  1.116      0.121         1401.6        1.
125.0            432.5  4.530      0.226          457.4        3.
125.0            452.3  0.817      0.097         2539.6        1.
125.0            472.9  0.702      0.064         1522.3        3.
125.0            494.0  0.678      0.069         1980.0        2.
125.0            504.5  1.682      0.137         1548.6        3.
125.0            520.3  0.444      0.316         1757.4        3.
125.0            541.2  0.323      0.056         5256.0        1.
125.0            554.2  1.245      0.088         1744.3        1.
125.0            570.8  1.472      0.097          570.8        4.
125.0            579.9  0.750      0.117         1239.9        2.
125.0            582.8  0.439      0.089         1039.1        3.
125.0            649.9  0.538      0.107         2712.7        1.
125.0            693.9  4.675      0.218         2153.1        1.
125.0            701.7  0.699      0.211         1075.4        3.
125.0            722.9  0.569      0.116         2204.5        1.
125.0            727.1  1.714      0.266         1184.5        3.
125.0            774.0  1.383      0.242          885.5        3.
125.0            795.5  1.601      0.121         2539.8        1.
125.0            810.5  4.950      0.242          810.5        5.
125.0            871.0  0.889      0.088         1236.7        3.
125.0            894.8  0.690      0.101         4139.0        5.
125.0            913.3  0.494      0.076         2204.5        6.
125.0            963.0  0.669      0.079         2153.1        1.
125.0            992.2  2.782      0.161         2183.0        1.
125.0           1013.9  0.264      0.239         3890.0        5.
125.0           1023.0  0.841      0.080         1075.4        3.
125.0           1040.3  1.011      0.097         1040.3        3.
125.0           1044.2  0.754      0.083         1044.2        3.
125.0           1050.5  7.207      0.339         1075.4        3.
125.0           1099.0  4.230      0.210         1099.0        1.
125.0           1125.2  0.449      0.135         1236.7        3.
125.0           1171.7  1.674      0.137         4086.3        1.
125.0           1190.1 15.030      0.663         1190.1        1.
125.0           1236.7  1.172      0.242         1236.7        3.
125.0           1265.4  0.922      0.097         1290.3        3.
125.0           1291.2  2.790      0.177         1291.2        1.
125.0           1323.3  0.450      0.226         2133.8        5.
125.0           1327.1  0.468      0.235         1351.5        3.
125.0           1396.5  0.585      0.293
125.0           1398.9  0.543      0.272         1509.4        2.
125.0           1411.5  0.404      0.202         1865.8        2.
125.0           1459.2 11.341      0.509         1459.2        1.
125.0           1481.6  3.316      0.194         1481.6        1.
125.0           1524.0  0.284      0.114         1865.0        2.
125.0           1555.3  0.408      0.175         1555.3        3.
125.0           1726.2  0.525      0.189         3860.0        5.
125.0           1744.3  1.998      0.145         1744.3        1.
125.0           1993.5  0.358      0.179         2105.0        3.
125.0           2087.3  0.450      0.168         2087.3        1.
140.0            111.5  4.149      0.250          111.5        3.
140.0            142.3  0.470      0.093         2159.1        2.
140.0            211.9  0.849      0.072          211.9        2.
140.0            235.7  0.658      0.133         1749.4        3.
140.0            262.7  0.457      0.078         1744.3        1.
140.0            269.0  0.817      0.145         1459.1        1.
140.0            302.6  0.550      0.072         1378.0        3.
140.0            320.9  8.162      0.250          373.7        3.
140.0            333.1  0.532      0.107         3423.7        1.
140.0            335.3  0.601      0.145          335.3        2.
140.0            345.9  0.804      0.060          457.4        3.
140.0            349.2  0.683      0.051          373.7        3.
140.0            365.7  4.247      0.145          365.7        3.
140.0            382.5  1.059      0.080         1401.6        1.
140.0            432.5  4.376      0.153          457.4        3.
140.0            452.3  0.552      0.111         2539.6        1.
140.0            472.9  0.756      0.127         1522.3        3.
140.0            494.0  0.841      0.097         1980.0        2.
140.0            504.5  1.496      0.137         1548.6        3.
140.0            520.3  0.438      0.128         1757.4        3.
140.0            541.2  0.448      0.135         5256.0        1.
140.0            554.2  1.528      0.169         1744.3        1.
140.0            570.8  1.528      0.105          570.8        4.
140.0            579.9  0.817      0.121         1239.9        2.
140.0            582.8  0.448      0.090         1039.1        3.
140.0            649.9  0.443      0.273         2712.7        1.
140.0            693.9  5.072      0.218         2153.1        1.
140.0            701.7  0.640      0.254         1075.4        3.
140.0            722.9  0.561      0.169         2204.5        1.
140.0            727.1  1.714      0.113         1184.5        3.
140.0            774.0  1.051      0.210          885.5        3.
140.0            795.5  1.496      0.129         2539.8        1.
140.0            810.5  4.619      0.153          810.5        5.
140.0            871.0  0.661      0.080         1236.7        3.
140.0            894.8  0.710      0.143         4139.0        5.
140.0            913.3  0.480      0.101         2204.5        6.
140.0            963.0  0.639      0.080         2153.1        1.
140.0            992.2  3.300      0.169         2183.0        1.
140.0           1013.9  0.244      0.122         3890.0        5.
140.0           1023.0  0.707      0.161         1075.4        3.
140.0           1040.3  0.986      0.202         1040.3        3.
140.0           1044.2  0.800      0.160         1044.2        3.
140.0           1050.5  7.175      0.242         1075.4        3.
140.0           1099.0  4.247      0.169         1099.0        1.
140.0           1125.2  0.303      0.152         1236.7        3.
140.0           1171.7  1.682      0.161         4086.3        1.
140.0           1190.1 15.111      0.477         1190.1        1.
140.0           1236.7  1.067      0.210         1236.7        3.
140.0           1265.4  1.164      0.121         1290.3        3.
140.0           1291.2  2.604      0.169         1291.2        1.
140.0           1323.3  0.463      0.097         2133.8        5.
140.0           1327.1  0.789      0.159         1351.5        3.
140.0           1396.5  0.601      0.091
140.0           1398.9  0.508      0.102         1509.4        2.
140.0           1411.5  0.504      0.096         1865.8        2.
140.0           1459.2 11.543      0.331         1459.2        1.
140.0           1481.6  3.203      0.234         1481.6        1.
140.0           1524.0  0.344      0.135         1865.0        2.
140.0           1555.3  0.372      0.223         1555.3        3.
140.0           1726.2  0.441      0.177         3860.0        5.
140.0           1744.3  1.844      0.226         1744.3        1.
140.0           1993.5  0.497      0.199         2105.0        3.
140.0           2087.3  0.622      0.187         2087.3        1.
ENDDATA            442
ENDSUBENT          461
SUBENT        30927003   20090913   20091224   20091223       3141
BIB                  3          6
REACTION   (27-CO-59(N,INL)27-CO-59,PAR,SIG,,,DERIV)
STATUS     (DEP,30927002)
COMMENT    The neutron inelastic scattering cross section of
           10 energy levels of 59-Co in 14.9 MeV incident neutron
           energy were obtained from the results of (n,inl+g)
           reaction in EXFOR 30927002.
ENDBIB               6
NOCOMMON             0          0
DATA                 3         10
E-LVL      DATA       DATA-ERR
KEV        MB         MB
     1099.0 40.690      2.426
     1190.1118.998      5.986
     1291.2 26.857      1.860
     1459.2 93.353      4.691
     1481.6 42.389      2.507
     1744.3 27.342      2.426
     2153.1 71.188      3.559
     2183.0 40.124      2.831
     2204.5 12.619      4.044
     2539.8 26.129      7.766
ENDDATA             12
ENDSUBENT           23
SUBENT        30927004   20090913   20091224   20091223       3141
BIB                  3          6
REACTION   (27-CO-59(N,INL)27-CO-59,,SIG,,,DERIV)
STATUS     (DEP,30927003)
COMMENT    The total inelastic scattering cross section from
           14.9 MeV 59-Co(n,inl+g)Co-59 reactions
           were derived from the level production cross sections
           of sub. 3.
ENDBIB               6
NOCOMMON             0          0
DATA                 2          1
DATA       DATA-ERR
MB         MB
499.128    29.931
ENDDATA              3
ENDSUBENT           14
ENDENTRY             4
