ENTRY            G0506   20150121   20151006   20150928       G034
SUBENT        G0506001   20150121   20151006   20150928       G034
BIB                 14        100
TITLE      Mass yield distributions of fission products from
           photo-fission of 238U induced by 11.5 to 17.3 MeV
           bremsstrahlung
AUTHOR     (H.Naik, Frederick Carrel, G.N.Kim, Frederic Laine,
           Adrien Sari, S.Normand, A.Goswami)
INSTITUTE  (3INDTRM,2FR SAC,3KORKNU)
REFERENCE  (J,EPJ/A,49,94,2013)
           #doi:10.1140/epja/i2013-13094-7
FACILITY   (LINAC,2FR SAC) Electron linac, SAPHIR at CEA,
           Saclay, France
SAMPLE     High-purity natural uranium metal rod of diameter
           2.74 mm and length 5 mm weighing 5.6 g
DETECTOR   (HPGE) ORTEC 40% HPGe detector coupled to a PC based
           8K channel analyzer. The resolution of the detector
           system was 2.0 keV full width at half maximum (FWHM)
           at the 1332.0 keV gamma line of Co-60.
METHOD     (ACTIV) Irradiated for 30 minutes
           (GSPEC,REC) Fission products were measured by using a
           recoil catcher and off-line gamma-ray spectrometric
           techniques.
ANALYSIS   (DECAY)
INC-SOURCE (BRST) The bremsstrahlung beam was produced by
           impinging a pulsed electron beam on a light
           watercooled cylindrical tungsten target of 5 cm
           diameter and 5mm thickness. The electron linac was
           operated with a pulse repetition rate of 25 Hz and a
           pulse width of 2.5 Microsecond. The peak current
           during irradiation was 100mA with an average current
           of 6 Microampere.
DECAY-DATA ((1.)35-BR-84-G,31.8MIN,DG,881.6,0.430)
           ((2.)35-BR-84-G,31.8MIN,DG,1616.2,0.062)
           ((3.)36-KR-85-M,4.48HR,DG,151.2,0.750)
           ((4.)36-KR-85-M,4.48HR,DG,304.9,0.140)
           ((5.)36-KR-87,76.3MIN,DG,402.6,0.496)
           ((6.)36-KR-88,2.84HR,DG,196.3,0.259)
           ((7.)37-RB-89,15.2MIN,DG,1032.1,0.580)
           ((8.)37-RB-89,15.2MIN,DG,1248.3,0.426)
           ((9.)38-SR-91,9.63HR,DG,749.8,0.236)
           ((10.)38-SR-91,9.63HR,DG,1024.3,0.330)
           ((11.)38-SR-92,2.71HR,DG,1384.9,0.900)
           ((12.)39-Y-93-G,10.18HR,DG,266.9,0.073)
           ((13.)39-Y-94,18.7MIN,DG,918.7,0.560)
           ((14.)40-ZR-95,64.02D,DG,756.7,0.540)
           ((15.)40-ZR-95,64.02D,DG,724.3,0.442)
           ((16.)40-ZR-97,16.91HR,DG,743.4,0.930)
           ((17.)42-MO-99,65.94HR,DG,140.5,0.894)
           ((18.)42-MO-99,65.94HR,DG,739.5,0.1213)
           ((19.)42-MO-101,14.61MIN,DG,590.1,0.164)
           ((20.)44-RU-103,39.26D,DG,497.1,0.900)
           ((21.)43-TC-104,18.3MIN,DG,358.0,0.890)
           ((22.)44-RU-105,4.44HR,DG,724.4,0.470)
           ((23.)45-RH-105-G,35.36HR,DG,319.1,0.192)
           ((24.)45-RH-107,21.7MIN,DG,302.8,0.660)
           ((25.)47-AG-112,3.13HR,DG,617.5,0.430)
           ((26.)47-AG-113-G,5.37HR,DG,298.6,0.100)
           ((27.)48-CD-115-G,53.46HR,DG,336.2,0.459)
           ((28.)48-CD-117-M,3.36HR,DG,1066.0,0.231)
           ((29.)48-CD-117-M,3.36HR,DG,1097.3,0.260)
           ((30.)48-CD-117-G,2.49HR,DG,273.4,0.280)
           ((31.)51-SB-127,3.85D,DG,687.0,0.370)
           ((32.)50-SN-128-G,59.07MIN,DG,482.3,0.590)
           ((33.)51-SB-129-G,4.32HR,DG,812.4,0.430)
           ((34.)51-SB-131,23.03MIN,DG,943.4,0.470)
           ((35.)53-I-131,8.02D,DG,364.5,0.817)
           ((36.)52-TE-132,3.2D,DG,228.1,0.880)
           ((37.)53-I-133-G,20.8HR,DG,529.9,0.870)
           ((38.)52-TE-134,41.8MIN,DG,566.0,0.180)
           ((39.)52-TE-134,41.8MIN,DG,767.2,0.295)
           ((40.)53-I-134-G,52.5MIN,DG,847.0,0.954)
           ((41.)53-I-134-G,52.5MIN,DG,884.1,0.650)
           ((42.)53-I-135,6.57HR,DG,1131.5,0.227)
           ((43.)53-I-135,6.57HR,DG,1260.4,0.289)
           ((44.)54-XE-137,3.7MIN,DG,455.5,0.310)
           ((45.)55-CS-138-G,33.41MIN,DG,1435.8,0.763)
           ((46.)55-CS-138-G,33.41MIN,DG,1009.8,0.298)
           ((47.)55-CS-138-G,33.41MIN,DG,462.8,0.307)
           ((48.)56-BA-139,83.03MIN,DG,165.8,0.237)
           ((49.)56-BA-140,12.75D,DG,537.3,0.244)
           ((50.)56-BA-141,18.27MIN,DG,190.3,0.460)
           ((51.)56-BA-141,18.27MIN,DG,304.7,0.354)
           ((52.)58-CE-141,32.5D,DG,145.4,0.480)
           ((53.)56-BA-142,10.6MIN,DG,255.3,0.205)
           ((54.)57-LA-142,91.1MIN,DG,641.3,0.470)
           ((55.)58-CE-143,33.03HR,DG,293.3,0.428)
           ((56.)58-CE-144,284.89D,DG,133.5,0.1109)
           ((57.)58-CE-146,13.52MIN,DG,316.7,0.560)
           ((58.)58-CE-146,13.52MIN,DG,218.2,0.206)
           ((59.)59-PR-146,24.15MIN,DG,453.9,0.480)
           ((60.)59-PR-146,24.15MIN,DG,1524.7,0.156)
           ((61.)60-ND-147,10.98D,DG,531.0,0.131)
           ((62.)60-ND-149,1.728HR,DG,211.3,0.259)
           ((63.)60-ND-149,1.728HR,DG,270.2,0.106)
           ((64.)61-PM-149,53.08HR,DG,286.0,0.031)
           ((65.)61-PM-151,28.4HR,DG,340.8,0.23)
           ((66.)62-SM-153,46.28HR,DG,103.2,0.300)
COMMENT    By Haladhara Naik (2015-08-08):
            The half-life of 151Pm printed as 53.08 hr should
            read 28.4 hr.
STATUS     (APRVD) Approved by Dr.H.Naik, RCD, BARC
HISTORY    (20150121C) BL
ENDBIB             100
NOCOMMON             0          0
ENDSUBENT          103
SUBENT        G0506002   20150121   20151006   20150928       G034
BIB                  4         12
REACTION   (92-U-238(G,F)ELEM/MASS,CUM,FY,,BRA)
MONITOR    (92-U-238(G,F)53-I-135,CUM,FY,,BRA)
ERR-ANALYS (ERR-T) Total uncertainty propagated from:
           (ERR-S,10.,15.) Counting statistics 10-15%.
           (ERR-SYS,,3.8) The systematic errors are due to the
           uncertainties in:
           (ERR-1) Irradiation time (0.5%),
           (ERR-2) Detector efficiency calibration (~ 3%),
           (ERR-3) Half-life of nuclides of the fission products
           is (~ 1%),
           (ERR-4) Gamma-ray abundance (~ 2%),
STATUS     (TABLE) Table 1,2,3 and 4 of Eur.Phys.J.A49(2013)94
ENDBIB              12
COMMON               4          3
ERR-1      ERR-2      ERR-3      ERR-4
PER-CENT   PER-CENT   PER-CENT   PER-CENT
        0.5         3.         1.         2.
ENDCOMMON            3
DATA                 7        272
EN-MAX     ELEMENT    MASS       DATA       ERR-T      DECAY-FLAG
ISOMER
MEV        NO-DIM     NO-DIM     PC/FIS     PC/FIS     NO-DIM
NO-DIM
     11.472        35.        84.      0.665      0.066         1.

     11.472        35.        84.      0.723      0.078         2.

     11.472        36.        85.      0.929      0.062         3.
         1.
     11.472        36.        85.      0.896      0.056         4.
         1.
     11.472        36.        87.      1.652      0.177         5.

     11.472        36.        88.      2.331      0.188         6.

     11.472        37.        89.      3.321      0.201         7.

     11.472        37.        89.      2.931      0.228         8.

     11.472        38.        91.      3.727      0.245         9.

     11.472        38.        91.      3.966      0.301        10.

     11.472        38.        92.      4.325      0.111        11.

     11.472        39.        93.      3.973      0.239        12.

     11.472        39.        94.      4.033       0.15        13.

     11.472        40.        95.      4.962      0.195        14.

     11.472        40.        95.      5.154      0.192        15.

     11.472        40.        97.      6.145      0.305        16.

     11.472        42.        99.      5.628      0.178        17.

     11.472        42.        99.      5.611      0.244        18.

     11.472        42.       101.      7.102      0.188        19.

     11.472        43.       104.      3.276      0.312        21.

     11.472        44.       103.      4.940      0.161        20.

     11.472        44.       105.      2.614      0.116        22.

     11.472        45.       105.      2.627      0.102        23.

     11.472        45.       107.      1.079      0.028        24.

     11.472        47.       112.      0.112      0.022        25.

     11.472        47.       113.      0.107      0.017        26.

     11.472        48.       115.      0.079      0.022        27.
         0.
     11.472        48.       115.      0.095      0.022

     11.472        48.       117.     0.0072     0.0005        28.
         1.
     11.472        48.       117.     0.0074     0.0006        29.
         1.
     11.472        48.       117.     0.0668     0.0056        30.
         0.
     11.472        48.       117.     0.0741     0.0061

     11.472        50.       128.      0.623      0.049        32.

     11.472        51.       127.      0.344      0.089        31.

     11.472        51.       129.      1.163      0.078        33.

     11.472        51.       131.      3.805      0.233        34.

     11.472        52.       132.      5.307      0.322        36.

     11.472        52.       134.      7.243      0.289        38.

     11.472        52.       134.      7.683      0.267        39.

     11.472        53.       131.      4.194      0.267        35.

     11.472        53.       133.      7.688      0.217        37.

     11.472        53.       134.      8.067      0.367        40.

     11.472        53.       134.      8.245      0.306        41.

     11.472        53.       135.      5.679      0.260        42.

     11.472        53.       135.      5.563      0.055        43.

     11.472        54.       137.      6.585      0.167        44.

     11.472        55.       138.      7.065      0.362        45.
         0.
     11.472        55.       138.      6.825      0.283        46.
         0.
     11.472        55.       138.      6.942      0.288        47.
         0.
     11.472        56.       139.      6.565      0.362        48.

     11.472        56.       140.      5.396      0.217        49.

     11.472        56.       141.      3.848      0.161        50.

     11.472        56.       141.      4.115      0.178        51.

     11.472        56.       142.      4.689      0.134        53.

     11.472        57.       142.      4.751      0.217        54.

     11.472        58.       141.      4.539      0.350        52.

     11.472        58.       143.      5.035      0.250        55.

     11.472        58.       144.      4.863      0.206        56.

     11.472        58.       146.      2.837      0.095        57.

     11.472        58.       146.      2.742      0.117        58.

     11.472        59.       146.      3.087      0.189        59.

     11.472        59.       146.      3.126      0.195        60.

     11.472        60.       147.      2.064      0.078        61.

     11.472        60.       149.      1.240      0.078        62.

     11.472        60.       149.      1.202      0.061        63.

     11.472        61.       149.      1.285      0.078        64.

     11.472        61.       151.      0.745      0.039        65.

     11.472        62.       153.      0.295      0.011        66.

     13.390        35.        84.      0.793      0.051         1.

     13.390        35.        84.       0.86      0.039         2.

     13.390        36.        85.      0.989      0.062         3.
         1.
     13.390        36.        85.      0.977      0.051         4.
         1.
     13.390        36.        87.      1.692      0.101         5.

     13.390        36.        88.        2.4      0.213         6.

     13.390        37.        89.      2.928       0.18         7.

     13.390        37.        89.      3.119      0.202         8.

     13.390        38.        91.      3.749      0.236         9.

     13.390        38.        91.      3.665      0.146        10.

     13.390        38.        92.      4.395      0.252        11.

     13.390        39.        93.      3.861      0.129        12.

     13.390        39.        94.      4.016      0.146        13.

     13.390        40.        95.      4.813      0.275        14.

     13.390        40.        95.      4.954      0.197        15.

     13.390        40.        97.      5.822      0.258        16.

     13.390        42.        99.      5.637      0.174        17.

     13.390        42.        99.      5.733      0.258        18.

     13.390        42.       101.      7.919      0.319        19.

     13.390        43.       104.       3.71      0.259        21.

     13.390        44.       103.      5.407      0.271        20.

     13.390        44.       105.       2.49      0.096        22.

     13.390        45.       105.      2.698       0.18        23.

     13.390        45.       107.      1.147      0.152        24.

     13.390        47.       112.      0.188      0.045        25.

     13.390        47.       113.      0.179      0.051        26.

     13.390        48.       115.      0.141      0.028        27.
         0.
     13.390        48.       115.      0.165      0.028

     13.390        48.       117.     0.0191     0.0045        28.
         1.
     13.390        48.       117.     0.0189     0.0055        29.
         1.
     13.390        48.       117.     0.1349     0.0225        30.
         0.
     13.390        48.       117.      0.154     0.0231

     13.390        50.       128.       0.68      0.072        32.

     13.390        51.       127.      0.331      0.022        31.

     13.390        51.       129.      1.338      0.079        33.

     13.390        51.       131.      3.771      0.107        34.

     13.390        52.       132.      5.351      0.123        36.

     13.390        52.       134.      7.577      0.289        38.

     13.390        52.       134.       7.74      0.248        39.

     13.390        53.       131.      3.878      0.112        35.

     13.390        53.       133.      7.425      0.271        37.

     13.390        53.       134.      8.437      0.372        40.

     13.390        53.       134.      8.303      0.311        41.

     13.390        53.       135.      5.671      0.073        42.

     13.390        53.       135.      5.621      0.056        43.

     13.390        54.       137.      6.525      0.179        44.

     13.390        55.       138.      7.088      0.281        45.
         0.
     13.390        55.       138.      6.762      0.258        46.
         0.
     13.390        55.       138.      6.852      0.196        47.
         0.
     13.390        56.       139.      5.941      0.259        48.

     13.390        56.       140.      4.828      0.236        49.

     13.390        56.       141.      3.912      0.197        50.

     13.390        56.       141.      3.951      0.141        51.

     13.390        56.       142.      4.764      0.202        53.

     13.390        57.       142.      4.907      0.287        54.

     13.390        58.       141.      4.266      0.259        52.

     13.390        58.       143.       4.94      0.146        55.

     13.390        58.       144.      4.759      0.108        56.

     13.390        58.       146.      3.361      0.067        57.

     13.390        58.       146.      3.216      0.146        58.

     13.390        59.       146.      3.389      0.236        59.

     13.390        59.       146.      3.592      0.107        60.

     13.390        60.       147.      2.361      0.185        61.

     13.390        60.       149.      1.225      0.067        62.

     13.390        60.       149.      1.214      0.062        63.

     13.390        61.       149.      1.349      0.084        64.

     13.390        61.       151.      0.776      0.039        65.

     13.390        62.       153.      0.315      0.011        66.

     14.987        35.        84.      0.875      0.061         1.

     14.987        35.        84.      0.925      0.052         2.

     14.987        36.        85.      1.098      0.045         3.
         1.
     14.987        36.        85.      1.148      0.051         4.
         1.
     14.987        36.        87.      1.855      0.295         5.

     14.987        36.        88.      2.579      0.189         6.

     14.987        37.        89.      3.075      0.128         7.

     14.987        37.        89.       3.17      0.184         8.

     14.987        38.        91.      3.621      0.139         9.

     14.987        38.        91.      3.749      0.095        10.

     14.987        38.        92.      4.261      0.128        11.

     14.987        39.        93.      3.998      0.212        12.

     14.987        39.        94.      4.473      0.251        13.

     14.987        40.        95.      5.268      0.239        14.

     14.987        40.        95.      5.172      0.279        15.

     14.987        40.        97.      5.779      0.172        16.

     14.987        42.        99.      5.137      0.223        17.

     14.987        42.        99.      5.091      0.067        18.

     14.987        42.       101.      7.125      0.301        19.

     14.987        43.       104.      3.654      0.284        21.

     14.987        44.       103.      4.947      0.245        20.

     14.987        44.       105.      2.546      0.061        22.

     14.987        45.       105.      2.579      0.051        23.

     14.987        45.       107.      1.164      0.089        24.

     14.987        47.       112.      0.206      0.022        25.

     14.987        47.       113.      0.195      0.017        26.

     14.987        48.       115.      0.163      0.028        27.
         0.
     14.987        48.       115.       0.19      0.028

     14.987        48.       117.     0.0256     0.0022        28.
         1.
     14.987        48.       117.     0.0267     0.0035        29.
         1.
     14.987        48.       117.     0.1615     0.0222        30.
         0.
     14.987        48.       117.     0.1877     0.0228

     14.987        50.       128.      0.847      0.037        32.

     14.987        51.       127.      0.529      0.028        31.

     14.987        51.       129.      1.348      0.162        33.

     14.987        51.       131.      4.183      0.184        34.

     14.987        52.       132.      5.482      0.139        36.

     14.987        52.       134.      7.247      0.318        38.

     14.987        52.       134.      7.214      0.345        39.

     14.987        53.       131.      4.217      0.151        35.

     14.987        53.       133.      6.791      0.334        37.

     14.987        53.       134.      8.184      0.373        40.

     14.987        53.       134.      7.927      0.323        41.

     14.987        53.       135.      5.576      0.184        42.

     14.987        53.       135.      5.571      0.055        43.

     14.987        54.       137.      6.743      0.245        44.

     14.987        55.       138.      7.002      0.222        45.
         0.
     14.987        55.       138.      6.802      0.288        46.
         0.
     14.987        55.       138.      6.712      0.249        47.
         0.
     14.987        56.       139.      5.871      0.295        48.

     14.987        56.       140.      5.118      0.229        49.

     14.987        56.       141.      4.466      0.256        50.

     14.987        56.       141.      4.544      0.201        51.

     14.987        56.       142.      4.384      0.289        53.

     14.987        57.       142.      4.688      0.195        54.

     14.987        58.       141.      4.568      0.239        52.

     14.987        58.       143.      4.738      0.139        55.

     14.987        58.       144.      4.437      0.106        56.

     14.987        58.       146.      3.158      0.128        57.

     14.987        58.       146.      2.874      0.139        58.

     14.987        59.       146.      3.175      0.184        59.

     14.987        59.       146.      2.986      0.156        60.

     14.987        60.       147.      2.395      0.162        61.

     14.987        60.       149.      1.214      0.089        62.

     14.987        60.       149.      1.231      0.067        63.

     14.987        61.       149.      1.271      0.028        64.

     14.987        61.       151.      0.751      0.011        65.

     14.987        62.       153.      0.318      0.012        66.

     17.278        35.        84.      0.886      0.044         1.

     17.278        35.        84.      0.894      0.038         2.

     17.278        36.        85.      1.165      0.088         3.
         1.
     17.278        36.        85.      1.126      0.049         4.
         1.
     17.278        36.        87.      2.084      0.241         5.

     17.278        36.        88.      2.473      0.263         6.

     17.278        37.        89.      3.014      0.126         7.

     17.278        37.        89.      3.129      0.148         8.

     17.278        38.        91.      3.567      0.088         9.

     17.278        38.        91.      3.813      0.066        10.

     17.278        38.        92.      4.338      0.215        11.

     17.278        39.        93.      3.843      0.104        12.

     17.278        39.        94.      4.245      0.115        13.

     17.278        40.        95.      5.136      0.159        14.

     17.278        40.        95.      5.436      0.197        15.

     17.278        40.        97.      6.023      0.197        16.

     17.278        42.        99.      5.901      0.098        17.

     17.278        42.        99.       5.89      0.234        18.

     17.278        42.       101.      7.747      0.158        19.

     17.278        43.       104.      3.364      0.213        21.

     17.278        44.       103.      4.781      0.284        20.

     17.278        44.       105.      2.501      0.148        22.

     17.278        45.       105.      2.516      0.181        23.

     17.278        45.       107.       1.22      0.098        24.

     17.278        47.       112.      0.299      0.011        25.

     17.278        47.       113.      0.287      0.044        26.

     17.278        48.       115.      0.245      0.016        27.
         0.
     17.278        48.       115.      0.284      0.016

     17.278        48.       117.      0.029     0.0011        28.
         1.
     17.278        48.       117.     0.0268     0.0016        29.
         1.
     17.278        48.       117.     0.2352     0.0219        30.
         0.
     17.278        48.       117.     0.2631      0.023

     17.278        50.       128.      0.963      0.044        32.

     17.278        51.       127.      0.656      0.027        31.

     17.278        51.       129.      1.417      0.071        33.

     17.278        51.       131.      4.239      0.223        34.

     17.278        52.       132.      5.661      0.153        36.

     17.278        52.       134.      6.854      0.294        38.

     17.278        52.       134.      7.199      0.267        39.

     17.278        53.       131.      4.442      0.186        35.

     17.278        53.       133.      6.811      0.208        37.

     17.278        53.       134.      8.168      0.367        40.

     17.278        53.       134.      8.225      0.197        41.

     17.278        53.       135.      5.514      0.266        42.

     17.278        53.       135.       5.47      0.054        43.

     17.278        54.       137.      6.788      0.213        44.

     17.278        55.       138.      6.876      0.228        45.
         0.
     17.278        55.       138.       6.98      0.295        46.
         0.
     17.278        55.       138.      6.931      0.283        47.
         0.
     17.278        56.       139.      5.564      0.284        48.

     17.278        56.       140.      4.929      0.142        49.

     17.278        56.       141.       4.16      0.213        50.

     17.278        56.       141.      4.125      0.201        51.

     17.278        56.       142.      4.502      0.137        53.

     17.278        57.       142.      4.534      0.284        54.

     17.278        58.       141.      4.327      0.234        52.

     17.278        58.       143.      4.834      0.219        55.

     17.278        58.       144.      4.245      0.186        56.

     17.278        58.       146.      2.713      0.191        57.

     17.278        58.       146.      3.047      0.153        58.

     17.278        59.       146.      3.206      0.186        59.

     17.278        59.       146.      3.227      0.121        60.

     17.278        60.       147.      2.407      0.137        61.

     17.278        60.       149.      1.165      0.033        62.

     17.278        60.       149.      1.182      0.022        63.

     17.278        61.       149.      1.312      0.038        64.

     17.278        61.       151.      0.749      0.028        65.

     17.278        62.       153.      0.323      0.017        66.

ENDDATA            548
ENDSUBENT          569
SUBENT        G0506003   20150121   20151006   20150928       G034
BIB                  3         11
REACTION   (92-U-238(G,F)MASS,CHN,FY,,BRA)
ERR-ANALYS (ERR-T) Total uncertainty propagated from:
           (ERR-S,10.,15.) Counting statistics 10-15%.
           (ERR-SYS,,3.8) The systematic errors are due to the
           uncertainties in:
           (ERR-1) Irradiation time (0.5%),
           (ERR-2) Detector efficiency calibration (~ 3%),
           (ERR-3) Half-life of nuclides of the fission products
           is (~ 1%),
           (ERR-4) Gamma-ray abundance (~ 2%),
STATUS     (TABLE) Table 1,2,3 and 4 of Eur.Phys.J.A49(2013)94
ENDBIB              11
COMMON               4          3
ERR-1      ERR-2      ERR-3      ERR-4
PER-CENT   PER-CENT   PER-CENT   PER-CENT
        0.5         3.         1.         2.
ENDCOMMON            3
DATA                 6        224
EN-MAX     MASS       DATA       ERR-T      DECAY-FLAG ISOMER
MEV        NO-DIM     PC/FIS     PC/FIS     NO-DIM     NO-DIM
     11.472        84.      0.665      0.066         1.
     11.472        84.      0.723      0.078         2.
     11.472        85.      0.929      0.062         3.         1.
     11.472        85.      0.896      0.056         4.         1.
     11.472        87.      1.658      0.178         5.
     11.472        88.      2.347      0.189         6.
     11.472        89.      3.321      0.201         7.
     11.472        89.      2.931      0.228         8.
     11.472        91.      3.727      0.245         9.
     11.472        91.      3.966      0.301        10.
     11.472        92.      4.333      0.111        11.
     11.472        93.      3.973      0.239        12.
     11.472        94.      4.033       0.15        13.
     11.472        95.      4.962      0.195        14.
     11.472        95.      5.154      0.192        15.
     11.472        97.      6.158      0.306        16.
     11.472        99.      5.639      0.178        17.
     11.472        99.      5.623      0.245        18.
     11.472       101.      7.131      0.189        19.
     11.472       103.       4.94      0.161        20.
     11.472       104.      3.276      0.312        21.
     11.472       105.      2.627      0.102        23.
     11.472       107.      1.079      0.028        24.
     11.472       112.      0.112      0.022        25.
     11.472       113.      0.107      0.017        26.
     11.472       115.      0.079      0.022        27.         0.
     11.472       115.      0.095      0.022
     11.472       117.     0.0741     0.0061
     11.472       127.      0.344      0.089        31.
     11.472       128.      0.645       0.05        32.
     11.472       129.      1.163      0.078        33.
     11.472       131.      4.194      0.267        35.
     11.472       132.      5.318      0.323        36.
     11.472       133.      7.688      0.217        37.
     11.472       134.      7.815      0.312        38.
     11.472       134.      8.288      0.289        39.
     11.472       134.      8.067      0.367        40.
     11.472       134.      8.245      0.306        41.
     11.472       135.      5.713      0.261        42.
     11.472       135.      5.996      0.056        43.
     11.472       137.      6.585      0.167        44.
     11.472       138.      7.079      0.362        45.         0.
     11.472       138.      6.839      0.283        46.         0.
     11.472       138.      6.956      0.289        47.         0.
     11.472       139.      6.565      0.362        48.
     11.472       140.      5.396      0.217        49.
     11.472       141.      4.539       0.35        52.
     11.472       142.      4.751      0.217        54.
     11.472       143.      5.035       0.25        55.
     11.472       144.      4.863      0.206        56.
     11.472       146.      3.087      0.189        59.
     11.472       146.      3.126      0.195        60.
     11.472       147.      2.064      0.078        61.
     11.472       149.      1.285      0.078        64.
     11.472       151.      0.745      0.039        65.
     11.472       153.      0.295      0.011        66.
     13.390        84.      0.793      0.051         1.
     13.390        84.       0.86      0.039         2.
     13.390        85.      0.989      0.062         3.         1.
     13.390        85.      0.977      0.051         4.         1.
     13.390        87.      1.692      0.101         5.
     13.390        88.      2.411      0.214         6.
     13.390        89.      2.928       0.18         7.
     13.390        89.      3.119      0.202         8.
     13.390        91.      3.749      0.236         9.
     13.390        91.      3.665      0.146        10.
     13.390        92.      4.395      0.252        11.
     13.390        93.      3.861      0.129        12.
     13.390        94.      4.016      0.146        13.
     13.390        95.      4.813      0.275        14.
     13.390        95.      4.954      0.197        15.
     13.390        97.      5.834      0.259        16.
     13.390        99.      5.648      0.174        17.
     13.390        99.      5.744      0.259        18.
     13.390       101.      7.959      0.321        19.
     13.390       103.      5.407      0.271        20.
     13.390       104.       3.71      0.259        21.
     13.390       105.      2.698       0.18        23.
     13.390       107.      1.147      0.152        24.
     13.390       112.      0.188      0.045        25.
     13.390       113.      0.179      0.051        26.
     13.390       115.      0.141      0.028        27.         0.
     13.390       115.      0.165      0.028
     13.390       117.      0.154     0.0231
     13.390       127.      0.331      0.022        31.
     13.390       128.       0.68      0.073        32.
     13.390       129.      1.338      0.079        33.
     13.390       131.      3.878      0.112        35.
     13.390       132.      5.362      0.124        36.
     13.390       133.      7.442      0.272        37.
     13.390       134.      8.296      0.317        38.
     13.390       134.      8.476      0.272        39.
     13.390       134.      8.437      0.372        40.
     13.390       134.      8.303      0.311        41.
     13.390       135.      5.716      0.073        42.
     13.390       135.      5.621      0.056        43.
     13.390       137.      6.525      0.179        44.
     13.390       138.      7.102      0.282        45.         0.
     13.390       138.      6.776      0.259        46.         0.
     13.390       138.      6.866      0.197        47.         0.
     13.390       139.      5.941      0.259        48.
     13.390       140.      4.828      0.236        49.
     13.390       141.      4.266      0.259        52.
     13.390       142.      4.907      0.287        54.
     13.390       143.       4.94      0.146        55.
     13.390       144.      4.759      0.108        56.
     13.390       146.      3.389      0.236        59.
     13.390       146.      3.592      0.107        60.
     13.390       147.      2.361      0.185        61.
     13.390       149.      1.349      0.084        64.
     13.390       151.      0.776      0.039        65.
     13.390       153.      0.315      0.011        66.
     14.987        84.      0.875      0.061         1.
     14.987        84.      0.925      0.052         2.
     14.987        85.      1.098      0.045         3.         1.
     14.987        85.      1.148      0.051         4.         1.
     14.987        87.      1.855      0.295         5.
     14.987        88.      2.585      0.189         6.
     14.987        89.      3.075      0.128         7.
     14.987        89.       3.17      0.184         8.
     14.987        91.      3.621      0.139         9.
     14.987        91.      3.749      0.095        10.
     14.987        92.      4.273      0.128        11.
     14.987        93.      3.998      0.212        12.
     14.987        94.      4.473      0.251        13.
     14.987        95.      5.268      0.239        14.
     14.987        95.      5.172      0.279        15.
     14.987        97.       5.81      0.173        16.
     14.987        99.      5.149      0.223        17.
     14.987        99.      5.091      0.067        18.
     14.987       101.      7.139      0.302        19.
     14.987       103.      4.947      0.245        20.
     14.987       104.      3.654      0.284        21.
     14.987       105.      2.579      0.051        23.
     14.987       107.      1.164      0.089        24.
     14.987       112.      0.206      0.022        25.
     14.987       113.      0.195      0.017        26.
     14.987       115.      0.163      0.028        27.         0.
     14.987       115.       0.19      0.028
     14.987       117.     0.1877     0.0228
     14.987       127.      0.529      0.028        31.
     14.987       128.      0.867      0.037        32.
     14.987       129.      1.348      0.162        33.
     14.987       131.      4.217      0.151        35.
     14.987       132.      5.493      0.139        36.
     14.987       133.      6.791      0.334        37.
     14.987       134.      7.966      0.324        38.
     14.987       134.      8.149      0.396        39.
     14.987       134.      8.184      0.373        40.
     14.987       134.      7.927      0.323        41.
     14.987       135.      5.754      0.185        42.
     14.987       135.      5.649      0.056        43.
     14.987       137.      6.743      0.245        44.
     14.987       138.      7.016      0.223        45.         0.
     14.987       138.      6.816      0.289        46.         0.
     14.987       138.      6.725      0.251        47.         0.
     14.987       139.      5.871      0.295        48.
     14.987       140.      5.118      0.229        49.
     14.987       141.      4.568      0.239        52.
     14.987       142.      4.688      0.195        54.
     14.987       143.      4.738      0.139        55.
     14.987       144.      4.437      0.106        56.
     14.987       146.      3.175      0.184        59.
     14.987       146.      2.986      0.156        60.
     14.987       147.      2.395      0.162        61.
     14.987       149.      1.271      0.028        64.
     14.987       151.      0.751      0.011        65.
     14.987       153.      0.318      0.012        66.
     17.278        84.      0.886      0.044         1.
     17.278        84.      0.894      0.038         2.
     17.278        85.      1.165      0.088         3.         1.
     17.278        85.      1.126      0.049         4.         1.
     17.278        87.      2.084      0.241         5.
     17.278        88.      2.478      0.264         6.
     17.278        89.      3.014      0.126         7.
     17.278        89.      3.129      0.148         8.
     17.278        91.      3.567      0.088         9.
     17.278        91.      3.813      0.066        10.
     17.278        92.      4.343      0.216        11.
     17.278        93.      3.843      0.104        12.
     17.278        94.      4.245      0.115        13.
     17.278        95.      5.136      0.159        14.
     17.278        95.      5.436      0.197        15.
     17.278        97.      6.028      0.197        16.
     17.278        99.      5.901      0.098        17.
     17.278        99.       5.89      0.234        18.
     17.278       101.      7.762      0.159        19.
     17.278       103.      4.781      0.284        20.
     17.278       104.      3.364      0.213        21.
     17.278       105.      2.516      0.181        23.
     17.278       107.       1.22      0.098        24.
     17.278       112.      0.299      0.011        25.
     17.278       113.      0.287      0.044        26.
     17.278       115.      0.244      0.016        27.         0.
     17.278       115.      0.284      0.016
     17.278       117.     0.2631      0.023
     17.278       127.      0.656      0.027        31.
     17.278       128.      0.986      0.045        32.
     17.278       129.      1.417      0.071        33.
     17.278       131.      4.442      0.186        35.
     17.278       132.      5.673      0.153        36.
     17.278       133.      6.811      0.208        37.
     17.278       134.      7.891      0.339        38.
     17.278       134.      8.293      0.308        39.
     17.278       134.      8.168      0.367        40.
     17.278       134.      8.225      0.197        41.
     17.278       135.      5.607      0.271        42.
     17.278       135.      5.563      0.055        43.
     17.278       137.      6.788      0.213        44.
     17.278       138.       6.89      0.228        45.         0.
     17.278       138.      6.994      0.295        46.         0.
     17.278       138.      6.945      0.283        47.         0.
     17.278       139.      5.564      0.284        48.
     17.278       140.      4.929      0.142        49.
     17.278       141.      4.327      0.234        52.
     17.278       142.      4.534      0.284        54.
     17.278       143.      4.834      0.219        55.
     17.278       144.      4.245      0.186        56.
     17.278       146.      3.206      0.186        59.
     17.278       146.      3.227      0.121        60.
     17.278       147.      2.407      0.137        61.
     17.278       149.      1.312      0.038        64.
     17.278       151.      0.749      0.028        65.
     17.278       153.      0.323      0.017        66.
ENDDATA            226
ENDSUBENT          246
SUBENT        G0506004   20150207   20151006   20150928       G034
BIB                  3          4
REACTION  1(92-U-238(G,F),SEC,AP,LF,BRA)
          2(92-U-238(G,F),SEC,AP,HF,BRA)
ERR-ANALYS (DATA-ERR) No information on sources of uncertainty
STATUS     (TABLE) Table 9 of Eur.Phys.J.A49(2013)94
ENDBIB               4
NOCOMMON             0          0
DATA                 5          4
EN-MAX     DATA      1DATA-ERR  1DATA      2DATA-ERR  2
MEV        NO-DIM     NO-DIM     NO-DIM     NO-DIM
       11.5      97.45       0.16     137.68       0.08
       13.4      97.26       0.12     137.65       0.08
       15.0      97.18       0.16     137.64       0.09
       17.3      97.02       0.16     137.62       0.09
ENDDATA              6
ENDSUBENT           15
SUBENT        G0506005   20150207   20151006   20150928       G034
BIB                  4          5
REACTION   (92-U-238(G,F),,NU,,BRA,DERIV)
ANALYSIS   238 minus average light and heavy fragment mass
ERR-ANALYS (DATA-ERR) No information on sources of uncertainty
STATUS     (TABLE) Table 9 of Eur.Phys.J.A 49(2013)94
           (DEP,G0506004) Average mass given
ENDBIB               5
NOCOMMON             0          0
DATA                 3          4
EN-MAX     DATA       DATA-ERR
MEV        PRT/FIS    PRT/FIS
       11.5       2.87       0.16
       13.4       3.10       0.12
       15.0       3.18       0.16
       17.3       3.37       0.15
ENDDATA              6
ENDSUBENT           16
ENDENTRY             5
