ENTRY            11409   20110914   20120207   20111126       1377
SUBENT        11409001   20110914   20120207   20111126       1377
BIB                 10         21
INSTITUTE  (1USATEX)
REFERENCE  (J,PR,117,514,1960)
AUTHOR     (D.M.Smith,N.A.Bostrom,E.L.Hudspeth)
TITLE      Excitation study of F-19(n,alpha)N-16 with a BaF2
           crystal.
FACILITY   (VDG,1USATEX)
INC-SOURCE (D-D) The deuterium gas target was contained at about
           25-cm pressure in a cell of depth 2.23 cm; deuterons
           passed into the cell through a 0.025-mil nickel foil.
SAMPLE     BaF2 crystal as a target for neutron bombardment and
           as a detector of the induced N-16 activity.
METHOD     (ACTIV) The neutron activation of F-19 in the BaF2
           crystal was measured by following the delayed activity
           of the residual N-16.
DETECTOR   (BAF2)
           (NAICR)
HISTORY    (19761016T) Translated from SCISRS
           (19820813A) converted to REACTION formalism
           (20110914A) SD:Updated to new date formats,lower case.
                corrected according to last EXFOR rules and Dict.
                BIB updated.
ENDBIB              21
NOCOMMON             0          0
ENDSUBENT           24
SUBENT        11409002   20110914   20120207   20111126       1377
BIB                  3          3
REACTION   (9-F-19(N,0),,EN)
FLAG       (1.) Unresolved resonance.
STATUS     (TABLE) Tbl.2 from PR,117,514,1960
ENDBIB               3
NOCOMMON             0          0
DATA                 3          8
DATA       DATA-ERR   FLAG
MEV        MEV        NO-DIM
 3.75       0.05
 4.08       0.05
 4.36       0.05
 4.52                  1.
 4.79       0.05
 5.15       0.05
 5.40                  1.
 5.90                  1.
ENDDATA             10
ENDSUBENT           18
SUBENT        11409003   20110914   20120207   20111126       1377
BIB                  4         10
REACTION   (9-F-19(N,A)7-N-16,,SIG)
ANALYSIS   The relative curve was normalized to an average of
           three absolute measurements, performed at 4.48 MeV. Two
           of these determinations were made with the cylindrical
           barium fluoride crystal at target-crystal distances of
           3.0 inches and 5.0 inches. The third was made with an
           irregularly shaped barium fluoride crystal at a
           distance of about five inches.
ERR-ANALYS (DATA-ERR) Estimated absolute error tabulated.
STATUS     (SCSRS)
ENDBIB              10
COMMON               3          3
EN-NRM     EN-RSL     DATA-ERR
MEV        KEV        PER-CENT
 4.48        35.        15.
ENDCOMMON            3
DATA                 2         91
EN         DATA
MEV        MB
 3.868       22.2
 3.893       25.9
 3.920       27.4
 3.945       31.7
 3.971       33.6
 3.996       37.3
 4.022       44.7
 4.048       50.3
 4.072       51.3
 4.096       53.9
 4.121       47.1
 4.145       48.0
 4.170       55.0
 4.195       70.5
 4.220       80.7
 4.244       94.0
 4.268       98.7
 4.292      103.
 4.317      107.
 4.339      117.
 4.364      118.
 4.388      113.
 4.412       96.
 4.436       89.4
 4.482       87.0
 4.506       85.7
 4.529       85.7
 4.552       80.1
 4.574       77.7
 4.598       79.7
 4.620       79.4
 4.643       78.2
 4.665       81.0
 4.689       88.5
 4.710       94.5
 4.733      114.
 4.755      123.
 4.778      125.
 4.789      127.
 4.810      124.
 4.833      115.
 4.856      115.
 4.878      114.
 4.900      112.
 4.923      103.
 4.945       93.1
 4.967       91.5
 4.990       91.9
 5.020       90.7
 5.035       90.0
 5.058       94.4
 5.076       97.5
 5.098      107.
 5.121      114.
 5.144      116.
 5.165      113.
 5.187      113.
 5.207       99.8
 5.229      101.
 5.250      108.
 5.272      117.
 5.294      126.
 5.316      132.
 5.336      142.
 5.357      148.
 5.380      150.
 5.400      155.
 5.423      152.
 5.443      154.
 5.464      155.
 5.486      160.
 5.509      171.
 5.528      178.
 5.551      186.
 5.571      184.
 5.592      186.
 5.614      197.
 5.636      197.
 5.660      197.
 5.702      203.
 5.742      204.
 5.785      203.
 5.827      218.
 5.869      209.
 5.910      195.
 5.950      171.
 5.992      188.
 6.033      215.
 6.074      204.
 6.115      220.
 6.156      201.
ENDDATA             93
ENDSUBENT          112
ENDENTRY             3
