ENTRY            C0643   20000627   20000807
SUBENT        C0643001   20000627   20000807
BIB                 13         22
INSTITUTE  (1USAINU)
REFERENCE  (J,PR/C,37,66,198801)
AUTHOR     (M.C.RADHAKRISHNA,N.G.PUTTASWAMY,H.NANN,J.D.BROWN,
           W.W.JACOBS,W.P.JONES,D.W.MILLER,P.P.SINGH,
           E.J.STEPHENSON)
TITLE      Proton occupation numbers in 206Pb from the
            (d(pol),3He) reaction
FACILITY   (CYCLO,1USAINU)
INC-SOURCE (ATOMI) Beam polarization of about 0.58 (up) and 0.60
            (down).
METHOD     (BCINT)
DETECTOR   (MAGSP,PROPC,SCIN) QDDM magnetic spectrometer with
            focal plane position-sensitive helical proporational
            counter, and 2 plastic scintillators for particle
            identification.
ANALYSIS   Spectra analyzed with computer code ALLFIT.
CORRECTION Corrected for deadtime.
ERR-ANALYS (ERR-S) Statistical uncertainty.
STATUS     No reply from E.J. Stephenson to author proof.
           Tabulated data received from E.J. Stephenson, 18
            April 2000.
HISTORY    (20000421C) VM
ENDBIB              22
COMMON               1          3
EN-ERR
MEV
  0.3
ENDCOMMON            3
ENDSUBENT           29
SUBENT        C0643002   20000530   20000807
BIB                  2          3
REACTION   (82-PB-206(D,EL)82-PB-206,,DA)
SAMPLE     Self-supporting lead targets enriched to 99.8% 206Pb.
           Areal densities 11.5, 2.8 and 0.6 mg/cm2.
ENDBIB               3
COMMON               1          3
EN
MEV
 79.4
ENDCOMMON            3
DATA                 3         59
ANG-CM     DATA-CM    ERR-S
ADEG       MB/SR      MB/SR
 13.16      3104.1       17.6
 14.17      1687.6        7.8
 16.19       325.5        2.3
 17.20       265.7        1.8
 18.21       359.0        2.1
 19.22       417.6        3.0
 20.23       377.9        2.2
 21.24       268.4        1.5
 22.25       147.4        0.94
 23.26        60.71       0.45
 24.27        22.03       0.28
 25.28        21.75       0.23
 26.29        36.21       0.34
 27.29        43.37       0.36
 28.30        37.49       0.29
 29.31        26.09       0.23
 30.32        15.02       0.13
 31.33         8.01       0.11
 32.34         6.33       0.08
 33.35         7.73       0.11
 34.36         8.79       0.08
 35.36         7.80       0.12
 36.37         5.50       0.09
 37.38         2.980      0.046
 38.39         1.524      0.029
 39.40         1.856      0.040
 41.41         4.479      0.067
 42.42         5.059      0.066
 43.43         4.629      0.053
 44.44         3.488      0.059
 45.44         2.183      0.032
 46.45         1.642      0.023
 47.46         1.567      0.023
 48.46         1.957      0.021
 49.47         2.378      0.030
 50.48         2.651      0.026
 52.99         2.001      0.026
 55.51         1.190      0.015
 58.02         1.144      0.020
 60.54         1.121      0.015
 63.05         0.760      0.010
 65.56         0.584      0.009
 68.07         0.534      0.010
 70.58         0.404      0.008
 73.09         0.286      0.007
 75.59         0.241      0.005
 80.60         0.1480     0.0030
 85.61         0.0881     0.0023
 90.61         0.0541     0.0014
 94.58         0.0368     0.0006
 98.58         0.0255     0.0005
102.57         0.0171     0.0003
106.56         0.0125     0.0003
110.55         0.0084     0.0002
114.53         0.0056     0.0002
118.51         0.0041     0.0001
122.49         0.0031     0.0001
126.47         0.0022     0.0001
130.45         0.0015     0.0001
ENDDATA             61
ENDSUBENT           73
SUBENT        C0643003   20000530   20000807
BIB                  2          3
REACTION   (82-PB-206(D,EL)82-PB-206,,POL/DA,,ANA)
SAMPLE     Self-supporting lead targets enriched to 99.8% 206Pb.
           Areal densities 11.5, 2.8 and 0.6 mg/cm2.
ENDBIB               3
COMMON               1          3
EN
MEV
 79.4
ENDCOMMON            3
DATA                 3         59
ANG-CM     DATA       ERR-S
ADEG       NO-DIM     NO-DIM
 13.16     -0.040      0.006
 14.17     -0.084      0.005
 16.19     -0.72       0.008
 17.20      0.087      0.007
 18.21      0.100      0.007
 19.22      0.060      0.007
 20.23      0.016      0.007
 21.24     -0.041      0.006
 22.25     -0.129      0.007
 23.26     -0.247      0.009
 24.27     -0.360      0.014
 25.28     -0.083      0.012
 26.29      0.066      0.011
 27.29      0.105      0.009
 28.30      0.134      0.009
 29.31      0.154      0.010
 30.32      0.173      0.010
 31.33      0.079      0.015
 32.34     -0.226      0.015
 33.35     -0.386      0.015
 34.36     -0.470      0.009
 35.36     -0.482      0.017
 36.37     -0.498      0.018
 37.38     -0.364      0.017
 38.39      0.110      0.022
 39.40      0.449      0.023
 41.41     -0.126      0.017
 42.42     -0.359      0.015
 43.43     -0.488      0.014
 44.44     -0.603      0.019
 45.44     -0.620      0.018
 46.45     -0.333      0.015
 47.46      0.099      0.017
 48.46      0.259      0.012
 49.47      0.225      0.014
 50.48      0.039      0.011
 52.99     -0.240      0.014
 55.51      0.047      0.014
 58.02      0.390      0.020
 60.54      0.144      0.015
 63.05      0.126      0.015
 65.56      0.417      0.018
 68.07      0.494      0.020
 70.58      0.414      0.021
 73.09      0.468      0.025
 75.59      0.605      0.023
 80.60      0.581      0.025
 85.61      0.706      0.028
 90.61      0.735      0.029
 94.58      0.819      0.020
 98.58      0.843      0.020
102.57      0.865      0.021
106.56      0.900      0.022
110.55      0.877      0.025
114.53      0.901      0.027
118.51      0.922      0.028
122.49      0.903      0.029
126.47      0.923      0.030
130.45      0.917      0.031
ENDDATA             61
ENDSUBENT           73
SUBENT        C0643004   20000530   20000807
BIB                  2          3
REACTION   (82-PB-206(D,HE3)81-TL-205,PAR,DA)
SAMPLE     Self-supporting lead targets enriched to 99.8% 206Pb.
           Areal densities 11.5, 2.8 and 0.6 mg/cm2.
ENDBIB               3
COMMON               1          3
EN
MEV
 79.4
ENDCOMMON            3
DATA                 4        204
E-EXC      ANG-CM     DATA-CM    ERR-S
MEV        ADEG       MB/SR      MB/SR
  0.0        6.37      0.7072     0.0707
  0.0        8.13      0.0051     0.0215
  0.0       10.15      0.3965     0.0090
  0.0       12.18      0.1602     0.0048
  0.0       14.20      0.4783     0.0095
  0.0       16.23      0.4251     0.0085
  0.0       18.25      0.1509     0.0032
  0.0       20.28      0.1359     0.0031
  0.0       23.31      0.1337     0.0032
  0.0       26.34      0.0722     0.0022
  0.0       29.38      0.0555     0.0017
  0.0       32.41      0.0291     0.0013
  0.202      6.37      1.4525     0.1452
  0.202      8.13      0.8229     0.0194
  0.202     10.15      0.4039     0.0102
  0.202     12.18      0.4562     0.0079
  0.202     14.20      0.4477     0.0090
  0.202     16.23      0.2797     0.0069
  0.202     18.25      0.1975     0.0037
  0.202     20.28      0.2362     0.0041
  0.202     23.31      0.1168     0.0029
  0.202     26.34      0.0818     0.0022
  0.202     29.38      0.0638     0.0018
  0.202     32.41      0.0282     0.0013
  0.618      6.37      0.3339     0.0334
  0.618      8.13      0.2254     0.0101
  0.618     10.16      0.0929     0.0043
  0.618     12.18      0.0821     0.0033
  0.618     14.20      0.1174     0.0046
  0.618     16.23      0.0739     0.0035
  0.618     18.25      0.0432     0.0018
  0.618     20.28      0.0513     0.0020
  0.618     23.31      0.0306     0.0015
  0.618     26.35      0.0142     0.0010
  0.618     29.38      0.0153     0.0009
  0.618     32.41      0.0062     0.0006
  1.139      6.37      0.5934     0.0593
  1.139      8.13      0.3507     0.0127
  1.139     10.16      0.1756     0.0060
  1.139     12.18      0.1802     0.0050
  1.139     14.20      0.1729     0.0057
  1.139     16.23      0.1121     0.0044
  1.139     18.25      0.0834     0.0024
  1.139     20.28      0.0921     0.0025
  1.139     23.31      0.0404     0.0018
  1.139     26.35      0.0305     0.0014
  1.139     29.38      0.0243     0.0011
  1.139     32.41      0.0082     0.0007
  1.217      6.37      0.1123     0.0112
  1.217      8.13      0.1534     0.0084
  1.217     10.16      0.0579     0.0033
  1.217     12.18      0.0343     0.0021
  1.217     14.21      0.0846     0.0039
  1.217     16.23      0.0599     0.0032
  1.217     18.25      0.0202     0.0012
  1.217     20.28      0.0225     0.0013
  1.217     23.31      0.0273     0.0015
  1.217     26.35      0.0114     0.0009
  1.217     29.38      0.0095     0.0007
  1.217     32.41      0.0035     0.0005
  1.340      6.37      0.3243     0.0324
  1.340      8.13      0.1753     0.0090
  1.340     10.16      0.0818     0.0040
  1.340     12.18      0.0958     0.0036
  1.340     14.21      0.0964     0.0042
  1.340     16.23      0.0544     0.0030
  1.340     18.25      0.0401     0.0017
  1.340     20.28      0.0486     0.0019
  1.340     23.31      0.0198     0.0012
  1.340     26.35      0.0181     0.0011
  1.340     29.38      0.0115     0.0008
  1.340     32.41      0.0047     0.0005
  1.435      6.37      0.0355     0.0053
  1.435      8.13      0.0540     0.0054
  1.435     10.16      0.0149     0.0017
  1.435     12.18      0.0206     0.0017
  1.435     14.21      0.0281     0.0022
  1.435     16.23      0.0220     0.0020
  1.435     18.25      0.0080     0.0008
  1.435     20.28      0.0049     0.0006
  1.435     23.31      0.0085     0.0008
  1.435     26.35      0.0015     0.0003
  1.435     29.38      0.0016     0.0003
  1.435     32.41      0.0015     0.0003
  1.484      6.37      0.3345     0.0334
  1.484      8.13      0.4419     0.0141
  1.484     10.16      0.6882     0.0119
  1.484     12.18      0.7811     0.0103
  1.484     14.21      0.6980     0.0112
  1.484     16.23      0.4532     0.0088
  1.484     18.25      0.2213     0.0040
  1.484     20.28      0.2183     0.0041
  1.484     23.31      0.1840     0.0037
  1.484     26.35      0.0911     0.0024
  1.484     29.38      0.1001     0.0023
  1.484     32.41      0.047      0.0017
  1.579      6.37      0.0768     0.0077
  1.579      8.13      0.0544     0.0050
  1.579     10.16      0.0305     0.0024
  1.579     12.18      0.0150     0.0015
  1.579     14.21      0.0325     0.0024
  1.579     16.23      0.0151     0.0016
  1.579     18.25      0.0082     0.0008
  1.579     20.28      0.0139     0.0010
  1.579     23.31      0.0084     0.0008
  1.579     26.35      0.0032     0.0005
  1.579     29.38      0.0043     0.0005
  1.579     32.41      0.0014     0.0003
  1.844      6.37      0.4323     0.0432
  1.844      8.13      0.3153     0.0120
  1.844     10.16      0.1152     0.0048
  1.844     12.18      0.1041     0.0038
  1.844     14.21      0.1463     0.0052
  1.844     16.23      0.0895     0.0039
  1.844     18.25      0.0518     0.0020
  1.844     20.28      0.0716     0.0022
  1.844     23.31      0.0393     0.0017
  1.844     26.35      0.0209     0.0012
  1.844     29.38      0.0231     0.0011
  1.844     32.41      0.0079     0.0007
  1.949      6.37      0.5658     0.0566
  1.949      8.13      0.4208     0.0139
  1.949     10.16      0.1669     0.0058
  1.949     12.18      0.1478     0.0045
  1.949     14.21      0.1868     0.0059
  1.949     16.23      0.1231     0.0046
  1.949     18.25      0.0739     0.0023
  1.949     20.28      0.0984     0.0026
  1.949     23.31      0.0518     0.0020
  1.949     26.35      0.0274     0.0013
  1.949     29.38      0.0270     0.0012
  1.949     32.41      0.0094     0.0008
  2.035      6.37      0.7147     0.0715
  2.035      8.13      0.4741     0.0147
  2.035     10.16      0.1907     0.0061
  2.035     12.18      0.1750     0.0050
  2.035     14.21      0.2215     0.0063
  2.035     16.23      0.1449     0.0050
  2.035     18.25      0.0823     0.0024
  2.035     20.28      0.1173     0.0029
  2.035     23.31      0.0626     0.0021
  2.035     26.35      0.0346     0.0015
  2.035     29.38      0.0326     0.0013
  2.035     32.41      0.0121     0.0009
  2.098      6.37      0.2053     0.0205
  2.098      8.13      0.1537     0.0084
  2.098     10.16      0.0613     0.0034
  2.098     12.18      0.0536     0.0027
  2.098     14.21      0.0696     0.0035
  2.098     16.23      0.0382     0.0025
  2.098     18.25      0.0296     0.0015
  2.098     20.28      0.0326     0.0016
  2.098     23.31      0.0196     0.0012
  2.098     26.35      0.0125     0.0009
  2.098     29.38      0.0121     0.0008
  2.098     32.41      0.0028     0.0004
  2.434      6.37      0.0454     0.0045
  2.434      8.13      0.0271     0.0035
  2.434     10.16      0.0098     0.0014
  2.434     12.18      0.0107     0.0012
  2.434     14.21      0.0195     0.0019
  2.434     16.23      0.0095     0.0013
  2.434     18.26      0.0069     0.0007
  2.434     20.28      0.0083     0.0008
  2.434     23.31      0.0019     0.0004
  2.434     26.35      0.0020     0.0004
  2.434     29.38      0.0022     0.0003
  2.434     32.42      0.0005     0.0002
  2.498      6.37      0.0488     0.0049
  2.498      8.13      0.0584     0.0052
  2.498     10.16      0.0794     0.0039
  2.498     12.18      0.0993     0.0037
  2.498     14.21      0.0928     0.0041
  2.498     16.23      0.0447     0.0027
  2.498     18.26      0.0286     0.0014
  2.498     20.28      0.0256     0.0014
  2.498     23.31      0.0226     0.0013
  2.498     26.35      0.0109     0.0008
  2.498     29.38      0.0128     0.0008
  2.498     32.42      0.0052     0.0006
  2.607      6.37      0.0608     0.0061
  2.607      8.13      0.0830     0.0061
  2.607     10.16      0.1047     0.0045
  2.607     12.18      0.1377     0.0043
  2.607     14.21      0.1342     0.0050
  2.607     16.23      0.0805     0.0037
  2.607     18.26      0.0428     0.0018
  2.607     20.28      0.0435     0.0018
  2.607     23.31      0.0344     0.0016
  2.607     26.35      0.0157     0.0010
  2.607     29.38      0.0205     0.0010
  2.607     32.42      0.0085     0.0007
  2.756      6.37      0.0650     0.0065
  2.756      8.13      0.0467     0.0047
  2.756     10.16      0.0244     0.0021
  2.756     12.18      0.0118     0.0013
  2.756     14.21      0.0194     0.0019
  2.756     16.23      0.0124     0.0015
  2.756     18.26      0.0066     0.0007
  2.756     20.28      0.0090     0.0008
  2.756     23.32      0.0050     0.0006
  2.756     26.35      0.0017     0.0003
  2.756     29.38      0.0023     0.0003
  2.756     32.42      0.0005     0.0002
ENDDATA            206
ENDSUBENT          218
SUBENT        C0643005   20000530   20000807
BIB                  2          3
REACTION   (82-PB-206(D,HE3)81-TL-205,PAR,POL/DA,,ANA)
SAMPLE     Self-supporting lead targets enriched to 99.8% 206Pb.
           Areal densities 11.5, 2.8 and 0.6 mg/cm2.
ENDBIB               3
COMMON               1          3
EN
MEV
 79.4
ENDCOMMON            3
DATA                 4        204
E-EXC      ANG-CM     DATA       ERR-S
MEV        ADEG       NO-DIM     NO-DIM
  0.0        6.37      0.078      0.024
  0.0        8.13     -0.026      0.024
  0.0       10.15     -0.051      0.025
  0.0       12.18      0.252      0.034
  0.0       14.20      0.153      0.023
  0.0       16.23      0.110      0.023
  0.0       18.25     -0.049      0.024
  0.0       20.28      0.131      0.026
  0.0       23.31      0.189      0.027
  0.0       26.34      0.021      0.033
  0.0       29.38     -0.013      0.033
  0.0       32.41      0.340      0.049
  0.202      6.37      0.091      0.017
  0.202      8.13     -0.036      0.027
  0.202     10.15     -0.394      0.026
  0.202     12.18     -0.095      0.020
  0.202     14.20     -0.028      0.023
  0.202     16.23     -0.197      0.028
  0.202     18.25     -0.148      0.021
  0.202     20.28      0.077      0.020
  0.202     23.31     -0.132      0.028
  0.202     26.34     -0.033      0.031
  0.202     29.38      0.095      0.031
  0.202     32.41     -0.327      0.049
  0.618      6.37     -0.087      0.034
  0.618      8.13     -0.052      0.051
  0.618     10.16      0.334      0.049
  0.618     12.18      0.100      0.047
  0.618     14.20      0.064      0.045
  0.618     16.23      0.078      0.055
  0.618     18.25      0.266      0.045
  0.618     20.28      0.047      0.043
  0.618     23.31      0.154      0.056
  0.618     26.35      0.301      0.074
  0.618     29.38      0.255      0.063
  0.618     32.41      0.365      0.105
  1.139      6.37      0.119      0.026
  1.139      8.13     -0.026      0.041
  1.139     10.16     -0.306      0.037
  1.139     12.18     -0.157      0.032
  1.139     14.20     -0.083      0.037
  1.139     16.23     -0.112      0.045
  1.139     18.25     -0.114      0.033
  1.139     20.28      0.015      0.032
  1.139     23.31     -0.156      0.047
  1.139     26.35      0.117      0.051
  1.139     29.38      0.063      0.050
  1.139     32.41     -0.413      0.103
  1.217      6.37      0.089      0.065
  1.217      8.13     -0.055      0.063
  1.217     10.16     -0.037      0.114
  1.217     12.18      0.201      0.072
  1.217     14.21      0.148      0.054
  1.217     16.23      0.124      0.078
  1.217     18.25     -0.104      0.129
  1.217     20.28      0.204      0.173
  1.217     23.31      0.203      0.059
  1.217     26.35      0.000      0.086
  1.217     29.38     -0.013      0.150
  1.217     32.41      0.342      0.171
  1.340      6.37     -0.152      0.044
  1.340      8.13     -0.045      0.051
  1.340     10.16     -0.436      0.053
  1.340     12.18     -0.104      0.043
  1.340     14.21      0.143      0.050
  1.340     16.23     -0.122      0.064
  1.340     18.25     -0.098      0.047
  1.340     20.28      0.040      0.044
  1.340     23.31     -0.122      0.068
  1.340     26.35      0.052      0.066
  1.340     29.38     -0.055      0.072
  1.340     32.41     -0.226      0.152
  1.435      6.37      0.026      0.084
  1.435      8.13     -0.107      0.110
  1.435     10.16     -0.083      0.128
  1.435     12.18      0.095      0.097
  1.435     14.21      0.096      0.102
  1.435     16.23      0.107      0.096
  1.435     18.25     -0.048      0.106
  1.435     20.28      0.137      0.089
  1.435     23.31      0.135      0.066
  1.435     26.35      0.211      0.227
  1.435     29.38     -0.113      0.155
  1.435     32.41      0.163      0.133
  1.484      6.37      0.175      0.035
  1.484      8.13      0.125      0.036
  1.484     10.16      0.026      0.019
  1.484     12.18     -0.012      0.015
  1.484     14.21      0.011      0.019
  1.484     16.23      0.014      0.022
  1.484     18.25      0.135      0.020
  1.484     20.28      0.235      0.021
  1.484     23.31      0.156      0.023
  1.484     26.35      0.231      0.030
  1.484     29.38     -0.004      0.025
  1.484     32.41      0.140      0.040
  1.579      6.37      0.004      0.079
  1.579      8.13      0.080      0.104
  1.579     10.16      0.233      0.086
  1.579     12.18      0.334      0.105
  1.579     14.21      0.057      0.086
  1.579     16.23      0.290      0.119
  1.579     18.25      0.433      0.152
  1.579     20.28      0.112      0.082
  1.579     23.31     -0.032      0.105
  1.579     26.35      0.150      0.157
  1.579     29.38      0.128      0.119
  1.579     32.41      0.280      0.229
  1.844      6.37     -0.049      0.030
  1.844      8.13      0.071      0.043
  1.844     10.16      0.292      0.044
  1.844     12.18      0.179      0.042
  1.844     14.21      0.098      0.041
  1.844     16.23      0.198      0.050
  1.844     18.25      0.350      0.041
  1.844     20.28      0.083      0.036
  1.844     23.31      0.134      0.049
  1.844     26.35      0.263      0.061
  1.844     29.38      0.168      0.052
  1.844     32.41      0.124      0.097
  1.949      6.37     -0.006      0.026
  1.949      8.13     -0.021      0.037
  1.949     10.16      0.358      0.036
  1.949     12.18      0.217      0.035
  1.949     14.21      0.004      0.036
  1.949     16.23      0.201      0.042
  1.949     18.25      0.323      0.035
  1.949     20.28      0.063      0.031
  1.949     23.31      0.146      0.043
  1.949     26.35      0.387      0.053
  1.949     29.38      0.196      0.048
  1.949     32.41      0.335      0.086
  2.035      6.37     -0.057      0.024
  2.035      8.13     -0.021      0.035
  2.035     10.16      0.299      0.034
  2.035     12.18      0.224      0.032
  2.035     14.21      0.129      0.033
  2.035     16.23      0.158      0.039
  2.035     18.25      0.347      0.033
  2.035     20.28      0.124      0.028
  2.035     23.31      0.077      0.039
  2.035     26.35      0.358      0.047
  2.035     29.38      0.153      0.043
  2.035     32.41      0.402      0.074
  2.098      6.37     -0.100      0.044
  2.098      8.13     -0.010      0.062
  2.098     10.16      0.072      0.063
  2.098     12.18      0.045      0.058
  2.098     14.21     -0.022      0.059
  2.098     16.23      0.337      0.074
  2.098     18.25      0.455      0.053
  2.098     20.28      0.108      0.054
  2.098     23.31      0.090      0.069
  2.098     26.35      0.361      0.078
  2.098     29.38      0.061      0.071
  2.098     32.41      0.442      0.151
  2.434      6.37     -0.052      0.094
  2.434      8.13      0.207      0.145
  2.434     10.16      0.336      0.147
  2.434     12.18      0.164      0.147
  2.434     14.21     -0.115      0.167
  2.434     16.23     -0.025      0.154
  2.434     18.26      0.307      0.133
  2.434     20.28      0.024      0.106
  2.434     23.31      0.059      0.225
  2.434     26.35      0.119      0.201
  2.434     29.38      0.219      0.185
  2.434     32.42      0.636      0.332
  2.498      6.37      0.016      0.091
  2.498      8.13      0.065      0.089
  2.498     10.16      0.073      0.055
  2.498     12.18      0.009      0.043
  2.498     14.21     -0.018      0.051
  2.498     16.23      0.166      0.070
  2.498     18.26      0.231      0.056
  2.498     20.28      0.204      0.060
  2.498     23.31      0.069      0.065
  2.498     26.35      0.369      0.083
  2.498     29.38      0.109      0.069
  2.498     32.42      0.315      0.115
  2.607      6.37      0.112      0.134
  2.607      8.13      0.242      0.101
  2.607     10.16      0.037      0.048
  2.607     12.18     -0.015      0.036
  2.607     14.21     -0.020      0.043
  2.607     16.23      0.174      0.052
  2.607     18.26      0.286      0.045
  2.607     20.28      0.117      0.046
  2.607     23.31      0.079      0.052
  2.607     26.35      0.211      0.071
  2.607     29.38      0.064      0.055
  2.607     32.42      0.190      0.092
  2.756      6.37     -0.056      0.078
  2.756      8.13      0.080      0.112
  2.756     10.16      0.208      0.097
  2.756     12.18      0.117      0.124
  2.756     14.21      0.219      0.111
  2.756     16.23      0.218      0.132
  2.756     18.26      0.293      0.114
  2.756     20.28      0.138      0.102
  2.756     23.32      0.190      0.137
  2.756     26.35     -0.028      0.219
  2.756     29.38      0.050      0.162
  2.756     32.42      0.771      0.290
ENDDATA            206
ENDSUBENT          218
SUBENT        C0643006   20000530   20000807
BIB                  2          3
REACTION   (81-TL-205(HE3,EL)81-TL-205,,DA)
SAMPLE     Target enriched to 99.4% 205Tl, evaporated onto carbon
            backing.  205Tl areal density 1.70 and 1.29 mg/cm2.
ENDBIB               3
COMMON               1          3
EN
MEV
 78.4
ENDCOMMON            3
DATA                 3         58
ANG-CM     DATA-CM    ERR-S
ADEG       MB/SR      MB/SR
  9.14     150915.4     382.8
 10.15      97209.8     310.3
 11.17      64390.0     252.0
 12.18      44060.3     146.8
 13.19      28910.9      96.2
 14.21      18473.9      39.9
 15.22      11914.6      36.5
 16.24       8078.9      29.0
 17.25       5703.2      17.2
 18.27       3946.1      17.6
 19.28       2579.4      14.4
 20.30       1771.3      12.2
 21.31       1264.6       9.2
 22.32        963.5       7.3
 23.34        723.7       5.6
 24.35        524.8       1.0
 25.37        354.7       0.8
 26.38        243.6       0.8
 27.39        179.2       0.7
 28.41        151.4       0.5
 29.42        128.62      0.47
 30.43        101.77      0.40
 31.45         75.82      0.37
 32.46         49.26      0.25
 33.47         35.56      0.10
 34.48         27.80      0.21
 35.50         24.08      0.17
 36.51         21.75      0.16
 37.52         17.47      0.14
 38.53         13.40      0.11
 39.54          9.777     0.075
 40.56          7.046     0.097
 41.57          5.443     0.069
 42.58          4.504     0.064
 43.59          3.623     0.052
 44.60          2.864     0.042
 45.61          2.116     0.016
 46.62          1.773     0.031
 47.63          1.531     0.027
 48.64          1.245     0.024
 49.65          1.078     0.011
 50.66          0.7772    0.0078
 52.68          0.3736    0.0075
 53.69          0.2963    0.0060
 54.70          0.2868    0.0058
 55.71          0.3119    0.0063
 56.72          0.2904    0.0058
 57.73          0.2336    0.0069
 58.73          0.1501    0.0042
 60.75          0.0399    0.0018
 62.76          0.0522    0.0019
 64.78          0.0630    0.0023
 66.79          0.0327    0.0016
 68.80          0.0057    0.0007
 70.81          0.0089    0.0008
 72.82          0.0129    0.0010
 74.83          0.0085    0.0009
 76.84          0.0023    0.0003
ENDDATA             60
ENDSUBENT           72
ENDENTRY             6
