ENTRY            C0658   20000707   20010329
SUBENT        C0658001   20000707   20010329
BIB                 11         20
INSTITUTE  (1USATEX,1USALAS)
REFERENCE  (J,PR/C,37,397,198801)
AUTHOR     (G.W.HOFFMANN,M.L.BARLETT,R.W.FERGERSON,J.A.MARSHALL,
           J.A.MCGILL,E.C.MILNER,L.RAY,J.F.AMANN)
TITLE      Differential cross section and analyzing power
            measurements for p+p elastic scattering at 497.5 MeV
FACILITY   (MESON,1USALAS)
SAMPLE     CH2 targets with areal density 60-190 mg/cm2.
METHOD     (BCINT)
DETECTOR   (MAGSP) High resolution spectrometer.
           Beam current monitored by 2 ion chambers, downstream
            from the target.
CORRECTION Corrected for:
           . background from C12 in target,
           . chamber efficiencies,
           . computer deadtime,
           . focal plane relative efficiencies.
STATUS     (APRVD) Approved by L. Ray, 6 July 2000.
           Data received from L. Ray, 8 June 2000.
HISTORY    (20000615C) VM
ENDBIB              20
COMMON               2          3
EN         EN-ERR
MEV        MEV
497.5        0.5
ENDCOMMON            3
ENDSUBENT           27
SUBENT        C0658002   20000615   20010329
BIB                  4          7
REACTION   (1-H-1(P,EL)1-H-1,,DA)
MONITOR    (1-H-1(P,EL)1-H-1,,DA)
MONIT-REF  (,OTTEWELL+,J,NP/A,412,189,1984)
ERR-ANALYS (ERR-S) Statistical uncertainty given.
           Maximum relative uncertainty 2%.  See Table I in
            reference for a complete list of systematic sources
            of uncertainty.
ENDBIB               7
COMMON               3          3
ANG-NRM    MONIT      MONIT-ERR
ADEG       MB/SR      PER-CENT
 90.         3.471      2.
ENDCOMMON            3
DATA                 3         67
ANG-CM     DATA-CM    ERR-S
ADEG       MB/SR      MB/SR
  6.10      7.5590E+00 1.1340E-01
  6.74      6.7570E+00 1.0140E-01
  7.38      6.3590E+00 9.5390E-02
  7.71      6.2080E+00 9.3120E-02
  8.19      5.9770E+00 6.3400E-02
  8.83      5.7140E+00 6.0600E-02
  9.48      5.6460E+00 5.9880E-02
 10.11      5.6460E+00 5.9880E-02
 11.14      5.5740E+00 4.8980E-02
 12.68      5.4740E+00 4.8100E-02
 13.79      5.3710E+00 4.7190E-02
 14.45      5.3000E+00 4.6570E-02
 15.32      5.2690E+00 4.6300E-02
 15.89      5.3070E+00 4.6630E-02
 16.25      5.1630E+00 4.5360E-02
 16.78      5.2470E+00 4.6110E-02
 17.21      5.2500E+00 4.6130E-02
 17.74      5.0820E+00 4.4650E-02
 18.17      5.1740E+00 4.5460E-02
 18.69      5.1480E+00 4.5230E-02
 19.13      5.1280E+00 4.5060E-02
 19.65      5.0250E+00 4.4150E-02
 20.09      5.0220E+00 4.4130E-02
 20.52      5.1020E+00 4.4830E-02
 20.93      5.0550E+00 4.4410E-02
 21.27      5.0450E+00 4.4340E-02
 21.69      4.9780E+00 4.3750E-02
 22.01      4.8790E+00 4.2870E-02
 22.44      4.8950E+00 4.3010E-02
 23.08      4.9300E+00 4.3320E-02
 23.72      4.9930E+00 4.3870E-02
 24.18      4.8890E+00 4.2960E-02
 24.65      4.8570E+00 4.2680E-02
 26.38      4.7230E+00 4.1500E-02
 27.55      4.8690E+00 4.2780E-02
 29.08      4.7700E+00 4.1910E-02
 30.46      4.7520E+00 4.1760E-02
 31.09      4.7540E+00 4.1770E-02
 31.98      4.6550E+00 4.0900E-02
 32.83      4.5550E+00 4.0030E-02
 33.72      4.6190E+00 4.0590E-02
 34.36      4.5580E+00 4.0050E-02
 35.72      4.5970E+00 4.0390E-02
 37.25      4.5340E+00 3.9840E-02
 38.41      4.4720E+00 3.9290E-02
 40.14      4.4110E+00 3.8760E-02
 40.82      4.4190E+00 3.8830E-02
 41.50      4.2700E+00 3.7520E-02
 42.46      4.3980E+00 3.8650E-02
 42.87      4.3940E+00 3.8610E-02
 43.41      4.3600E+00 3.8310E-02
 43.82      4.2880E+00 3.7680E-02
 44.34      4.2730E+00 3.7540E-02
 44.98      4.2800E+00 3.7610E-02
 46.03      4.2220E+00 3.7100E-02
 46.45      4.1050E+00 6.1570E-02
 53.87      4.0780E+00 4.3250E-02
 55.10      3.9850E+00 4.2270E-02
 56.33      4.0100E+00 4.2530E-02
 64.55      3.8260E+00 4.0580E-02
 65.46      3.8290E+00 5.7430E-02
 66.36      3.8290E+00 4.0610E-02
 75.61      3.6110E+00 3.8300E-02
 76.02      3.6740E+00 5.5110E-02
 76.62      3.6380E+00 3.8600E-02
 86.60      3.4810E+00 3.6920E-02
 96.61      3.4620E+00 3.6730E-02
ENDDATA             69
ENDSUBENT           85
SUBENT        C0658003   20000615   20010329
BIB                  4          9
REACTION   (1-H-1(P,EL)1-H-1,,POL/DA,,ANA)
INC-SOURCE (POLIS) Beam polarization normal to horizontal
            scattering plane.  Average polarization 0.75-0.88.
ANALYSIS   Measured analyzing powers renormalized by a factor of
            1.025.
ERR-ANALYS (ERR-S) Statistical uncertainty given.
           Maximum relative uncertainty 1%.  See Table I in
            reference for a complete list of systematic sources
            of uncertainty.
ENDBIB               9
NOCOMMON             0          0
DATA                 3         54
ANG-CM     DATA       ERR-S
ADEG       NO-DIM     NO-DIM
  16.050     0.322     0.02152
  17.590     0.365     0.02133
  18.890     0.382     0.01293
  20.180     0.380     0.00931
  21.720     0.412     0.00924
  22.750     0.421     0.00837
  24.280     0.447     0.00844
  25.570     0.447     0.00924
  26.840     0.465     0.01073
  28.370     0.447     0.01065
  29.420     0.472     0.01050
  30.940     0.468     0.01061
  32.220     0.486     0.00847
  33.490     0.476     0.00703
  35.010     0.493     0.00717
  36.030     0.504     0.01619
  37.510     0.500     0.01587
  38.260     0.493     0.01565
  39.010     0.500     0.01576
  40.470     0.491     0.01536
  41.620     0.499     0.01550
  43.130     0.498     0.01554
  44.330     0.488     0.01596
  45.510     0.471     0.01615
  47.010     0.472     0.01622
  48.020     0.438     0.01485
  49.510     0.434     0.02819
  50.630     0.434     0.02070
  52.770     0.432     0.01362
  54.140     0.421     0.02889
  54.510     0.371     0.01639
  55.240     0.403     0.01717
  55.980     0.368     0.01642
  56.720     0.348     0.01588
  57.230     0.377     0.01408
  58.490     0.356     0.01300
  59.950     0.356     0.01297
  60.950     0.323     0.01159
  62.410     0.329     0.01159
  63.620     0.306     0.01013
  64.820     0.309     0.00895
  66.260     0.301     0.00876
  67.260     0.264     0.00806
  68.710     0.238     0.00761
  69.790     0.213     0.01035
  75.310     0.195     0.00891
  76.380     0.158     0.00634
  77.800     0.134     0.00685
  85.550     0.035     0.00809
  86.600     0.054     0.00580
  87.990     0.041     0.00740
  95.590    -0.068     0.00809
  96.610    -0.081     0.00547
  97.980    -0.096     0.00818
ENDDATA             56
ENDSUBENT           70
ENDENTRY             3
