ENTRY            C0672   20001116   20010329
SUBENT        C0672001   20001116   20010329
BIB                 10         18
INSTITUTE  (1USAMSU,1USAPTN) + Northern Michigan University.
REFERENCE  (J,NP/A,407,163,1983)
           (J,PL/B,107,182,198112)
AUTHOR     (J.E.FINCK,G.M.CRAWLEY,J.A.NOLEN JR,R.T.KOUZES)
TITLE      A study of 206Pb by inelastic scattering of 35 MeV
            protons
FACILITY   (CYCLO,1USAMSU)
           (CYCLO,1USAPTN)
SAMPLE     Targets enriched to 97.22% 206Pb, areal density 0.1
            mg/cm2, evaporated onto carbon foils.
DETECTOR   (TRD) Nuclear emulsions at MSU.
           (PROPC) Proportional counter at Princeton.
           (NAICR) Beam monitored using NaI(Tl) detector at 90
            degrees.
ERR-ANALYS (ERR-S) Statistical uncertainty given.
STATUS     Tabulated data received from J.E.Finck, 16 June 2000.
           (APRVD) Approved by J. Finck, 23 October 2000.
HISTORY    (20000707C) VM
ENDBIB              18
COMMON               1          3
EN
MEV
 35.
ENDCOMMON            3
ENDSUBENT           25
SUBENT        C0672002   20000828   20010329
BIB                  1          1
REACTION   (82-PB-206(P,EL)82-PB-206,,DA)
ENDBIB               1
NOCOMMON             0          0
DATA                 3         27
ANG        DATA       ERR-S
ADEG       MB/SR      MB/SR
 10.1        0.192E+06  0.137E+03
 12.1        0.596E+05  0.672E+02
 16.1        0.170E+05  0.194E+03
 20.1        0.597E+04  0.548E+01
 24.1        0.191E+04  0.472E+01
 28.1        0.790E+03  0.751E+00
 32.2        0.340E+03  0.469E+00
 34.2        0.225E+03  0.304E+00
 38.2        0.149E+03  0.249E+00
 40.2        0.140E+03  0.256E+00
 44.2        0.122E+03  0.161E+00
 48.2        0.789E+02  0.133E+00
 52.2        0.317E+02  0.813E-01
 56.3        0.104E+02  0.475E-01
 60.3        0.138E+02  0.430E-01
 64.3        0.211E+02  0.435E-01
 68.3        0.180E+02  0.242E-01
 72.3        0.992E+01  0.382E-01
 76.3        0.312E+01  0.173E-01
 80.3        0.206E+01  0.137E-01
 84.3        0.388E+01  0.182E-01
 88.3        0.466E+01  0.170E-01
 92.3        0.366E+01  0.148E-01
 96.3        0.186E+01  0.115E-01
100.3        0.744E+00  0.667E-02
104.3        0.642E+00  0.102E-01
108.3        0.994E+00  0.118E-01
ENDDATA             29
ENDSUBENT           35
SUBENT        C0672003   20000828   20010329
BIB                  1          1
REACTION   (82-PB-206(P,INL)82-PB-206,PAR,DA)
ENDBIB               1
NOCOMMON             0          0
DATA                 4       1388
E-EXC      ANG        DATA       ERR-S
MEV        ADEG       MB/SR      MB/SR
 0.803      16.1        0.263E+01  0.211E+00
 0.803      20.1        0.341E+01  0.131E+00
 0.803      24.1        0.235E+01  0.760E+00
 0.803      28.1        0.749E+00  0.235E+00
 0.803      34.2        0.370E+00  0.126E+00
 0.803      38.2        0.556E+00  0.159E+00
 0.803      40.2        0.519E+00  0.156E+00
 0.803      44.2        0.431E+00  0.151E+00
 0.803      48.2        0.257E+00  0.761E+00
 0.803      52.2        0.230E+00  0.694E+00
 0.803      56.2        0.210E+00  0.817E+00
 0.803      60.3        0.107E+00  0.646E+00
 0.803      64.3        0.132E+00  0.344E+00
 0.803      68.3        0.953E+00  0.102E+02
 0.803      72.3        0.991E+00  0.104E+02
 0.803      76.3        0.961E+00  0.103E+02
 0.803      80.3        0.775E+00  0.103E+02
 0.803      84.3        0.542E+00  0.102E+02
 0.803      88.3        0.438E+00  0.102E+02
 0.803      92.3        0.414E+00  0.102E+02
 0.803      96.3        0.420E+00  0.102E+02
 0.803     100.3        0.427E+00  0.102E+02
 0.803     104.3        0.317E+00  0.102E+02
 0.803     108.3        0.272E+00  0.102E+02
 1.170      20.1        0.261E+00  0.103E+02
 1.170      24.1        0.267E+00  0.103E+02
 1.170      25.1        0.319E+00  0.105E+02
 1.170      28.1        0.135E+00  0.103E+02
 1.170      32.2        0.104E+00  0.102E+02
 1.170      35.2        0.887E+00  0.202E+02
 1.170      50.2        0.893E+00  0.201E+02
 1.170      52.2        0.824E+00  0.201E+02
 1.170      57.3        0.347E+00  0.208E+02
 1.170      65.3        0.420E+00  0.210E+02
 1.344      20.1        0.276E+00  0.103E+02
 1.344      24.1        0.234E+00  0.102E+02
 1.344      25.1        0.253E+00  0.104E+02
 1.344      28.1        0.188E+00  0.103E+02
 1.344      32.2        0.223E+00  0.102E+02
 1.344      32.7        0.349E+00  0.110E+02
 1.344      34.2        0.305E+00  0.104E+02
 1.344      35.2        0.287E+00  0.102E+02
 1.344      38.2        0.200E+00  0.102E+02
 1.344      50.2        0.193E+00  0.102E+02
 1.344      52.2        0.211E+00  0.102E+02
 1.344      57.3        0.161E+00  0.101E+02
 1.344      61.3        0.141E+00  0.102E+02
 1.344      65.3        0.137E+00  0.101E+02
 1.344      68.3        0.122E+00  0.109E+02
 1.344      70.3        0.113E+00  0.101E+02
 1.344      75.3        0.104E+00  0.101E+02
 1.344      85.3        0.617E+00  0.207E+02
 1.469      16.1        0.179E+00  0.187E+00
 1.469      20.1        0.131E+00  0.128E+00
 1.469      22.1        0.120E+00  0.947E+00
 1.469      24.1        0.859E+00  0.108E+02
 1.469      26.1        0.646E+00  0.106E+02
 1.469      30.1        0.488E+00  0.104E+02
 1.469      32.2        0.352E+00  0.105E+02
 1.469      34.2        0.276E+00  0.103E+02
 1.469      48.2        0.262E+00  0.103E+02
 1.469      54.2        0.261E+00  0.102E+02
 1.469      56.3        0.342E+00  0.103E+02
 1.469      58.3        0.315E+00  0.102E+02
 1.469      60.3        0.368E+00  0.103E+02
 1.469      64.3        0.390E+00  0.102E+02
 1.469      66.3        0.217E+00  0.109E+02
 1.469      68.3        0.225E+00  0.101E+02
 1.469      69.3        0.181E+00  0.110E+02
 1.469      70.3        0.187E+00  0.101E+02
 1.469      72.3        0.203E+00  0.102E+02
 1.469      74.3        0.126E+00  0.101E+02
 1.469      78.3        0.689E+00  0.208E+02
 1.686      12.1        0.392E+00  0.432E+00
 1.686      16.1        0.211E+00  0.173E+00
 1.686      20.1        0.150E+00  0.138E+00
 1.686      22.1        0.178E+00  0.100E+00
 1.686      24.1        0.183E+00  0.109E+00
 1.686      26.1        0.199E+00  0.759E+00
 1.686      30.1        0.236E+00  0.716E+00
 1.686      34.2        0.223E+00  0.861E+00
 1.686      38.2        0.178E+00  0.486E+00
 1.686      40.2        0.157E+00  0.708E+00
 1.686      42.2        0.119E+00  0.425E+00
 1.686      50.2        0.538E+00  0.104E+02
 1.686      58.3        0.703E+00  0.103E+02
 1.686      62.3        0.546E+00  0.102E+02
 1.686      66.3        0.435E+00  0.102E+02
 1.686      70.3        0.348E+00  0.102E+02
 1.686      74.3        0.233E+00  0.102E+02
 1.686      78.3        0.181E+00  0.101E+02
 1.686      82.3        0.138E+00  0.101E+02
 1.686      86.3        0.146E+00  0.110E+02
 1.686      90.3        0.182E+00  0.102E+02
 1.686      94.3        0.152E+00  0.108E+02
 1.686      98.3        0.137E+00  0.107E+02
 1.708      20.1        0.344E+00  0.103E+02
 1.708      25.1        0.223E+00  0.104E+02
 1.708      32.2        0.167E+00  0.102E+02
 1.708      38.2        0.173E+00  0.102E+02
 1.708      50.2        0.155E+00  0.101E+02
 1.708      52.2        0.109E+00  0.101E+02
 1.708      57.3        0.117E+00  0.101E+02
 1.708      61.3        0.838E+00  0.201E+02
 1.708      65.3        0.266E+00  0.209E+02
 1.708      70.3        0.206E+00  0.207E+02
 1.708      80.3        0.322E+00  0.206E+02
 1.787      20.1        0.185E+00  0.102E+02
 1.787      24.1        0.836E+00  0.202E+02
 1.787      25.1        0.823E+00  0.203E+02
 1.787      28.1        0.985E+00  0.202E+02
 1.787      32.2        0.122E+00  0.102E+02
 1.787      35.2        0.184E+00  0.102E+02
 1.787      38.2        0.138E+00  0.102E+02
 1.787      52.2        0.878E+00  0.201E+02
 1.787      61.3        0.502E+00  0.201E+02
 1.787      70.3        0.318E+00  0.200E+02
 1.998      16.1        0.119E+00  0.187E+02
 1.998      20.1        0.808E+00  0.101E+02
 1.998      22.1        0.718E+00  0.108E+02
 1.998      24.1        0.741E+00  0.108E+02
 1.998      26.1        0.816E+00  0.106E+02
 1.998      30.1        0.761E+00  0.105E+02
 1.998      38.2        0.452E+00  0.102E+02
 1.998      40.2        0.267E+00  0.103E+02
 1.998      42.2        0.191E+00  0.102E+02
 1.998      46.2        0.202E+00  0.102E+02
 1.998      50.3        0.336E+00  0.102E+02
 1.998      62.3        0.287E+00  0.102E+02
 1.998      66.3        0.213E+00  0.109E+02
 1.998      69.3        0.168E+00  0.109E+02
 1.998      70.3        0.139E+00  0.101E+02
 1.998      74.3        0.106E+00  0.101E+02
 1.998      78.3        0.615E+00  0.208E+02
 1.998      82.3        0.486E+00  0.206E+02
 1.998      86.3        0.638E+00  0.206E+02
 1.998      94.3        0.280E+00  0.203E+02
 1.998      98.3        0.199E+00  0.203E+02
 2.151      20.1        0.341E+00  0.102E+02
 2.151      24.1        0.212E+00  0.102E+02
 2.151      25.1        0.157E+00  0.103E+02
 2.151      28.1        0.127E+00  0.102E+02
 2.151      32.7        0.159E+00  0.105E+02
 2.151      35.2        0.168E+00  0.102E+02
 2.151      38.2        0.145E+00  0.101E+02
 2.151      44.2        0.166E+00  0.102E+02
 2.151      50.2        0.882E+00  0.201E+02
 2.151      57.3        0.338E+00  0.208E+02
 2.151      65.3        0.266E+00  0.207E+02
 2.151      70.3        0.345E+00  0.207E+02
 2.151      75.3        0.322E+00  0.207E+02
 2.151      80.3        0.329E+00  0.206E+02
 2.200      16.1        0.183E+00  0.201E+00
 2.200      20.1        0.134E+00  0.139E+00
 2.200      22.1        0.119E+00  0.934E+00
 2.200      24.1        0.102E+00  0.870E+00
 2.200      26.1        0.108E+00  0.660E+00
 2.200      30.1        0.950E+00  0.105E+02
 2.200      34.2        0.877E+00  0.105E+02
 2.200      38.2        0.627E+00  0.103E+02
 2.200      40.2        0.588E+00  0.104E+02
 2.200      42.2        0.517E+00  0.103E+02
 2.200      46.2        0.546E+00  0.103E+02
 2.200      50.2        0.597E+00  0.102E+02
 2.200      58.3        0.411E+00  0.103E+02
 2.200      66.3        0.128E+00  0.108E+02
 2.200      69.3        0.164E+00  0.109E+02
 2.200      70.3        0.178E+00  0.101E+02
 2.200      74.3        0.123E+00  0.101E+02
 2.200      78.3        0.132E+00  0.101E+02
 2.200      82.3        0.141E+00  0.101E+02
 2.200      86.3        0.146E+00  0.110E+02
 2.200      90.3        0.124E+00  0.108E+02
 2.200      98.3        0.103E+00  0.106E+02
 2.385      20.1        0.261E+00  0.102E+02
 2.385      24.1        0.248E+00  0.102E+02
 2.385      25.1        0.236E+00  0.103E+02
 2.385      30.1        0.232E+00  0.103E+02
 2.385      32.7        0.240E+00  0.104E+02
 2.385      35.2        0.214E+00  0.102E+02
 2.385      38.2        0.168E+00  0.101E+02
 2.385      40.2        0.212E+00  0.104E+02
 2.385      44.2        0.179E+00  0.102E+02
 2.385      50.2        0.187E+00  0.102E+02
 2.385      52.2        0.185E+00  0.101E+02
 2.385      61.3        0.113E+00  0.101E+02
 2.385      70.3        0.603E+00  0.209E+02
 2.385      75.3        0.732E+00  0.208E+02
 2.385      80.3        0.475E+00  0.207E+02
 2.385      85.3        0.375E+00  0.206E+02
 2.385      90.3        0.247E+00  0.204E+02
 2.385      94.3        0.216E+00  0.203E+02
 2.422      20.1        0.193E+00  0.102E+02
 2.422      25.1        0.181E+00  0.103E+02
 2.422      28.1        0.140E+00  0.108E+02
 2.422      32.2        0.561E+00  0.201E+02
 2.422      38.2        0.330E+00  0.209E+02
 2.422      40.2        0.576E+00  0.203E+02
 2.422      52.2        0.913E+00  0.201E+02
 2.422      61.3        0.713E+00  0.201E+02
 2.422      75.3        0.330E+00  0.206E+02
 2.422      80.3        0.175E+00  0.205E+02
 2.648      12.1        0.672E+00  0.494E+00
 2.648      16.1        0.116E+01  0.306E+00
 2.648      20.1        0.258E+01  0.310E+00
 2.648      22.1        0.367E+01  0.301E+00
 2.648      24.1        0.447E+01  0.349E+00
 2.648      26.1        0.494E+01  0.285E+00
 2.648      30.1        0.432E+01  0.245E+00
 2.648      34.2        0.272E+01  0.256E+00
 2.648      38.2        0.149E+01  0.140E+00
 2.648      40.2        0.119E+01  0.198E+00
 2.648      42.2        0.119E+01  0.134E+00
 2.648      46.2        0.146E+01  0.155E+00
 2.648      50.2        0.160E+01  0.102E+00
 2.648      54.2        0.131E+01  0.140E+00
 2.648      58.3        0.109E+01  0.130E+00
 2.648      62.3        0.706E+00  0.760E+00
 2.648      66.3        0.524E+00  0.424E+00
 2.648      69.3        0.514E+00  0.516E+00
 2.648      74.3        0.462E+00  0.678E+00
 2.648      78.3        0.407E+00  0.627E+00
 2.648      82.3        0.362E+00  0.540E+00
 2.648      86.3        0.275E+00  0.420E+00
 2.648      90.3        0.226E+00  0.348E+00
 2.648      94.3        0.184E+00  0.276E+00
 2.648      98.3        0.159E+00  0.250E+00
 2.782      16.1        0.169E+00  0.215E+00
 2.782      20.1        0.139E+00  0.143E+00
 2.782      22.1        0.116E+00  0.888E+00
 2.782      24.1        0.121E+00  0.899E+00
 2.782      26.1        0.134E+00  0.713E+00
 2.782      30.1        0.143E+00  0.580E+00
 2.782      34.2        0.152E+00  0.605E+00
 2.782      38.2        0.150E+00  0.445E+00
 2.782      40.2        0.139E+00  0.665E+00
 2.782      42.2        0.121E+00  0.428E+00
 2.782      46.2        0.942E+00  0.104E+02
 2.782      50.2        0.553E+00  0.102E+02
 2.782      54.2        0.375E+00  0.102E+02
 2.782      58.3        0.335E+00  0.102E+02
 2.782      66.3        0.395E+00  0.101E+02
 2.782      69.3        0.342E+00  0.101E+02
 2.782      70.3        0.325E+00  0.102E+02
 2.782      78.3        0.201E+00  0.101E+02
 2.782      82.3        0.123E+00  0.110E+02
 2.782      86.3        0.106E+00  0.108E+02
 2.782      90.3        0.114E+00  0.108E+02
 2.782      94.3        0.124E+00  0.107E+02
 2.782      98.3        0.879E+00  0.206E+02
 2.861      25.1        0.134E+00  0.102E+02
 2.861      26.1        0.142E+00  0.104E+02
 2.861      32.7        0.999E+00  0.203E+02
 2.861      40.2        0.120E+00  0.103E+02
 2.861      52.2        0.110E+00  0.101E+02
 2.861      69.3        0.414E+00  0.205E+02
 2.928      12.1        0.297E+00  0.418E+00
 2.928      16.1        0.265E+00  0.238E+00
 2.928      20.1        0.616E+00  0.149E+00
 2.928      22.1        0.182E+00  0.982E+00
 2.928      24.1        0.182E+00  0.102E+00
 2.928      26.1        0.215E+00  0.826E+00
 2.928      30.1        0.231E+00  0.701E+00
 2.928      34.2        0.237E+00  0.756E+00
 2.928      38.2        0.177E+00  0.484E+00
 2.928      40.2        0.118E+00  0.669E+00
 2.928      42.2        0.103E+00  0.396E+00
 2.928      46.2        0.803E+00  0.104E+02
 2.928      50.2        0.545E+00  0.102E+02
 2.928      54.2        0.440E+00  0.103E+02
 2.928      58.3        0.586E+00  0.103E+02
 2.928      66.3        0.585E+00  0.102E+02
 2.928      69.3        0.444E+00  0.102E+02
 2.928      70.3        0.439E+00  0.102E+02
 2.928      78.3        0.213E+00  0.101E+02
 2.928      82.3        0.190E+00  0.101E+02
 2.928      86.3        0.177E+00  0.101E+02
 2.928      90.3        0.153E+00  0.109E+02
 2.928      94.3        0.138E+00  0.108E+02
 2.928      98.3        0.105E+00  0.106E+02
 2.960      32.7        0.146E+00  0.104E+02
 2.960      40.2        0.746E+00  0.202E+02
 2.960      44.2        0.240E+00  0.207E+02
 2.960      50.2        0.480E+00  0.207E+02
 2.960      57.3        0.301E+00  0.206E+02
 2.960      65.3        0.698E+00  0.208E+02
 2.988      25.1        0.176E+00  0.102E+02
 2.988      32.7        0.550E+00  0.203E+02
 2.988      44.2        0.342E+00  0.209E+02
 2.988      50.2        0.430E+00  0.207E+02
 2.988      57.3        0.108E+00  0.205E+02
 3.014      22.1        0.530E+00  0.106E+02
 3.014      24.1        0.510E+00  0.107E+02
 3.014      26.1        0.463E+00  0.105E+02
 3.014      30.1        0.437E+00  0.105E+02
 3.014      34.2        0.580E+00  0.104E+02
 3.014      38.2        0.556E+00  0.103E+02
 3.014      42.2        0.428E+00  0.103E+02
 3.014      46.2        0.299E+00  0.102E+02
 3.014      50.2        0.205E+00  0.101E+02
 3.014      54.3        0.131E+00  0.101E+02
 3.014      58.3        0.141E+00  0.101E+02
 3.014      70.3        0.153E+00  0.101E+02
 3.014      74.3        0.789E+00  0.209E+02
 3.014      82.3        0.354E+00  0.205E+02
 3.014      90.3        0.405E+00  0.205E+02
 3.014      94.3        0.396E+00  0.204E+02
 3.014      98.3        0.424E+00  0.204E+02
 3.121      22.1        0.530E+00  0.107E+02
 3.121      26.1        0.218E+00  0.104E+02
 3.121      30.1        0.219E+00  0.103E+02
 3.121      34.2        0.264E+00  0.103E+02
 3.121      38.2        0.184E+00  0.102E+02
 3.121      40.2        0.135E+00  0.103E+02
 3.121      42.2        0.115E+00  0.101E+02
 3.121      46.2        0.134E+00  0.101E+02
 3.121      50.2        0.102E+00  0.108E+02
 3.121      54.3        0.474E+00  0.208E+02
 3.121      58.3        0.393E+00  0.208E+02
 3.121      62.3        0.480E+00  0.206E+02
 3.121      70.3        0.506E+00  0.207E+02
 3.121      82.3        0.149E+00  0.203E+02
 3.121      86.3        0.174E+00  0.203E+02
 3.121      90.3        0.146E+00  0.203E+02
 3.121      98.3        0.213E+00  0.203E+02
 3.193      22.1        0.452E+00  0.107E+02
 3.193      26.1        0.306E+00  0.104E+02
 3.193      30.1        0.336E+00  0.104E+02
 3.193      34.2        0.266E+00  0.103E+02
 3.193      38.2        0.269E+00  0.103E+02
 3.193      40.2        0.211E+00  0.104E+02
 3.193      42.2        0.219E+00  0.102E+02
 3.193      46.2        0.153E+00  0.102E+02
 3.193      50.2        0.106E+00  0.101E+02
 3.193      54.3        0.118E+00  0.101E+02
 3.193      58.3        0.649E+00  0.201E+02
 3.193      62.3        0.720E+00  0.208E+02
 3.193      69.3        0.102E+00  0.107E+02
 3.193      74.3        0.558E+00  0.207E+02
 3.193      82.3        0.500E+00  0.206E+02
 3.193      86.3        0.376E+00  0.205E+02
 3.193      94.3        0.291E+00  0.203E+02
 3.257      12.1        0.117E+00  0.178E+00
 3.257      16.1        0.659E+00  0.101E+02
 3.257      20.1        0.650E+00  0.106E+02
 3.257      22.1        0.451E+00  0.107E+02
 3.257      24.1        0.366E+00  0.106E+02
 3.257      25.1        0.441E+00  0.105E+02
 3.257      26.1        0.327E+00  0.104E+02
 3.257      30.1        0.321E+00  0.103E+02
 3.257      35.2        0.339E+00  0.103E+02
 3.257      38.2        0.341E+00  0.103E+02
 3.257      40.2        0.453E+00  0.103E+02
 3.257      42.2        0.425E+00  0.102E+02
 3.257      45.2        0.462E+00  0.103E+02
 3.257      46.2        0.475E+00  0.103E+02
 3.257      48.2        0.439E+00  0.102E+02
 3.257      50.2        0.235E+00  0.102E+02
 3.257      55.3        0.313E+00  0.102E+02
 3.257      58.3        0.283E+00  0.102E+02
 3.257      62.3        0.165E+00  0.101E+02
 3.257      63.3        0.201E+00  0.101E+02
 3.257      69.3        0.242E+00  0.101E+02
 3.257      74.3        0.198E+00  0.101E+02
 3.257      85.3        0.635E+00  0.206E+02
 3.257      90.3        0.513E+00  0.205E+02
 3.257      95.3        0.472E+00  0.205E+02
 3.277      12.1        0.109E+00  0.177E+00
 3.277      16.1        0.864E+00  0.101E+02
 3.277      20.1        0.593E+00  0.106E+02
 3.277      22.1        0.372E+00  0.107E+02
 3.277      24.1        0.433E+00  0.107E+02
 3.277      25.1        0.442E+00  0.105E+02
 3.277      26.1        0.441E+00  0.105E+02
 3.277      30.1        0.405E+00  0.103E+02
 3.277      35.2        0.485E+00  0.103E+02
 3.277      40.2        0.486E+00  0.103E+02
 3.277      42.2        0.455E+00  0.102E+02
 3.277      45.2        0.357E+00  0.103E+02
 3.277      46.2        0.352E+00  0.102E+02
 3.277      48.2        0.255E+00  0.102E+02
 3.277      55.3        0.137E+00  0.101E+02
 3.277      58.3        0.186E+00  0.102E+02
 3.277      62.3        0.193E+00  0.101E+02
 3.277      70.3        0.174E+00  0.201E+02
 3.277      85.3        0.519E+00  0.205E+02
 3.277      90.3        0.508E+00  0.205E+02
 3.277      95.3        0.536E+00  0.205E+02
 3.399      12.1        0.762E+00  0.102E+02
 3.399      16.1        0.101E+00  0.107E+00
 3.399      20.1        0.896E+00  0.107E+02
 3.399      22.1        0.718E+00  0.108E+02
 3.399      24.1        0.755E+00  0.108E+02
 3.399      25.1        0.731E+00  0.106E+02
 3.399      26.1        0.797E+00  0.106E+02
 3.399      30.1        0.842E+00  0.103E+02
 3.399      34.2        0.101E+00  0.613E+00
 3.399      35.2        0.897E+00  0.105E+02
 3.399      38.2        0.927E+00  0.105E+02
 3.399      40.2        0.863E+00  0.104E+02
 3.399      42.2        0.854E+00  0.103E+02
 3.399      45.2        0.603E+00  0.104E+02
 3.399      46.2        0.342E+00  0.103E+02
 3.399      48.2        0.477E+00  0.103E+02
 3.399      50.2        0.470E+00  0.102E+02
 3.399      54.3        0.277E+00  0.102E+02
 3.399      55.3        0.292E+00  0.102E+02
 3.399      58.3        0.310E+00  0.102E+02
 3.399      63.3        0.255E+00  0.101E+02
 3.399      66.3        0.282E+00  0.101E+02
 3.399      74.3        0.153E+00  0.102E+02
 3.399      85.3        0.106E+00  0.107E+02
 3.399      90.3        0.105E+00  0.108E+02
 3.399      95.3        0.976E+00  0.207E+02
 3.450      16.1        0.710E+00  0.101E+02
 3.450      20.1        0.777E+00  0.107E+02
 3.450      22.1        0.991E+00  0.109E+02
 3.450      24.1        0.120E+00  0.884E+00
 3.450      25.1        0.112E+00  0.665E+00
 3.450      26.1        0.119E+00  0.726E+00
 3.450      30.1        0.115E+00  0.383E+00
 3.450      34.2        0.100E+00  0.720E+00
 3.450      35.2        0.807E+00  0.104E+02
 3.450      38.2        0.505E+00  0.104E+02
 3.450      40.2        0.407E+00  0.103E+02
 3.450      42.2        0.347E+00  0.102E+02
 3.450      45.2        0.283E+00  0.103E+02
 3.450      46.2        0.365E+00  0.102E+02
 3.450      48.2        0.302E+00  0.102E+02
 3.450      50.2        0.395E+00  0.102E+02
 3.450      54.3        0.436E+00  0.103E+02
 3.450      55.3        0.378E+00  0.102E+02
 3.450      58.3        0.328E+00  0.102E+02
 3.450      63.3        0.203E+00  0.101E+02
 3.450      85.3        0.116E+00  0.107E+02
 3.450      90.3        0.667E+00  0.207E+02
 3.450      95.3        0.429E+00  0.205E+02
 3.478      25.1        0.137E+00  0.102E+02
 3.478      32.7        0.993E+00  0.203E+02
 3.478      40.2        0.107E+00  0.102E+02
 3.478      44.2        0.630E+00  0.209E+02
 3.478      52.2        0.100E+00  0.206E+02
 3.478      57.3        0.150E+00  0.205E+02
 3.515      12.1        0.131E+00  0.191E+00
 3.515      16.1        0.597E+00  0.110E+02
 3.515      20.1        0.474E+00  0.105E+02
 3.515      25.1        0.357E+00  0.105E+02
 3.515      30.1        0.333E+00  0.103E+02
 3.515      35.2        0.297E+00  0.103E+02
 3.515      40.2        0.287E+00  0.103E+02
 3.515      42.2        0.272E+00  0.104E+02
 3.515      45.2        0.181E+00  0.103E+02
 3.515      48.2        0.145E+00  0.102E+02
 3.515      55.3        0.109E+00  0.109E+02
 3.515      63.3        0.137E+00  0.101E+02
 3.515      90.3        0.611E+00  0.206E+02
 3.515      95.3        0.436E+00  0.205E+02
 3.558      16.1        0.101E+00  0.109E+00
 3.558      20.1        0.918E+00  0.107E+02
 3.558      25.1        0.849E+00  0.106E+02
 3.558      30.1        0.991E+00  0.105E+02
 3.558      35.2        0.110E+00  0.509E+00
 3.558      40.2        0.892E+00  0.104E+02
 3.558      42.2        0.824E+00  0.104E+02
 3.558      45.2        0.590E+00  0.104E+02
 3.558      48.2        0.389E+00  0.102E+02
 3.558      55.3        0.242E+00  0.101E+02
 3.558      63.3        0.264E+00  0.101E+02
 3.558      90.3        0.103E+00  0.108E+02
 3.558      95.3        0.718E+00  0.206E+02
 3.603      25.1        0.403E+00  0.103E+02
 3.603      32.7        0.155E+00  0.103E+02
 3.603      44.2        0.114E+00  0.101E+02
 3.603      52.2        0.840E+00  0.209E+02
 3.603      65.3        0.765E+00  0.208E+02
 3.603      75.3        0.458E+00  0.208E+02
 3.718      16.1        0.143E+00  0.122E+00
 3.718      20.1        0.183E+00  0.917E+00
 3.718      25.1        0.228E+00  0.375E+00
 3.718      30.1        0.195E+00  0.412E+00
 3.718      35.2        0.105E+00  0.513E+00
 3.718      40.2        0.524E+00  0.104E+02
 3.718      42.2        0.629E+00  0.103E+02
 3.718      45.2        0.563E+00  0.104E+02
 3.718      48.2        0.603E+00  0.103E+02
 3.718      55.3        0.375E+00  0.102E+02
 3.718      63.3        0.227E+00  0.101E+02
 3.718      70.3        0.275E+00  0.101E+02
 3.718      85.3        0.106E+00  0.107E+02
 3.718      90.3        0.911E+00  0.208E+02
 3.718      95.3        0.529E+00  0.205E+02
 3.737      25.1        0.220E+00  0.102E+02
 3.737      32.7        0.152E+00  0.103E+02
 3.737      40.2        0.361E+00  0.202E+02
 3.737      44.2        0.370E+00  0.207E+02
 3.772      12.1        0.295E+00  0.225E+00
 3.772      16.1        0.279E+00  0.142E+00
 3.772      20.1        0.283E+00  0.106E+00
 3.772      25.1        0.302E+00  0.467E+00
 3.772      30.1        0.386E+00  0.565E+00
 3.772      35.2        0.396E+00  0.883E+00
 3.772      40.2        0.387E+00  0.830E+00
 3.772      42.2        0.378E+00  0.818E+00
 3.772      45.2        0.306E+00  0.782E+00
 3.772      48.2        0.226E+00  0.547E+00
 3.772      55.3        0.125E+00  0.308E+00
 3.772      63.3        0.101E+00  0.276E+00
 3.772      70.3        0.690E+00  0.102E+02
 3.772      85.3        0.356E+00  0.101E+02
 3.772      90.3        0.385E+00  0.102E+02
 3.772      95.3        0.276E+00  0.101E+02
 3.827      25.1        0.690E+00  0.202E+02
 3.827      32.7        0.641E+00  0.202E+02
 3.827      44.2        0.682E+00  0.210E+02
 3.827      52.2        0.699E+00  0.208E+02
 3.827      70.3        0.297E+00  0.206E+02
 3.847      25.1        0.161E+00  0.102E+02
 3.847      32.7        0.459E+00  0.202E+02
 3.847      44.2        0.320E+00  0.208E+02
 3.847      50.2        0.275E+00  0.205E+02
 3.847      52.2        0.223E+00  0.205E+02
 3.963      32.7        0.168E+00  0.103E+02
 3.963      40.2        0.123E+00  0.103E+02
 3.963      44.2        0.101E+00  0.101E+02
 3.963      52.2        0.123E+00  0.110E+02
 3.963      65.3        0.102E+00  0.101E+02
 3.963      70.3        0.473E+00  0.208E+02
 3.980      25.1        0.294E+00  0.103E+02
 3.980      32.7        0.397E+00  0.104E+02
 3.980      40.2        0.206E+00  0.103E+02
 3.980      44.2        0.243E+00  0.101E+02
 3.980      52.2        0.362E+00  0.102E+02
 3.980      57.3        0.147E+00  0.101E+02
 3.980      65.3        0.201E+00  0.101E+02
 3.980      70.3        0.971E+00  0.210E+02
 3.997      25.1        0.382E+00  0.103E+02
 3.997      40.2        0.502E+00  0.104E+02
 3.997      44.2        0.466E+00  0.102E+02
 3.997      52.2        0.608E+00  0.102E+02
 3.997      57.3        0.381E+00  0.102E+02
 3.997      65.3        0.419E+00  0.102E+02
 3.997      70.3        0.226E+00  0.101E+02
 4.006      25.1        0.808E+00  0.104E+02
 4.006      32.7        0.124E+00  0.647E+00
 4.006      40.2        0.574E+00  0.105E+02
 4.044      25.1        0.399E+00  0.103E+02
 4.044      32.7        0.327E+00  0.104E+02
 4.044      40.2        0.235E+00  0.103E+02
 4.044      44.2        0.297E+00  0.102E+02
 4.044      52.2        0.305E+00  0.101E+02
 4.044      57.3        0.136E+00  0.101E+02
 4.044      70.3        0.845E+00  0.210E+02
 4.059      25.1        0.350E+00  0.103E+02
 4.059      32.7        0.384E+00  0.104E+02
 4.059      40.2        0.312E+00  0.104E+02
 4.059      44.2        0.234E+00  0.102E+02
 4.059      52.2        0.158E+00  0.101E+02
 4.059      65.3        0.119E+00  0.101E+02
 4.059      70.3        0.454E+00  0.208E+02
 4.107      12.1        0.354E+00  0.253E+00
 4.107      16.1        0.839E+00  0.817E+00
 4.107      20.1        0.150E+00  0.273E+00
 4.107      25.1        0.924E+00  0.700E+00
 4.107      30.1        0.365E+00  0.554E+00
 4.107      35.2        0.259E+00  0.758E+00
 4.107      40.2        0.445E+00  0.910E+00
 4.107      42.2        0.486E+00  0.229E+00
 4.107      45.2        0.384E+00  0.871E+00
 4.107      48.2        0.280E+00  0.654E+00
 4.107      55.3        0.185E+00  0.628E+00
 4.107      63.3        0.127E+00  0.364E+00
 4.107      70.3        0.131E+00  0.366E+00
 4.107      74.3        0.119E+00  0.666E+00
 4.107      85.3        0.472E+00  0.102E+02
 4.107      90.3        0.495E+00  0.102E+02
 4.107      95.3        0.498E+00  0.102E+02
 4.123      25.1        0.118E+00  0.467E+00
 4.123      32.7        0.533E+00  0.105E+02
 4.123      40.2        0.594E+00  0.105E+02
 4.123      50.2        0.648E+00  0.102E+02
 4.123      52.2        0.521E+00  0.102E+02
 4.123      57.3        0.278E+00  0.101E+02
 4.123      65.3        0.347E+00  0.102E+02
 4.168      25.1        0.325E+00  0.103E+02
 4.168      32.7        0.163E+00  0.103E+02
 4.168      40.2        0.166E+00  0.103E+02
 4.168      44.2        0.113E+00  0.101E+02
 4.168      50.2        0.750E+00  0.210E+02
 4.168      52.2        0.811E+00  0.209E+02
 4.168      57.3        0.521E+00  0.208E+02
 4.168      65.3        0.665E+00  0.209E+02
 4.168      70.3        0.491E+00  0.209E+02
 4.168      75.3        0.360E+00  0.208E+02
 4.219      12.1        0.146E+00  0.233E+00
 4.219      16.1        0.121E+00  0.129E+00
 4.219      20.1        0.122E+00  0.167E+00
 4.219      25.1        0.897E+00  0.104E+02
 4.219      30.1        0.835E+00  0.103E+02
 4.219      35.2        0.535E+00  0.104E+02
 4.219      40.2        0.427E+00  0.104E+02
 4.219      42.2        0.381E+00  0.104E+02
 4.219      45.2        0.394E+00  0.104E+02
 4.219      48.2        0.230E+00  0.103E+02
 4.219      55.3        0.206E+00  0.102E+02
 4.219      63.3        0.157E+00  0.102E+02
 4.219      70.3        0.128E+00  0.102E+02
 4.219      85.3        0.616E+00  0.205E+02
 4.219      90.3        0.625E+00  0.208E+02
 4.242      12.1        0.203E+00  0.242E+02
 4.242      16.1        0.189E+00  0.141E+02
 4.242      20.1        0.128E+00  0.168E+02
 4.242      25.1        0.764E+00  0.104E+02
 4.242      30.1        0.748E+00  0.103E+02
 4.242      35.2        0.504E+00  0.104E+02
 4.242      40.2        0.471E+00  0.104E+02
 4.242      42.2        0.423E+00  0.104E+02
 4.242      45.2        0.432E+00  0.104E+02
 4.242      48.2        0.378E+00  0.103E+02
 4.242      55.3        0.421E+00  0.102E+02
 4.242      63.3        0.301E+00  0.102E+02
 4.242      70.3        0.229E+00  0.102E+02
 4.242      74.3        0.200E+00  0.103E+02
 4.242      85.3        0.102E+00  0.107E+02
 4.242      90.3        0.666E+00  0.208E+02
 4.292      20.1        0.885E+00  0.102E+02
 4.292      25.1        0.706E+00  0.103E+02
 4.292      30.1        0.612E+00  0.104E+02
 4.292      35.2        0.374E+00  0.104E+02
 4.292      40.2        0.267E+00  0.103E+02
 4.292      42.2        0.267E+00  0.104E+02
 4.292      45.2        0.311E+00  0.104E+02
 4.292      48.2        0.303E+00  0.103E+02
 4.292      55.3        0.322E+00  0.102E+02
 4.292      63.3        0.151E+00  0.102E+02
 4.292      70.3        0.983E+00  0.201E+02
 4.292      74.3        0.790E+00  0.202E+02
 4.292      85.3        0.120E+00  0.108E+02
 4.292      90.3        0.996E+00  0.209E+02
 4.292      95.3        0.566E+00  0.206E+02
 4.333      12.1        0.566E+00  0.283E+00
 4.333      16.1        0.536E+00  0.182E+00
 4.333      20.1        0.526E+00  0.217E+00
 4.333      25.1        0.608E+00  0.613E+00
 4.333      30.1        0.812E+00  0.809E+00
 4.333      35.2        0.702E+00  0.118E+00
 4.333      40.2        0.484E+00  0.970E+00
 4.333      42.2        0.401E+00  0.989E+00
 4.333      45.2        0.282E+00  0.823E+00
 4.333      48.2        0.209E+00  0.602E+00
 4.333      55.3        0.256E+00  0.578E+00
 4.333      63.3        0.268E+00  0.523E+00
 4.333      70.3        0.163E+00  0.410E+00
 4.333      74.3        0.128E+00  0.692E+00
 4.333      85.3        0.915E+00  0.102E+02
 4.333      90.3        0.946E+00  0.103E+02
 4.333      95.3        0.788E+00  0.102E+02
 4.357      12.1        0.410E+00  0.271E+00
 4.357      16.1        0.420E+00  0.172E+00
 4.357      20.1        0.349E+00  0.200E+00
 4.357      25.1        0.275E+00  0.456E+00
 4.357      30.1        0.311E+00  0.517E+00
 4.357      35.2        0.343E+00  0.883E+00
 4.357      40.2        0.384E+00  0.883E+00
 4.357      42.2        0.413E+00  0.101E+00
 4.357      45.2        0.442E+00  0.996E+00
 4.357      48.2        0.381E+00  0.772E+00
 4.357      55.3        0.241E+00  0.508E+00
 4.357      63.3        0.135E+00  0.395E+00
 4.357      70.3        0.126E+00  0.368E+00
 4.357      74.3        0.126E+00  0.686E+00
 4.357      85.3        0.876E+00  0.102E+02
 4.357      90.3        0.666E+00  0.102E+02
 4.357      95.3        0.786E+00  0.102E+02
 4.391      25.1        0.265E+00  0.103E+02
 4.391      32.7        0.257E+00  0.104E+02
 4.391      40.2        0.308E+00  0.104E+02
 4.391      50.2        0.104E+00  0.101E+02
 4.391      57.3        0.640E+00  0.209E+02
 4.420      25.1        0.361E+00  0.103E+02
 4.420      32.7        0.844E+00  0.105E+02
 4.420      40.2        0.213E+00  0.103E+02
 4.420      44.2        0.257E+00  0.102E+02
 4.420      50.2        0.630E+00  0.201E+02
 4.420      52.2        0.674E+00  0.209E+02
 4.420      57.3        0.388E+00  0.208E+02
 4.420      70.3        0.798E+00  0.201E+02
 4.456      25.1        0.157E+00  0.526E+00
 4.456      32.7        0.874E+00  0.105E+02
 4.456      40.2        0.801E+00  0.105E+02
 4.456      44.2        0.716E+00  0.103E+02
 4.456      50.2        0.444E+00  0.102E+02
 4.456      52.2        0.322E+00  0.102E+02
 4.456      57.3        0.132E+00  0.101E+02
 4.456      65.3        0.291E+00  0.102E+02
 4.456      70.3        0.227E+00  0.102E+02
 4.474      25.1        0.900E+00  0.104E+02
 4.474      32.7        0.450E+00  0.104E+02
 4.474      40.2        0.576E+00  0.105E+02
 4.474      44.2        0.457E+00  0.102E+02
 4.474      50.2        0.247E+00  0.102E+02
 4.474      52.2        0.460E+00  0.101E+02
 4.474      57.3        0.114E+00  0.101E+02
 4.496      25.1        0.616E+00  0.104E+02
 4.496      32.7        0.166E+00  0.103E+02
 4.496      40.2        0.233E+00  0.103E+02
 4.496      44.2        0.226E+00  0.102E+02
 4.496      50.2        0.132E+00  0.101E+02
 4.496      52.2        0.119E+00  0.101E+02
 4.496      57.3        0.447E+00  0.208E+02
 4.496      75.3        0.801E+00  0.201E+02
 4.534      25.1        0.477E+00  0.103E+02
 4.534      32.7        0.577E+00  0.105E+02
 4.534      40.2        0.443E+00  0.104E+02
 4.534      44.2        0.326E+00  0.102E+02
 4.534      50.2        0.248E+00  0.102E+02
 4.534      52.2        0.301E+00  0.102E+02
 4.534      57.3        0.770E+00  0.202E+02
 4.534      65.3        0.150E+00  0.101E+02
 4.534      70.3        0.619E+00  0.201E+02
 4.534      75.3        0.103E+00  0.101E+02
 4.580      16.1        0.222E+00  0.154E+00
 4.580      20.1        0.178E+00  0.176E+00
 4.580      25.1        0.117E+00  0.338E+00
 4.580      30.1        0.142E+00  0.370E+00
 4.580      35.2        0.115E+00  0.629E+00
 4.580      40.2        0.106E+00  0.566E+00
 4.580      42.2        0.108E+00  0.698E+00
 4.580      45.2        0.117E+00  0.690E+00
 4.580      48.2        0.979E+00  0.105E+02
 4.580      55.3        0.940E+00  0.104E+02
 4.580      63.3        0.853E+00  0.103E+02
 4.580      70.3        0.680E+00  0.103E+02
 4.580      74.3        0.452E+00  0.104E+02
 4.580      85.3        0.367E+00  0.101E+02
 4.580      90.3        0.241E+00  0.102E+02
 4.580      95.3        0.192E+00  0.101E+02
 4.595      25.1        0.429E+00  0.103E+02
 4.595      32.7        0.114E+00  0.606E+00
 4.595      40.2        0.232E+00  0.103E+02
 4.595      44.2        0.187E+00  0.102E+02
 4.595      50.2        0.250E+00  0.102E+02
 4.614      25.1        0.665E+00  0.202E+02
 4.614      32.7        0.283E+00  0.104E+02
 4.614      40.2        0.794E+00  0.202E+02
 4.614      44.2        0.807E+00  0.202E+02
 4.614      52.2        0.905E+00  0.201E+02
 4.614      70.3        0.246E+00  0.207E+02
 4.614      75.3        0.529E+00  0.209E+02
 4.647      25.1        0.125E+00  0.102E+02
 4.647      32.7        0.150E+00  0.103E+02
 4.647      44.2        0.492E+00  0.202E+02
 4.647      50.2        0.805E+00  0.201E+02
 4.647      52.2        0.127E+00  0.101E+02
 4.647      57.3        0.240E+00  0.208E+02
 4.647      65.3        0.545E+00  0.201E+02
 4.647      70.3        0.168E+00  0.208E+02
 4.647      75.3        0.239E+00  0.207E+02
 4.664      25.1        0.261E+00  0.103E+02
 4.664      32.7        0.297E+00  0.104E+02
 4.664      40.2        0.217E+00  0.103E+02
 4.664      44.2        0.204E+00  0.102E+02
 4.664      50.2        0.798E+00  0.201E+02
 4.664      57.3        0.567E+00  0.209E+02
 4.664      65.3        0.544E+00  0.201E+02
 4.664      70.3        0.505E+00  0.201E+02
 4.664      75.3        0.542E+00  0.209E+02
 4.710      25.1        0.515E+00  0.103E+02
 4.710      32.7        0.564E+00  0.105E+02
 4.710      40.2        0.480E+00  0.104E+02
 4.710      44.2        0.225E+00  0.102E+02
 4.710      50.2        0.216E+00  0.102E+02
 4.710      52.2        0.204E+00  0.102E+02
 4.710      57.3        0.808E+00  0.201E+02
 4.710      65.3        0.102E+00  0.101E+02
 4.710      70.3        0.116E+00  0.101E+02
 4.710      75.3        0.120E+00  0.101E+02
 4.729      32.7        0.376E+00  0.104E+02
 4.729      40.2        0.455E+00  0.104E+02
 4.729      44.2        0.163E+00  0.102E+02
 4.729      50.2        0.260E+00  0.102E+02
 4.729      52.3        0.265E+00  0.102E+02
 4.729      57.3        0.814E+00  0.201E+02
 4.729      65.3        0.108E+00  0.101E+02
 4.729      70.3        0.638E+00  0.201E+02
 4.742      25.1        0.154E+00  0.102E+02
 4.742      32.7        0.184E+00  0.103E+02
 4.742      44.2        0.630E+00  0.202E+02
 4.742      50.2        0.142E+00  0.102E+02
 4.742      52.3        0.108E+00  0.101E+02
 4.742      57.3        0.574E+00  0.210E+02
 4.742      75.3        0.105E+00  0.101E+02
 4.770      25.1        0.553E+00  0.104E+02
 4.770      32.7        0.703E+00  0.105E+02
 4.770      40.2        0.297E+00  0.104E+02
 4.770      44.2        0.418E+00  0.103E+02
 4.770      50.2        0.356E+00  0.102E+02
 4.770      52.3        0.394E+00  0.102E+02
 4.770      57.3        0.179E+00  0.101E+02
 4.770      65.3        0.140E+00  0.102E+02
 4.770      70.3        0.103E+00  0.101E+02
 4.770      75.3        0.136E+00  0.101E+02
 4.793      25.1        0.684E+00  0.104E+02
 4.793      32.7        0.985E+00  0.106E+02
 4.793      40.2        0.832E+00  0.106E+02
 4.793      44.2        0.659E+00  0.103E+02
 4.793      50.2        0.515E+00  0.103E+02
 4.793      52.3        0.410E+00  0.102E+02
 4.793      57.3        0.174E+00  0.101E+02
 4.793      65.3        0.249E+00  0.102E+02
 4.793      70.3        0.123E+00  0.101E+02
 4.793      75.3        0.168E+00  0.101E+02
 4.809      25.1        0.266E+00  0.103E+02
 4.809      32.7        0.322E+00  0.104E+02
 4.809      40.2        0.302E+00  0.104E+02
 4.809      44.2        0.262E+00  0.103E+02
 4.809      52.3        0.196E+00  0.102E+02
 4.809      57.3        0.113E+00  0.101E+02
 4.828      25.1        0.756E+00  0.104E+02
 4.828      32.7        0.891E+00  0.106E+02
 4.828      40.2        0.654E+00  0.105E+02
 4.828      44.2        0.611E+00  0.103E+02
 4.828      50.2        0.639E+00  0.103E+02
 4.828      52.3        0.578E+00  0.103E+02
 4.828      57.3        0.277E+00  0.102E+02
 4.828      65.3        0.399E+00  0.102E+02
 4.828      70.3        0.273E+00  0.102E+02
 4.828      75.3        0.342E+00  0.102E+02
 4.860      25.1        0.218E+00  0.103E+02
 4.860      32.7        0.127E+00  0.103E+02
 4.860      40.2        0.122E+00  0.103E+02
 4.860      44.2        0.159E+00  0.102E+02
 4.860      50.2        0.118E+00  0.102E+02
 4.860      52.3        0.122E+00  0.102E+02
 4.860      70.3        0.504E+00  0.201E+02
 4.860      75.3        0.647E+00  0.201E+02
 4.889      32.7        0.708E+00  0.105E+02
 4.889      40.2        0.195E+00  0.103E+02
 4.889      44.2        0.121E+00  0.102E+02
 4.889      50.2        0.334E+00  0.102E+02
 4.889      52.3        0.319E+00  0.102E+02
 4.889      57.3        0.156E+00  0.102E+02
 4.889      65.3        0.188E+00  0.102E+02
 4.889      70.3        0.117E+00  0.101E+02
 4.889      75.3        0.950E+00  0.201E+02
 4.916      32.7        0.510E+00  0.105E+02
 4.916      40.2        0.149E+00  0.103E+02
 4.916      44.2        0.216E+00  0.103E+02
 4.916      50.2        0.381E+00  0.102E+02
 4.916      52.3        0.233E+00  0.102E+02
 4.916      57.3        0.116E+00  0.101E+02
 4.916      70.3        0.844E+00  0.201E+02
 4.916      75.3        0.834E+00  0.201E+02
 4.939      32.7        0.685E+00  0.106E+02
 4.939      40.2        0.507E+00  0.105E+02
 4.939      44.2        0.535E+00  0.103E+02
 4.939      50.2        0.520E+00  0.103E+02
 4.939      52.3        0.445E+00  0.103E+02
 4.939      57.3        0.165E+00  0.102E+02
 4.939      65.3        0.213E+00  0.102E+02
 4.939      70.3        0.159E+00  0.102E+02
 4.939      75.3        0.198E+00  0.102E+02
 4.960      32.7        0.494E+00  0.105E+02
 4.960      40.2        0.281E+00  0.104E+02
 4.960      44.2        0.366E+00  0.103E+02
 4.960      50.2        0.377E+00  0.102E+02
 4.960      52.3        0.400E+00  0.102E+02
 4.960      57.3        0.179E+00  0.102E+02
 4.960      70.3        0.184E+00  0.102E+02
 4.960      75.3        0.187E+00  0.101E+02
 4.986      25.1        0.139E+00  0.561E+00
 4.986      32.7        0.620E+00  0.105E+02
 4.986      40.2        0.232E+00  0.104E+02
 4.986      44.2        0.320E+00  0.103E+02
 4.986      50.2        0.278E+00  0.102E+02
 4.986      52.3        0.225E+00  0.102E+02
 4.986      57.3        0.148E+00  0.102E+02
 5.007      25.1        0.115E+00  0.528E+00
 5.007      32.7        0.134E+00  0.695E+00
 5.007      40.2        0.498E+00  0.105E+02
 5.007      44.2        0.433E+00  0.103E+02
 5.007      50.2        0.521E+00  0.103E+02
 5.007      52.3        0.590E+00  0.103E+02
 5.007      57.3        0.375E+00  0.102E+02
 5.007      65.3        0.474E+00  0.103E+02
 5.007      70.3        0.285E+00  0.102E+02
 5.007      75.3        0.163E+00  0.102E+02
 5.025      25.1        0.493E+00  0.104E+02
 5.025      32.7        0.620E+00  0.106E+02
 5.025      40.2        0.171E+00  0.103E+02
 5.025      44.2        0.184E+00  0.103E+02
 5.025      50.2        0.307E+00  0.102E+02
 5.025      52.3        0.300E+00  0.102E+02
 5.025      57.3        0.178E+00  0.102E+02
 5.025      65.3        0.226E+00  0.102E+02
 5.025      70.3        0.204E+00  0.102E+02
 5.045      25.1        0.317E+00  0.103E+02
 5.045      32.7        0.296E+00  0.105E+02
 5.045      40.2        0.774E+00  0.202E+02
 5.045      44.2        0.945E+00  0.202E+02
 5.045      50.2        0.104E+00  0.102E+02
 5.045      52.3        0.998E+00  0.202E+02
 5.069      25.1        0.415E+00  0.104E+02
 5.069      32.7        0.193E+00  0.104E+02
 5.069      40.2        0.160E+00  0.103E+02
 5.069      44.2        0.878E+00  0.202E+02
 5.069      52.3        0.131E+00  0.102E+02
 5.069      57.3        0.112E+00  0.101E+02
 5.069      65.3        0.107E+00  0.102E+02
 5.069      70.3        0.683E+00  0.201E+02
 5.069      75.3        0.913E+00  0.201E+02
 5.092      25.1        0.458E+00  0.104E+02
 5.092      32.7        0.372E+00  0.105E+02
 5.092      40.2        0.157E+00  0.103E+02
 5.092      44.2        0.174E+00  0.103E+02
 5.092      50.2        0.147E+00  0.102E+02
 5.092      52.3        0.150E+00  0.102E+02
 5.092      57.3        0.910E+00  0.201E+02
 5.111      25.1        0.551E+00  0.104E+02
 5.111      32.7        0.691E+00  0.106E+02
 5.111      40.2        0.195E+00  0.104E+02
 5.111      44.2        0.149E+00  0.102E+02
 5.111      50.2        0.150E+00  0.102E+02
 5.111      52.3        0.136E+00  0.102E+02
 5.111      65.3        0.137E+00  0.102E+02
 5.111      75.3        0.710E+00  0.201E+02
 5.126      25.1        0.443E+00  0.104E+02
 5.126      32.7        0.428E+00  0.105E+02
 5.126      40.2        0.252E+00  0.104E+02
 5.126      44.2        0.217E+00  0.103E+02
 5.126      50.2        0.146E+00  0.102E+02
 5.126      52.3        0.187E+00  0.102E+02
 5.126      57.3        0.719E+00  0.201E+02
 5.126      65.3        0.926E+00  0.202E+02
 5.126      70.3        0.984E+00  0.201E+02
 5.126      75.3        0.108E+00  0.1020002
 5.138      25.1        0.443E+00  0.104E+02
 5.138      32.7        0.339E+00  0.105E+02
 5.138      40.2        0.187E+00  0.104E+02
 5.138      50.2        0.742E+00  0.202E+02
 5.138      52.3        0.374E+00  0.202E+02
 5.169      25.1        0.761E+00  0.105E+02
 5.169      32.7        0.798E+00  0.106E+02
 5.169      40.2        0.275E+00  0.104E+02
 5.169      44.2        0.301E+00  0.103E+02
 5.169      50.2        0.186E+00  0.102E+02
 5.169      52.3        0.223E+00  0.102E+02
 5.169      57.3        0.986E+00  0.201E+02
 5.169      65.3        0.838E+00  0.202E+02
 5.169      70.3        0.534E+00  0.201E+02
 5.169      75.3        0.594E+00  0.201E+02
 5.190      25.1        0.544E+00  0.104E+02
 5.190      32.7        0.492E+00  0.106E+02
 5.190      40.2        0.107E+00  0.103E+02
 5.190      44.2        0.119E+00  0.102E+02
 5.190      50.2        0.828E+00  0.202E+02
 5.190      52.3        0.915E+00  0.202E+02
 5.190      57.3        0.374E+00  0.201E+02
 5.190      65.3        0.782E+00  0.201E+02
 5.190      70.3        0.443E+00  0.201E+02
 5.190      75.3        0.366E+00  0.201E+02
 5.209      25.1        0.191E+00  0.103E+02
 5.209      40.2        0.696E+00  0.203E+02
 5.209      44.2        0.128E+00  0.102E+02
 5.209      50.2        0.705E+00  0.202E+02
 5.209      52.3        0.107E+00  0.102E+02
 5.209      57.3        0.258E+00  0.201E+02
 5.209      75.3        0.347E+00  0.201E+02
 5.245      25.1        0.158E+00  0.639E+00
 5.245      40.2        0.530E+00  0.106E+02
 5.245      44.2        0.573E+00  0.103E+02
 5.245      50.2        0.598E+00  0.103E+02
 5.245      52.3        0.637E+00  0.103E+02
 5.245      57.3        0.385E+00  0.102E+02
 5.245      65.3        0.477E+00  0.103E+02
 5.245      70.3        0.246E+00  0.102E+02
 5.245      75.3        0.193E+00  0.102E+02
 5.279      25.1        0.712E+00  0.105E+02
 5.279      40.2        0.151E+00  0.104E+02
 5.279      44.2        0.289E+00  0.103E+02
 5.279      50.2        0.225E+00  0.102E+02
 5.279      52.3        0.354E+00  0.102E+02
 5.279      57.3        0.113E+00  0.102E+02
 5.279      70.3        0.101E+00  0.102E+02
 5.279      75.3        0.108E+00  0.102E+02
 5.296      25.1        0.387E+00  0.104E+02
 5.296      40.2        0.410E+00  0.104E+02
 5.296      44.2        0.177E+00  0.103E+02
 5.296      50.2        0.230E+00  0.102E+02
 5.296      52.3        0.293E+00  0.102E+02
 5.296      57.3        0.108E+00  0.101E+02
 5.296      65.3        0.126E+00  0.102E+02
 5.309      25.1        0.399E+00  0.104E+02
 5.309      40.2        0.145E+00  0.104E+02
 5.309      44.2        0.182E+00  0.103E+02
 5.309      50.2        0.170E+00  0.102E+02
 5.309      52.3        0.173E+00  0.102E+02
 5.309      57.3        0.137E+00  0.102E+02
 5.309      65.3        0.115E+00  0.102E+02
 5.309      70.3        0.948E+00  0.202E+02
 5.309      75.3        0.126E+00  0.102E+02
 5.332      25.1        0.483E+00  0.104E+02
 5.332      40.2        0.120E+00  0.103E+02
 5.332      44.2        0.136E+00  0.102E+02
 5.332      50.2        0.160E+00  0.102E+02
 5.332      52.3        0.165E+00  0.102E+02
 5.332      57.3        0.102E+00  0.102E+02
 5.332      65.3        0.940E+00  0.202E+02
 5.332      70.3        0.101E+00  0.102E+02
 5.332      75.3        0.747E+00  0.202E+02
 5.365      25.1        0.400E+00  0.104E+02
 5.365      32.7        0.364E+00  0.105E+02
 5.365      40.2        0.125E+00  0.103E+02
 5.365      44.2        0.225E+00  0.103E+02
 5.365      50.2        0.195E+00  0.102E+02
 5.365      57.3        0.127E+00  0.102E+02
 5.365      65.3        0.145E+00  0.102E+02
 5.365      70.3        0.123E+00  0.102E+02
 5.365      75.3        0.835E+00  0.202E+02
 5.403      32.7        0.414E+00  0.106E+02
 5.403      40.2        0.197E+00  0.104E+02
 5.403      44.2        0.818E+00  0.202E+02
 5.403      52.3        0.522E+00  0.202E+02
 5.403      75.3        0.258E+00  0.210E+02
 5.422      25.1        0.578E+00  0.104E+02
 5.422      32.7        0.101E+00  0.731E+00
 5.422      40.2        0.315E+00  0.105E+02
 5.422      44.2        0.241E+00  0.103E+02
 5.422      50.2        0.250E+00  0.102E+02
 5.422      52.3        0.159E+00  0.102E+02
 5.422      57.3        0.138E+00  0.102E+02
 5.422      65.3        0.168E+00  0.102E+02
 5.422      70.3        0.137E+00  0.102E+02
 5.422      75.3        0.122E+00  0.102E+02
 5.435      25.1        0.578E+00  0.105E+02
 5.435      40.2        0.282E+00  0.104E+02
 5.435      44.2        0.218E+00  0.103E+02
 5.435      52.3        0.306E+00  0.102E+02
 5.435      65.3        0.172E+00  0.102E+02
 5.452      25.1        0.541E+00  0.104E+02
 5.452      32.7        0.658E+00  0.107E+02
 5.452      40.2        0.193E+00  0.104E+02
 5.452      44.2        0.213E+00  0.103E+02
 5.452      50.2        0.223E+00  0.102E+02
 5.452      52.3        0.183E+00  0.102E+02
 5.452      57.3        0.155E+00  0.102E+02
 5.452      65.3        0.158E+00  0.102E+02
 5.463      25.1        0.452E+00  0.105E+02
 5.463      44.2        0.182E+00  0.103E+02
 5.463      50.2        0.281E+00  0.102E+02
 5.463      52.3        0.211E+00  0.102E+02
 5.463      57.3        0.160E+00  0.102E+02
 5.463      65.3        0.106E+00  0.102E+02
 5.463      70.3        0.898E+00  0.202E+02
 5.463      75.3        0.590E+00  0.202E+02
 5.485      25.1        0.614E+00  0.105E+02
 5.485      32.7        0.734E+00  0.107E+02
 5.485      44.2        0.248E+00  0.103E+02
 5.485      50.2        0.230E+00  0.102E+02
 5.485      52.3        0.256E+00  0.102E+02
 5.485      57.3        0.136E+00  0.102E+02
 5.485      65.3        0.134E+00  0.102E+02
 5.485      70.3        0.120E+00  0.102E+02
 5.485      75.3        0.129E+00  0.102E+02
 5.507      25.1        0.310E+00  0.104E+02
 5.507      32.7        0.543E+00  0.106E+02
 5.507      40.2        0.106E+00  0.103E+02
 5.507      44.2        0.190E+00  0.102E+02
 5.507      50.2        0.197E+00  0.102E+02
 5.507      52.3        0.223E+00  0.102E+02
 5.507      57.3        0.114E+00  0.102E+02
 5.507      65.3        0.120E+00  0.102E+02
 5.507      70.3        0.424E+00  0.201E+02
 5.507      75.3        0.715E+00  0.202E+02
 5.533      25.1        0.408E+00  0.104E+02
 5.533      32.7        0.754E+00  0.107E+02
 5.533      40.2        0.316E+00  0.105E+02
 5.533      50.2        0.245E+00  0.102E+02
 5.533      52.3        0.231E+00  0.102E+02
 5.533      65.3        0.215E+00  0.102E+02
 5.533      70.3        0.117E+00  0.102E+02
 5.533      75.3        0.127E+00  0.102E+02
 5.561      25.1        0.599E+00  0.105E+02
 5.561      32.7        0.120E+00  0.789E+00
 5.561      40.2        0.630E+00  0.106E+02
 5.561      44.2        0.336E+00  0.103E+02
 5.561      50.2        0.329E+00  0.103E+02
 5.561      52.3        0.361E+00  0.103E+02
 5.561      65.3        0.312E+00  0.102E+02
 5.561      70.3        0.185E+00  0.102E+02
 5.561      75.3        0.189E+00  0.102E+02
 5.588      25.1        0.759E+00  0.105E+02
 5.588      32.7        0.685E+00  0.107E+02
 5.588      40.2        0.826E+00  0.107E+02
 5.588      44.2        0.648E+00  0.103E+02
 5.588      50.2        0.422E+00  0.103E+02
 5.588      52.3        0.332E+00  0.103E+02
 5.588      57.3        0.204E+00  0.102E+02
 5.588      65.3        0.338E+00  0.103E+02
 5.588      70.3        0.326E+00  0.102E+02
 5.588      75.3        0.373E+00  0.102E+02
 5.619      25.1        0.428E+00  0.104E+02
 5.619      32.7        0.653E+00  0.107E+02
 5.619      44.2        0.251E+00  0.102E+02
 5.619      50.2        0.155E+00  0.102E+02
 5.619      52.3        0.247E+00  0.102E+02
 5.619      70.3        0.135E+00  0.102E+02
 5.619      75.3        0.130E+00  0.102E+02
 5.640      25.1        0.477E+00  0.105E+02
 5.640      32.7        0.324E+00  0.106E+02
 5.640      44.2        0.135E+00  0.102E+02
 5.640      50.2        0.211E+00  0.102E+02
 5.640      52.3        0.174E+00  0.102E+02
 5.640      65.3        0.132E+00  0.102E+02
 5.640      70.3        0.586E+00  0.201E+02
 5.653      25.1        0.248E+00  0.104E+02
 5.653      44.2        0.167E+00  0.103E+02
 5.653      50.2        0.172E+00  0.102E+02
 5.653      57.3        0.513E+00  0.201E+02
 5.676      25.1        0.456E+00  0.104E+02
 5.676      32.7        0.392E+00  0.106E+02
 5.676      44.2        0.191E+00  0.103E+02
 5.676      50.2        0.261E+00  0.103E+02
 5.676      52.3        0.248E+00  0.102E+02
 5.676      57.3        0.199E+00  0.102E+02
 5.676      65.3        0.217E+00  0.102E+02
 5.676      70.3        0.134E+00  0.102E+02
 5.676      75.3        0.869E+00  0.202E+02
 5.703      25.1        0.255E+00  0.104E+02
 5.703      32.7        0.520E+00  0.106E+02
 5.703      44.2        0.280E+00  0.103E+02
 5.703      50.2        0.188E+00  0.102E+02
 5.703      52.3        0.635E+00  0.202E+02
 5.703      57.3        0.104E+00  0.102E+02
 5.715      25.1        0.398E+00  0.104E+02
 5.715      32.7        0.539E+00  0.106E+02
 5.715      44.2        0.144E+00  0.102E+02
 5.715      52.3        0.197E+00  0.102E+02
 5.715      57.3        0.114E+00  0.102E+02
 5.715      65.3        0.232E+00  0.102E+02
 5.715      70.3        0.234E+00  0.102E+02
 5.715      75.3        0.154E+00  0.102E+02
 5.722      25.1        0.300E+00  0.104E+02
 5.722      32.7        0.236E+00  0.105E+02
 5.722      50.2        0.122E+00  0.102E+02
 5.722      52.3        0.883E+00  0.202E+02
 5.747      25.1        0.271E+00  0.104E+02
 5.747      32.7        0.343E+00  0.106E+02
 5.747      44.2        0.181E+00  0.102E+02
 5.747      52.3        0.511E+00  0.202E+02
 5.763      32.7        0.346E+00  0.106E+02
 5.763      44.2        0.231E+00  0.103E+02
 5.763      50.2        0.109E+00  0.102E+02
 5.763      57.3        0.823E+00  0.201E+02
 5.763      65.3        0.209E+00  0.102E+02
 5.763      70.3        0.117E+00  0.102E+02
 5.763      75.3        0.141E+00  0.102E+02
 5.779      25.1        0.381E+00  0.104E+02
 5.779      32.7        0.407E+00  0.106E+02
 5.779      40.2        0.352E+00  0.105E+02
 5.779      44.2        0.273E+00  0.103E+02
 5.779      50.2        0.153E+00  0.102E+02
 5.779      52.3        0.163E+00  0.102E+02
 5.779      57.3        0.883E+00  0.201E+02
 5.779      70.3        0.461E+00  0.201E+02
 5.796      25.1        0.308E+00  0.104E+02
 5.796      32.7        0.322E+00  0.106E+02
 5.796      40.2        0.324E+00  0.105E+02
 5.796      44.2        0.142E+00  0.102E+02
 5.796      50.2        0.109E+00  0.102E+02
 5.796      57.3        0.109E+00  0.102E+02
 5.796      65.3        0.133E+00  0.102E+02
 5.796      70.3        0.116E+00  0.102E+02
 5.796      75.3        0.102E+00  0.102E+02
 5.823      25.1        0.640E+00  0.105E+02
 5.823      32.7        0.552E+00  0.106E+02
 5.823      40.2        0.331E+00  0.105E+02
 5.823      50.2        0.177E+00  0.102E+02
 5.823      57.3        0.130E+00  0.102E+02
 5.823      70.3        0.937E+00  0.202E+02
 5.843      25.1        0.363E+00  0.104E+02
 5.843      32.7        0.347E+00  0.106E+02
 5.843      40.2        0.250E+00  0.104E+02
 5.843      50.2        0.165E+00  0.102E+02
 5.843      57.3        0.125E+00  0.102E+02
 5.843      70.3        0.107E+00  0.102E+02
 5.860      25.1        0.677E+00  0.105E+02
 5.860      32.7        0.458E+00  0.106E+02
 5.860      50.2        0.187E+00  0.102E+02
 5.860      57.3        0.104E+00  0.102E+02
 5.860      70.3        0.943E+00  0.202E+02
 5.860      75.3        0.153E+00  0.102E+02
 5.885      25.1        0.605E+00  0.105E+02
 5.885      32.7        0.336E+00  0.106E+02
 5.885      40.2        0.289E+00  0.105E+02
 5.885      50.2        0.208E+00  0.102E+02
 5.885      57.3        0.153E+00  0.102E+02
 5.885      70.3        0.116E+00  0.102E+02
 5.885      75.3        0.181E+00  0.102E+02
 5.911      25.1        0.110E+00  0.594E+00
 5.911      32.7        0.126E+00  0.789E+00
 5.911      40.2        0.953E+00  0.107E+02
 5.911      50.2        0.199E+00  0.102E+02
 5.911      52.3        0.239E+00  0.102E+02
 5.911      57.3        0.302E+00  0.102E+02
 5.911      65.3        0.416E+00  0.103E+02
 5.911      70.3        0.241E+00  0.102E+02
 5.949      32.7        0.380E+00  0.106E+02
 5.949      40.2        0.309E+00  0.105E+02
 5.949      52.3        0.125E+00  0.102E+02
 5.949      57.3        0.764E+00  0.201E+02
 5.949      65.3        0.144E+00  0.102E+02
 5.949      75.3        0.149E+00  0.102E+02
 5.959      32.7        0.174E+00  0.105E+02
 5.959      40.2        0.230E+00  0.104E+02
 5.959      50.2        0.165E+00  0.102E+02
 5.959      52.3        0.146E+00  0.102E+02
 5.959      57.3        0.109E+00  0.102E+02
 5.974      32.7        0.145E+00  0.105E+02
 5.974      40.2        0.142E+00  0.104E+02
 5.974      50.2        0.804E+00  0.202E+02
 5.974      52.3        0.809E+00  0.202E+02
 5.990      32.7        0.160E+00  0.105E+02
 5.990      40.2        0.127E+00  0.104E+02
 5.990      57.3        0.152E+00  0.209E+02
 5.990      70.3        0.434E+00  0.201E+02
 5.990      75.3        0.706E+00  0.201E+02
 6.065      32.7        0.526E+00  0.106E+02
 6.065      40.2        0.140E+00  0.104E+02
 6.065      44.2        0.206E+00  0.102E+02
 6.065      50.2        0.114E+00  0.102E+02
 6.065      52.3        0.748E+00  0.202E+02
 6.065      57.3        0.555E+00  0.201E+02
 6.065      65.3        0.115E+00  0.102E+02
 6.083      44.2        0.162E+00  0.102E+02
 6.083      50.2        0.116E+00  0.102E+02
 6.083      52.3        0.641E+00  0.202E+02
 6.083      57.3        0.255E+00  0.201E+02
 6.083      75.3        0.490E+00  0.201E+02
 6.117      32.7        0.437E+00  0.106E+02
 6.117      40.2        0.143E+00  0.104E+02
 6.117      44.2        0.164E+00  0.102E+02
 6.117      50.2        0.113E+00  0.102E+02
 6.117      52.3        0.201E+00  0.102E+02
 6.117      57.3        0.113E+00  0.101E+02
 6.117      65.3        0.184E+00  0.102E+02
 6.117      70.3        0.984E+00  0.202E+02
 6.117      75.3        0.125E+00  0.102E+02
 6.146      32.7        0.239E+00  0.105E+02
 6.146      40.2        0.169E+00  0.104E+02
 6.146      44.2        0.200E+00  0.102E+02
 6.146      50.2        0.166E+00  0.102E+02
 6.146      52.3        0.723E+00  0.202E+02
 6.146      57.3        0.130E+00  0.102E+02
 6.146      65.3        0.209E+00  0.102E+02
 6.146      70.3        0.157E+00  0.102E+02
 6.146      75.3        0.181E+00  0.102E+02
 6.167      32.7        0.259E+00  0.106E+02
 6.167      40.2        0.231E+00  0.104E+02
 6.167      44.2        0.215E+00  0.102E+02
 6.167      50.2        0.154E+00  0.102E+02
 6.167      52.3        0.665E+00  0.202E+02
 6.167      57.3        0.822E+00  0.201E+02
 6.167      65.3        0.160E+00  0.102E+02
 6.167      70.3        0.120E+00  0.102E+02
 6.167      75.3        0.137E+00  0.102E+02
 6.181      40.2        0.124E+00  0.104E+02
 6.181      44.2        0.159E+00  0.102E+02
 6.181      50.2        0.199E+00  0.102E+02
 6.181      52.3        0.514E+00  0.202E+02
 6.181      57.3        0.680E+00  0.201E+02
 6.198      32.7        0.140E+00  0.105E+02
 6.198      40.2        0.217E+00  0.104E+02
 6.198      44.2        0.173E+00  0.102E+02
 6.198      52.3        0.163E+00  0.102E+02
 6.198      57.3        0.578E+00  0.201E+02
 6.198      65.3        0.766E+00  0.202E+02
 6.198      70.3        0.508E+00  0.201E+02
 6.198      75.3        0.876E+00  0.202E+02
 6.229      32.7        0.206E+00  0.105E+02
 6.229      40.2        0.771E+00  0.203E+02
 6.229      44.2        0.135E+00  0.102E+02
 6.229      50.2        0.641E+00  0.201E+02
 6.229      52.3        0.969E+00  0.202E+02
 6.229      57.3        0.319E+00  0.201E+02
 6.229      65.3        0.455E+00  0.201E+02
 6.229      70.3        0.688E+00  0.201E+02
 6.229      75.3        0.112E+00  0.102E+02
 6.264      32.7        0.187E+00  0.105E+02
 6.264      44.2        0.249E+00  0.102E+02
 6.264      50.2        0.104E+00  0.102E+02
 6.264      52.3        0.840E+00  0.202E+02
 6.264      65.3        0.965E+00  0.202E+02
 6.264      70.3        0.687E+00  0.202E+02
 6.264      75.3        0.422E+00  0.201E+02
 6.284      32.7        0.538E+00  0.106E+02
 6.284      40.2        0.162E+00  0.104E+02
 6.284      44.2        0.221E+00  0.102E+02
 6.284      52.3        0.614E+00  0.202E+02
 6.284      57.3        0.520E+00  0.201E+02
 6.284      65.3        0.148E+00  0.102E+02
 6.284      70.3        0.684E+00  0.202E+02
 6.284      75.3        0.823E+00  0.202E+02
 6.302      32.7        0.468E+00  0.106E+02
 6.302      40.2        0.165E+00  0.104E+02
 6.302      44.2        0.220E+00  0.102E+02
 6.302      52.3        0.196E+00  0.102E+02
 6.302      57.3        0.522E+00  0.201E+02
 6.302      65.3        0.145E+00  0.102E+02
 6.302      70.3        0.862E+00  0.202E+02
 6.302      75.3        0.150E+00  0.102E+02
 6.332      32.7        0.277E+00  0.106E+02
 6.332      44.2        0.178E+00  0.102E+02
 6.332      50.2        0.774E+00  0.202E+02
 6.332      57.3        0.198E+00  0.201E+02
 6.332      65.3        0.796E+00  0.202E+02
 6.332      70.3        0.409E+00  0.201E+02
 6.332      75.3        0.513E+00  0.201E+02
 6.346      32.7        0.200E+00  0.105E+02
 6.346      44.2        0.218E+00  0.102E+02
 6.346      50.2        0.871E+00  0.202E+02
 6.346      57.3        0.627E+00  0.201E+02
 6.346      70.3        0.282E+00  0.201E+02
 6.382      32.7        0.723E+00  0.107E+02
 6.382      40.2        0.160E+00  0.104E+02
 6.382      44.2        0.167E+00  0.102E+02
 6.382      57.3        0.135E+00  0.102E+02
 6.382      65.3        0.271E+00  0.102E+02
 6.382      70.3        0.126E+00  0.102E+02
 6.382      75.3        0.146E+00  0.102E+02
 6.408      32.7        0.342E+00  0.106E+02
 6.408      40.2        0.752E+00  0.204E+02
 6.408      44.2        0.136E+00  0.102E+02
 6.408      57.3        0.817E+00  0.201E+02
 6.408      65.3        0.118E+00  0.102E+02
 6.408      70.3        0.629E+00  0.202E+02
 6.433      32.7        0.442E+00  0.106E+02
 6.433      44.2        0.184E+00  0.102E+02
 6.433      57.3        0.440E+00  0.201E+02
 6.433      65.3        0.146E+00  0.102E+02
 6.433      70.3        0.779E+00  0.202E+02
 6.433      75.3        0.683E+00  0.202E+02
 6.444      32.7        0.435E+00  0.106E+02
 6.444      40.2        0.226E+00  0.105E+02
 6.444      44.2        0.178E+00  0.102E+02
 6.444      57.3        0.490E+00  0.201E+02
 6.444      75.3        0.775E+00  0.202E+02
 6.459      32.7        0.173E+00  0.105E+02
 6.459      44.2        0.184E+00  0.102E+02
 6.459      57.3        0.517E+00  0.201E+02
 6.459      65.3        0.134E+00  0.102E+02
 6.459      75.3        0.658E+00  0.202E+02
 6.480      32.7        0.357E+00  0.106E+02
 6.480      44.2        0.219E+00  0.102E+02
 6.480      65.3        0.125E+00  0.102E+02
 6.480      70.3        0.474E+00  0.201E+02
 6.480      75.3        0.581E+00  0.202E+02
 6.524      32.7        0.277E+00  0.105E+02
 6.524      40.2        0.121E+00  0.104E+02
 6.524      44.2        0.243E+00  0.102E+02
 6.524      70.3        0.714E+00  0.202E+02
 6.524      75.3        0.718E+00  0.201E+02
 6.545      32.7        0.450E+00  0.106E+02
 6.545      40.2        0.183E+00  0.105E+02
 6.545      44.2        0.231E+00  0.102E+02
 6.545      57.3        0.339E+00  0.201E+02
 6.545      70.3        0.981E+00  0.202E+02
 6.545      75.3        0.888E+00  0.202E+02
 6.574      32.7        0.448E+00  0.106E+02
 6.574      40.2        0.238E+00  0.105E+02
 6.574      44.2        0.116E+00  0.102E+02
 6.574      57.3        0.386E+00  0.201E+02
 6.574      70.3        0.728E+00  0.202E+02
 6.574      75.3        0.689E+00  0.202E+02
 6.593      32.7        0.368E+00  0.106E+02
 6.593      40.2        0.203E+00  0.105E+02
 6.593      44.2        0.106E+00  0.102E+02
 6.593      57.3        0.548E+00  0.201E+02
 6.593      70.3        0.853E+00  0.202E+02
 6.617      32.7        0.375E+00  0.106E+02
 6.617      40.2        0.193E+00  0.105E+02
 6.617      44.2        0.111E+00  0.102E+02
 6.617      57.3        0.686E+00  0.201E+02
 6.617      75.3        0.482E+00  0.201E+02
 6.634      32.7        0.287E-01  0.562E-02
 6.634      40.2        0.212E-01  0.475E-02
 6.634      44.2        0.142E-01  0.180E-02
 6.634      75.3        0.578E-02  0.150E-02
 6.634      80.3        0.767E-02  0.103E-02
ENDDATA           1390
ENDSUBENT         1396
ENDENTRY             3
