ENTRY            F0413   19990410   19990429
SUBENT        F0413001   19990410   19990429
BIB                 10         16
TITLE      An investigation of the 9Be(3He,p)11B reaction at low
           energies
AUTHOR     (W.R.COKER,M.M.DUNCAN,J.L.DUGGAN,P.D.MILLER)
INSTITUTE  (1USAGEO,1USAORL)
REFERENCE  (J,NP/A,91,97,196701)
MONITOR    (6-C-12(HE3,P)7-N-14,,DA,,,EXP)
MONIT-REF  (,HODGSON,J,PPS,77,997,1961)
SAMPLE     The 9Be targets were prepared by the Isotopes Division
           at ORNL. 9Be metal of thickness about 20 mu-g/cm**2
           was evaporated on 15 mu-g/cm**2 12C foils.
FACILITY   (VDG,1USAGEO) 2 MeV
           (VDG,1USAORL) 5.5 MeV
DETECTOR   (SOLST) One solid state detector was rotated to measure
           the angular distributions, while the other detector
           was a fixed monitor.
HISTORY    (19870410C)
ENDBIB              16
NOCOMMON
ENDSUBENT           19
SUBENT        F0413002   19990410   19990429
BIB                  4          6
REACTION   (4-BE-9(HE3,P)5-B-11,PAR,DA,,,EXP)
ERR-ANALYS (ANG-ERR) Digitizing error
           (DATA-ERR) Digitizing error
           (DATA-ERR1) Error from graphic bars
EN-SEC     (E-LVL,5-B-11)
STATUS     (CURVE) Fig 2-7
ENDBIB               6
COMMON               2          3
ANG-ERR    DATA-ERR
ADEG       MB/SR
    0.2     0.002
ENDCOMMON            3
DATA                 5        394
EN         E-LVL      ANG-CM     DATA-CM    DATA-ERR1
MEV        MEV        ADEG       MB/SR      MB/SR
     1.         4.44      25.13       0.0535 0.2123E-02
     1.         4.44      36.82       0.052  0.2123E-02
     1.         4.44      42.11       0.0501 0.2264E-02
     1.         4.44      47.54       0.0475 0.1840E-02
     1.         4.44      52.83       0.047  0.2123E-02
     1.         4.44      63.15       0.0388 0.2194E-02
     1.         4.44      63.15       0.0388 0.2335E-02
     1.         4.44      73.75       0.0318 0.2194E-02
     1.         4.44      83.62       0.0333 0.1769E-02
     1.         4.44      93.76       0.0371 0.2264E-02
     1.         4.44     103.9        0.0407 0.2264E-02
     1.         4.44     108.9        0.0422 0.1627E-02
     1.         4.44     113.9        0.0444 0.1840E-02
     1.         4.44     118.7        0.0519 0.2406E-02
     1.         4.44     124.2        0.0512 0.2689E-02
     1.         4.44     132.9        0.0606 0.1628E-02
     1.         4.44     138.         0.0577 0.2194E-02
     1.         4.44     143.2        0.0584 0.1840E-02
     1.         4.44     152.4        0.0561 0.3184E-02
     1.         4.44     158.6        0.0589 0.2194E-02
     1.         4.44     161.8        0.0585 0.1910E-02
     1.         5.03      22.         0.0314 0.2337E-02
     1.         5.03      27.31       0.0284 0.2337E-02
     1.         5.03      32.9        0.0348 0.2407E-02
     1.         5.03      38.06       0.0419 0.3045E-02
     1.         5.03      43.16       0.0438 0.2478E-02
     1.         5.03      48.27       0.0445 0.2619E-02
     1.         5.03      53.78       0.0468 0.2053E-02
     1.         5.03      63.82       0.0704 0.3398E-02
     1.         5.03      74.59       0.0732 0.3823E-02
     1.         5.03      85.34       0.0871 0.4885E-02
     1.         5.03      95.46       0.0857 0.5026E-02
     1.         5.03     105.6        0.0861 0.5311E-02
     1.         5.03     115.7        0.0815 0.5381E-02
     1.         5.03     120.3        0.0792 0.5805E-02
     1.         5.03     125.         0.0717 0.3753E-02
     1.         5.03     129.9        0.0653 0.3894E-02
     1.         5.03     134.9        0.0732 0.4956E-02
     1.         5.03     140.         0.0576 0.3823E-02
     1.         5.03     144.6        0.0582 0.4177E-02
     1.         5.03     154.         0.0554 0.3399E-02
     1.         5.03     160.5        0.0551 0.4248E-02
     1.         7.3       22.52       0.0525 0.2694E-02
     1.         7.3       28.59       0.0545 0.2986E-02
     1.         7.3       33.38       0.0555 0.2112E-02
     1.         7.3       39.22       0.0548 0.2185E-02
     1.         7.3       44.6        0.0556 0.2112E-02
     1.         7.3       50.22       0.0579 0.2548E-02
     1.         7.3       54.99       0.0597 0.2549E-02
     1.         7.3       64.92       0.0647 0.2404E-02
     1.         7.3       76.01       0.0639 0.3058E-02
     1.         7.3       85.73       0.0722 0.2623E-02
     1.         7.3       95.57       0.0749 0.3278E-02
     1.         7.3      106.2        0.0798 0.2913E-02
     1.         7.3      111.2        0.084  0.3787E-02
     1.         7.3      116.2        0.0854 0.3860E-02
     1.         7.3      121.         0.0881 0.3499E-02
     1.         7.3      126.6        0.0888 0.3714E-02
     1.         7.3      130.9        0.098  0.3714E-02
     1.         7.3      135.8        0.0918 0.2622E-02
     1.         7.3      140.7        0.1014 0.4298E-02
     1.         7.3      145.7        0.0985 0.3495E-02
     1.         7.3      155.2        0.104  0.2767E-02
     1.         7.3      160.8        0.1062 0.3497E-02
     1.         7.99      22.35       0.0354 0.2195E-02
     1.         7.99      28.22       0.0381 0.2051E-02
     1.         7.99      33.08       0.0416 0.2267E-02
     1.         7.99      38.09       0.044  0.2303E-02
     1.         7.99      44.21       0.0515 0.2591E-02
     1.         7.99      49.38       0.0523 0.2555E-02
     1.         7.99      55.13       0.053  0.2159E-02
     1.         7.99      65.61       0.0545 0.2051E-02
     1.         7.99      76.21       0.059  0.2699E-02
     1.         7.99      85.85       0.0574 0.2051E-02
     1.         7.99      95.65       0.0552 0.3202E-02
     1.         7.99     105.8        0.0559 0.2375E-02
     1.         7.99     110.9        0.0515 0.2448E-02
     1.         7.99     115.5        0.0474 0.2519E-02
     1.         7.99     120.3        0.0471 0.2879E-02
     1.         7.99     125.5        0.0477 0.2771E-02
     1.         7.99     130.2        0.0453 0.2159E-02
     1.         7.99     134.9        0.0412 0.2698E-02
     1.         7.99     139.6        0.0377 0.3022E-02
     1.         7.99     144.4        0.0343 0.2302E-02
     1.         7.99     149.         0.0358 0.2159E-02
     1.         7.99     153.6        0.0334 0.1259E-02
     1.         7.99     159.8        0.0329 0.1583E-02
     1.         8.57      22.13       0.0811 0.2466E-02
     1.         8.57      27.64       0.0686 0.2193E-02
     1.         8.57      32.74       0.0661 0.2056E-02
     1.         8.57      38.8        0.0649 0.2260E-02
     1.         8.57      49.36       0.0469 0.3151E-02
     1.         8.57      54.72       0.0441 0.2535E-02
     1.         8.57      65.05       0.0391 0.1370E-02
     1.         8.57      76.05       0.0331 0.1918E-02
     1.         8.57      86.32       0.0341 0.2466E-02
     1.         8.57      96.73       0.0354 0.2535E-02
     1.         8.57     105.6        0.0406 0.2604E-02
     1.         8.57     110.6        0.0413 0.3289E-02
     1.         8.57     115.6        0.0421 0.2398E-02
     1.         8.57     121.         0.0427 0.2945E-02
     1.         8.57     125.8        0.0486 0.2535E-02
     1.         8.57     130.7        0.0547 0.2878E-02
     1.         8.57     135.         0.0534 0.2192E-02
     1.         8.57     139.8        0.0571 0.3220E-02
     1.         8.57     144.8        0.0591 0.2672E-02
     1.         8.57     149.4        0.0673 0.2808E-02
     1.         8.57     154.2        0.0667 0.2878E-02
     1.         8.57     158.5        0.0699 0.3357E-02
     1.         8.57     170.7        0.0758 0.2671E-02
     1.         8.57     173.4        0.0801 0.2603E-02
     1.         8.92      22.24       0.1025 0.2741E-02
     1.         8.92      28.17       0.0951 0.2055E-02
     1.         8.92      38.77       0.0767 0.2466E-02
     1.         8.92      44.13       0.0651 0.2330E-02
     1.         8.92      49.36       0.0531 0.2809E-02
     1.         8.92      54.73       0.0465 0.2191E-02
     1.         8.92      64.78       0.0334 0.1781E-02
     1.         8.92      75.99       0.0233 0.1576E-02
     1.         8.92      86.51       0.0192 0.1576E-02
     1.         8.92      96.39       0.0239 0.1508E-02
     1.         8.92     106.1        0.0304 0.1850E-02
     1.         8.92     111.4        0.0325 0.2329E-02
     1.         8.92     115.8        0.0362 0.1987E-02
     1.         8.92     120.3        0.0391 0.2534E-02
     1.         8.92     125.5        0.0374 0.1917E-02
     1.         8.92     130.3        0.0373 0.1919E-02
     1.         8.92     134.9        0.0356 0.1986E-02
     1.         8.92     139.6        0.0344 0.1850E-02
     1.         8.92     144.4        0.0329 0.1576E-02
     1.         8.92     148.7        0.0312 0.9596E-03
     1.         8.92     153.4        0.0298 0.1714E-02
     1.         8.92     159.6        0.0281 0.1781E-02
     1.5        4.44      21.47       0.7894     0.0186
     1.5        4.44      32.77       0.7453     0.02
     1.5        4.44      44.21       0.7033     0.0179
     1.5        4.44      53.62       0.6392     0.0186
     1.5        4.44      64.54       0.5552     0.0117
     1.5        4.44      75.02       0.5283     0.0131
     1.5        4.44      96.08       0.5511     0.0124
     1.5        4.44     106.1        0.5649     0.0145
     1.5        4.44     115.5        0.5932     0.011
     1.5        4.44     126.2        0.6228     0.0124
     1.5        4.44     135.6        0.6125     0.0152
     1.5        4.44     145.7        0.6532     0.0131
     1.5        4.44     155.2        0.6201     0.0138
     1.5        4.44     164.5        0.5767     0.0179
     1.5        5.03       8.138      0.1634     0.0151
     1.5        5.03      19.06       0.1414     0.0174
     1.5        5.03      30.08       0.1512     0.0159
     1.5        5.03      40.6        0.1712     0.0174
     1.5        5.03      51.64       0.2491     0.0127
     1.5        5.03      62.33       0.2612     0.0159
     1.5        5.03      72.52       0.2852     0.0159
     1.5        5.03      83.61       0.2592     0.0174
     1.5        5.03      93.91       0.2269     0.0159
     1.5        5.03     104.2        0.1827     0.0063
     1.5        5.03     113.6        0.1528     0.0143
     1.5        5.03     123.         0.1442     0.0063
     1.5        5.03     132.8        0.1389     0.0063
     1.5        5.03     143.         0.1565     0.0151
     1.5        5.03     152.8        0.1543     0.0159
     1.5        7.3        9.769      0.4823     0.0216
     1.5        7.3       20.78       0.5479     0.0241
     1.5        7.3       31.56       0.5995     0.0228
     1.5        7.3       42.64       0.6981     0.0228
     1.5        7.3       53.74       0.7041     0.0266
     1.5        7.3       64.65       0.6708     0.0203
     1.5        7.3       85.6        0.665      0.0241
     1.5        7.3       95.7        0.6545     0.0266
     1.5        7.3      105.9        0.6807     0.0241
     1.5        7.3      115.4        0.6358     0.0266
     1.5        7.3      125.1        0.6608     0.0254
     1.5        7.3      135.6        0.6185     0.0254
     1.5        7.3      144.7        0.5749     0.0241
     1.5        7.3      154.3        0.5707     0.0266
     1.5        7.99       9.167      0.1289     0.0124
     1.5        7.99      20.58       0.1912     0.0131
     1.5        7.99      31.72       0.2446     0.0158
     1.5        7.99      41.75       0.2676     0.0145
     1.5        7.99      52.89       0.27       0.0152
     1.5        7.99      64.59       0.2669     0.0152
     1.5        7.99      75.32       0.2266     0.0145
     1.5        7.99      85.21       0.2352     0.0158
     1.5        7.99      95.24       0.2549     0.0131
     1.5        7.99     105.5        0.2669     0.0138
     1.5        7.99     115.2        0.2755
     1.5        7.99     125.5        0.3048
     1.5        7.99     134.8        0.3107
     1.5        7.99     144.3        0.2994     0.0138
     1.5        7.99     154.         0.266      0.0124
     1.5        8.57      10.46       1.271      0.0387
     1.5        8.57      21.75       1.232      0.0338
     1.5        8.57      32.78       0.9597     0.0387
     1.5        8.57      43.24       0.8038     0.0339
     1.5        8.57      53.43       0.6254     0.0387
     1.5        8.57      65.04       0.4873     0.0306
     1.5        8.57      75.55       0.4153     0.0355
     1.5        8.57      85.55       0.3628
     1.5        8.57      95.86       0.3892     0.021
     1.5        8.57     105.9        0.477
     1.5        8.57     116.         0.5374
     1.5        8.57     126.         0.5945
     1.5        8.57     135.4        0.6646
     1.5        8.57     145.3        0.8008     0.029
     1.5        8.57     155.1        0.8418     0.0274
     1.5        8.92      10.82       0.8897     0.0358
     1.5        8.92      21.7        0.8189     0.0344
     1.5        8.92      32.77       0.605      0.0278
     1.5        8.92      44.46       0.4282     0.0305
     1.5        8.92      54.55       0.2487     0.0265
     1.5        8.92      64.69       0.1327
     1.5        8.92      75.69       0.0685
     1.5        8.92      86.55       0.1103
     1.5        8.92      95.67       0.1493
     1.5        8.92     106.9        0.2243
     1.5        8.92     118.         0.2714
     1.5        8.92     126.7        0.3117
     2.         4.44      16.34       0.9029     0.0253
     2.         4.44      21.66       0.8928     0.026
     2.         4.44      26.43       0.866      0.0309
     2.         4.44      33.01       0.8644     0.0288
     2.         4.44      38.49       0.8031     0.0302
     2.         4.44      44.49       0.8541     0.0238
     2.         4.44      49.14       0.7627     0.0182
     2.         4.44      54.74       0.7562     0.0182
     2.         4.44      59.24       0.6859     0.0218
     2.         4.44      75.2        0.6671     0.0197
     2.         4.44      80.94       0.6683     0.0225
     2.         4.44      95.79       0.6151     0.019
     2.         4.44     101.2        0.6381     0.0196
     2.         4.44     106.         0.6386     0.0196
     2.         4.44     111.2        0.6209     0.0211
     2.         4.44     115.9        0.6712     0.0196
     2.         4.44     121.1        0.6254     0.0232
     2.         4.44     125.7        0.6618     0.0267
     2.         4.44     135.4        0.6804     0.0218
     2.         4.44     146.2        0.6484     0.0217
     2.         4.44     154.3        0.5772     0.019
     2.         4.44     163.7        0.5123     0.019
     2.         5.03      20.93       0.4062     0.0168
     2.         5.03      25.66       0.4102     0.0168
     2.         5.03      32.4        0.4202     0.0181
     2.         5.03      38.1        0.4664     0.0208
     2.         5.03      42.91       0.5388     0.0221
     2.         5.03      48.52       0.6184     0.0208
     2.         5.03      53.97       0.6573     0.0201
     2.         5.03      59.18       0.6834     0.0201
     2.         5.03      75.28       0.7376     0.0161
     2.         5.03      80.13       0.7443     0.0315
     2.         5.03      96.2        0.5118     0.0168
     2.         5.03     101.         0.4481     0.0221
     2.         5.03     111.4        0.3972     0.0208
     2.         5.03     121.         0.3161     0.0201
     2.         5.03     125.8        0.3208     0.0147
     2.         5.03     130.7        0.3315     0.0141
     2.         5.03     135.4        0.3382     0.0168
     2.         5.03     145.         0.3843     0.0181
     2.         5.03     154.1        0.4171     0.0147
     2.         7.3       21.18       1.302      0.0372
     2.         7.3       26.84       1.356      0.0308
     2.         7.3       32.35       1.418      0.036
     2.         7.3       37.85       1.486      0.0347
     2.         7.3       43.24       1.539      0.0347
     2.         7.3       48.91       1.493      0.0321
     2.         7.3       54.25       1.488      0.0385
     2.         7.3       59.57       1.497      0.0347
     2.         7.3       75.28       1.436      0.0372
     2.         7.3       80.79       1.409      0.0385
     2.         7.3       95.59       1.343      0.036
     2.         7.3      100.9        1.271      0.0334
     2.         7.3      105.7        1.295      0.036
     2.         7.3      111.         1.296      0.0385
     2.         7.3      116.6        1.214      0.0372
     2.         7.3      121.1        1.173      0.0321
     2.         7.3      125.4        1.191      0.0308
     2.         7.3      130.5        1.066      0.036
     2.         7.3      135.9        1.108      0.0321
     2.         7.3      140.2        1.033      0.0372
     2.         7.3      145.1        1.048      0.0295
     2.         7.3      154.         0.9741     0.0295
     2.         7.99      21.58       0.6463     0.0206
     2.         7.99      27.16       0.6143     0.0227
     2.         7.99      32.44       0.7067     0.0316
     2.         7.99      38.19       0.7599     0.0206
     2.         7.99      43.         0.7946     0.0275
     2.         7.99      59.37       0.7688     0.0261
     2.         7.99      80.33       0.7228     0.0261
     2.         7.99      95.69       0.7377     0.0226
     2.         7.99     100.9        0.7483     0.024
     2.         7.99     106.2        0.7287     0.022
     2.         7.99     111.1        0.7937     0.022
     2.         7.99     116.         0.7872     0.0206
     2.         7.99     120.7        0.8082     0.0295
     2.         7.99     125.4        0.8085     0.0234
     2.         7.99     135.5        0.8312     0.0213
     2.         7.99     144.9        0.8801     0.0179
     2.         7.99     153.7        0.931      0.0172
     2.         8.57      16.08       2.5        0.0563
     2.         8.57      21.83       2.244      0.0562
     2.         8.57      27.44       1.987      0.0494
     2.         8.57      32.78       1.765      0.0461
     2.         8.57      38.28       1.585      0.0443
     2.         8.57      43.89       1.345      0.0443
     2.         8.57      50.47       1.209      0.0392
     2.         8.57      55.3        1.071      0.0392
     2.         8.57      60.95       1.015      0.0426
     2.         8.57      77.13       0.9953     0.0375
     2.         8.57      82.51       0.9535     0.0341
     2.         8.57      97.49       0.9988     0.0307
     2.         8.57     102.5        0.9758     0.0375
     2.         8.57     108.         1.053      0.0324
     2.         8.57     113.         1.005      0.0392
     2.         8.57     118.1        0.9818     0.0358
     2.         8.57     122.6        0.9862     0.0392
     2.         8.57     126.8        1.042      0.0426
     2.         8.57     136.8        1.071      0.029
     2.         8.57     145.3        1.107      0.0324
     2.         8.57     155.1        1.15       0.0324
     2.         8.92      16.19       1.416      0.0373
     2.         8.92      20.96       1.232      0.0373
     2.         8.92      26.32       1.099      0.036
     2.         8.92      33.02       0.9686     0.04
     2.         8.92      39.43       0.774      0.0387
     2.         8.92      44.09       0.5741     0.0267
     2.         8.92      49.88       0.4262     0.028
     2.         8.92      55.62       0.3049     0.024
     2.         8.92      61.03       0.2197     0.0293
     2.         8.92      67.21       0.2372     0.028
     2.         8.92      76.96       0.3708     0.0307
     2.         8.92      82.34       0.3789     0.036
     2.         8.92      97.79       0.4926     0.0493
     2.         8.92     102.6        0.6074     0.044
     2.         8.92     107.8        0.6222     0.04
     2.         8.92     113.3        0.7197     0.0494
     2.         8.92     117.7        0.6864     0.04
     2.         8.92     123.2        0.6852     0.0453
     2.         8.92     127.8        0.7413     0.0507
     3.         5.03      10.73       0.8489     0.0445
     3.         5.03      13.26       0.9043     0.0458
     3.         5.03      16.25       0.674      0.035
     3.         5.03      21.98       0.5571     0.0323
     3.         5.03      32.84       0.4808     0.0377
     3.         5.03      44.56       0.6053     0.0418
     3.         5.03      54.24       0.9576     0.0458
     3.         5.03      64.9        1.167      0.0566
     3.         5.03      75.3        1.137      0.062
     3.         5.03      85.42       1.114      0.0539
     3.         5.03      95.26       0.9798     0.0553
     3.         5.03     105.7        0.9331     0.0458
     3.         7.3        9.07       0.8773     0.0507
     3.         7.3       11.9        0.9014     0.06
     3.         7.3       15.03       1.007      0.0534
     3.         7.3       20.26       1.171      0.0627
     3.         7.3       31.8        1.613      0.0827
     3.         7.3       42.85       1.807      0.0787
     3.         7.3       53.31       1.922      0.084
     3.         7.3       64.59       1.733      0.0813
     3.         7.3       74.88       1.882      0.0853
     3.         7.3       85.82       1.745      0.0907
     3.         7.3       95.53       1.812      0.092
     3.         7.3      105.7        1.776      0.0813
     3.         7.3      115.2        1.786      0.084
     3.         7.3      125.8        1.763      0.084
     3.         7.3      134.3        1.727      0.0773
     3.         7.3      143.6        1.278      0.0573
     3.         7.3      152.8        1.222      0.056
     3.         7.3      161.5        1.026      0.0533
     3.         8.57      10.85       1.493      0.0759
     3.         8.57      13.58       1.365      0.0466
     3.         8.57      16.58       1.271      0.0626
     3.         8.57      22.46       1.073      0.056
     3.         8.57      34.1        0.7872     0.044
     3.         8.57      44.96       0.5224     0.032
     3.         8.57      55.75       0.508      0.0306
     3.         8.57      67.06       0.4937     0.028
     3.         8.57      77.45       0.4847     0.0293
     3.         8.57      88.5        0.4491     0.0293
     3.         8.57      97.7        0.3976     0.028
     3.         8.57     107.7        0.3807     0.0253
     3.         8.57     117.4        0.3985     0.0253
     3.         8.92      10.4        2.064      0.1014
     3.         8.92      16.62       1.885      0.0863
     3.         8.92      21.87       1.616      0.0863
     3.         8.92      33.54       0.9395     0.0507
     3.         8.92      44.66       0.5386     0.0329
     3.         8.92      55.06       0.4293     0.0342
     3.         8.92     117.1        0.8093     0.0507
     3.         8.92     125.8        0.689      0.0438
     3.         8.92     135.7        0.7058     0.0342
     3.         8.92     144.4        0.5993     0.0438
     3.         8.92     154.1        0.5297     0.0411
     3.         8.92     163.         0.5916     0.0452
     3.         8.92     171.4        0.5933     0.0424
ENDDATA            396
ENDSUBENT          411
ENDENTRY             2
