ENTRY            F0428   20220605   20221021   20221020       F092
SUBENT        F0428001   20220605   20221021   20221020       F092
BIB                 10         16
TITLE      Levels in 15N from 11B (alpha,p0)14C reaction
AUTHOR     (G.S.Mani,P.D.Forsyth,R.R.Perry)
INSTITUTE  (1USARIC)
REFERENCE  (J,NP,44,625,1963)
FACILITY   (VDG,1USARIC)
SAMPLE     11B metal had an enrichment > 99.9% obtained from
           the isotope division, Harwell. the target thickness was
           between 5 keV to 10 keV for 3 MeV alpha particles
           Target of 11B deposited on 2.56 um gold backing by
           evaporation technique.
METHOD     (PHD)
DETECTOR   (CSICR)
ERR-ANALYS (DATA-ERR) No information about source of uncertainty
HISTORY    (19920129C)
           (20220605A) SD: Corrections in all Subents.
           EN-ERR -> EN-ERR-DIG.
ENDBIB              16
COMMON               2          3
EN-ERR-DIG E-LVL
MEV        MEV
 0.004      0.
ENDCOMMON            3
ENDSUBENT           23
SUBENT        F0428002   20220605   20221021   20221020       F092
BIB                  3          6
REACTION   (5-B-11(A,P)6-C-14,PAR,SIG,,REL)
            No explanation of relative units is given.
STATUS     (CURVE) Fig.3 from Nucl.Phys.,44(1963)625
           (COREL,F0428003) Fitting coefficients
HISTORY    (20220605A) SD: SF9=EXP deleted from REACTION code.
           DATA-ERR -> ERR-DIG; DATA-ERR1 -> DATA-ERR.
ENDBIB               6
COMMON               1          3
ERR-DIG
ARB-UNITS
  5.0
ENDCOMMON            3
DATA                 3        134
EN         DATA       DATA-ERR
MEV        ARB-UNITS  ARB-UNITS
      2.452       26.1
      2.483       36.4
      2.510       63.9        6.9
      2.524       94.7       13.7
      2.537      132.5       13.7
      2.554      204.5       17.2
      2.569      314.3       17.2
      2.582      489.4       27.4
      2.593      750.1       30.9
      2.612     1004.0       17.2
      2.622     1193.0       34.3
      2.637     1303.0       20.6
      2.651     1282.0       37.8
      2.667     1066.0       34.3
      2.681      908.0       37.8
      2.696      746.7       27.4
      2.710      609.4       27.4
      2.724      537.4       24.0
      2.737      475.6       30.9
      2.752      417.3       20.6
      2.768      376.1       17.2
      2.794      314.3       20.6
      2.821      293.7       20.6
      2.854      283.4       24.0
      2.883      259.4       24.0
      2.909      262.8       24.0
      2.938      266.3       20.6
      2.967      273.1       20.6
      2.991      280.0       24.0
      3.022      283.4       20.6
      3.050      269.7       13.7
      3.081      310.9       20.6
      3.106      317.7       20.6
      3.135      338.3       24.0
      3.164      376.0       24.0
      3.180      413.8       20.6
      3.192      455.0       20.6
      3.205      506.4       24.0
      3.217      578.5       27.4
      3.233      712.3       27.4
      3.262     1339.0       29.7
      3.277      894.2       30.9
      3.292      609.4       24.0
      3.304      636.8       24.0
      3.319      702.0       24.0
      3.333      684.9       30.9
      3.349      633.4       24.0
      3.364      585.3       24.0
      3.383      551.0       20.6
      3.392      520.1       20.6
      3.404      551.0       27.4
      3.419      581.9       30.9
      3.433      609.4       30.9
      3.450      643.7       24.0
      3.465      695.1       24.0
      3.479      753.5       27.4
      3.492      839.3       30.9
      3.503      959.4       34.3
      3.517     1038.0       30.9
      3.530     1107.0       30.9
      3.547     1220.0       41.2
      3.562     1313.0       41.2
      3.576     1361.0       34.3
      3.591     1467.0       37.8
      3.602     1553.0       41.2
      3.615     1426.0       30.9
      3.630     1405.0       34.3
      3.646     1371.0       37.8
      3.660     1344.0       37.8
      3.675     1313.0       34.3
      3.688     1272.0       30.9
      3.701     1234.0       27.4
      3.717     1182.0       34.3
      3.731     1176.0       34.3
      3.747     1100.0       30.9
      3.762     1086.0       27.4
      3.776     1117.0       34.3
      3.789     1110.0       30.9
      3.802     1079.0       30.9
      3.819     1114.0       34.3
      3.833     1079.0       34.3
      3.848     1073.0       27.4
      3.862     1090.0       30.9
      3.879     1107.0       30.9
      3.889     1107.0       34.3
      3.902     1186.0       37.8
      3.918     1210.0       30.9
      3.933     1234.0       30.9
      3.948     1272.0       41.2
      3.964     1210.0       34.3
      3.976     1186.0       34.3
      3.988     1193.0       34.3
      4.002     1200.0       30.9
      4.017     1254.0       34.3
      4.035     1224.0       30.9
      4.050     1234.0       41.2
      4.063     1292.0       34.3
      4.080     1347.0       41.2
      4.096     1323.0       44.6
      4.106     1416.0       34.3
      4.118     1457.0       37.8
      4.135     1484.0       37.8
      4.149     1615.0       48.0
      4.166     1793.0       48.0
      4.179     2020.0       48.0
      4.196     1989.0       44.6
      4.204     2040.0       54.9
      4.219     2129.0       44.6
      4.234     2284.0       41.2
      4.251     2400.0       48.0
      4.266     2500.0       51.5
      4.282     2696.0       51.5
      4.295     2833.0       54.9
      4.310     2699.0       61.8
      4.324     2531.0       54.9
      4.340     2459.0       48.0
      4.354     2390.0       58.3
      4.368     2256.0       51.5
      4.384     2201.0       44.6
      4.395     2030.0       37.8
      4.407     1930.0       48.0
      4.423     1803.0       48.0
      4.437     1728.0       48.0
      4.448     1615.0       44.6
      4.465     1587.0       41.2
      4.481     1501.0       41.2
      4.497     1484.0       41.2
      4.508     1402.0       37.8
      4.520     1285.0       34.3
      4.537     1278.0       41.2
      4.553     1296.0       37.8
      4.568     1278.0       34.3
      4.584     1285.0       44.6
      4.596     1247.0       41.2
ENDDATA            136
ENDSUBENT          151
SUBENT        F0428003   20220605   20221021   20221020       F092
BIB                  3          5
REACTION   (5-B-11(A,P)6-C-14,PAR,DA,,LEG/RS)
STATUS     (CURVE) Fig.3 from Nucl.Phys.,44(1963)625
           (COREL,F0428002) Normalization coefficient
HISTORY    (20220605A) SD: SF9=EXP deleted from REACTION code.
           DATA-ERR -> ERR-DIG; DATA-ERR1 -> DATA-ERR.
ENDBIB               5
COMMON               1          3
ERR-DIG
NO-DIM
 0.004
ENDCOMMON            3
DATA                 4        544
NUMBER     EN         DATA       DATA-ERR
NO-DIM     MEV        NO-DIM     NO-DIM
         1.      2.453     -0.085      0.123
         1.      2.484      0.337      0.030
         1.      2.509      0.614      0.047
         1.      2.524      0.580      0.051
         1.      2.542      0.512      0.034
         1.      2.555      0.453      0.034
         1.      2.570      0.381      0.013
         1.      2.586      0.334      0.013
         1.      2.595      0.228      0.013
         1.      2.609      0.118      0.017
         1.      2.624      0.020      0.017
         1.      2.639     -0.039      0.017
         1.      2.654     -0.056      0.026
         1.      2.671     -0.069      0.026
         1.      2.683     -0.149      0.021
         1.      2.700     -0.136      0.030
         1.      2.713     -0.247      0.030
         1.      2.722     -0.242      0.030
         1.      2.739     -0.319      0.047
         1.      2.752     -0.348      0.038
         1.      2.768     -0.425      0.047
         1.      2.795     -0.454      0.051
         1.      2.823     -0.479      0.051
         1.      2.852     -0.602      0.064
         1.      2.882     -0.619      0.064
         1.      2.907     -0.606      0.064
         1.      2.933     -0.695      0.064
         1.      2.966     -0.767      0.064
         1.      2.993     -0.754      0.060
         1.      3.018     -0.732      0.060
         1.      3.049     -0.800      0.077
         1.      3.079     -0.842      0.060
         1.      3.105     -0.709      0.060
         1.      3.133     -0.743      0.060
         1.      3.158     -0.713      0.047
         1.      3.179     -0.700      0.055
         1.      3.192     -0.725      0.043
         1.      3.203     -0.734      0.047
         1.      3.218     -0.742      0.034
         1.      3.235     -0.788      0.038
         1.      3.248     -0.733      0.030
         1.      3.266     -0.618      0.025
         1.      3.280     -0.256      0.034
         1.      3.295     -0.213      0.030
         1.      3.306     -0.311      0.034
         1.      3.322     -0.468      0.055
         1.      3.338     -0.625      0.038
         1.      3.352     -0.778      0.038
         1.      3.367     -0.787      0.043
         1.      3.379     -0.769      0.043
         1.      3.392     -0.735      0.038
         1.      3.406     -0.675      0.043
         1.      3.421     -0.611      0.043
         1.      3.435     -0.539      0.043
         1.      3.452     -0.492      0.038
         1.      3.464     -0.432      0.034
         1.      3.483     -0.355      0.030
         1.      3.493     -0.287      0.030
         1.      3.504     -0.176      0.026
         1.      3.521     -0.108      0.021
         1.      3.536     -0.069      0.025
         1.      3.548     -0.014      0.013
         1.      3.566      0.076      0.013
         1.      3.581      0.144      0.013
         1.      3.593      0.191      0.009
         1.      3.605      0.234      0.009
         1.      3.619      0.361      0.009
         1.      3.634      0.438      0.013
         1.      3.650      0.481      0.013
         1.      3.667      0.520      0.017
         1.      3.682      0.541      0.013
         1.      3.692      0.614      0.013
         1.      3.709      0.618      0.017
         1.      3.721      0.644      0.013
         1.      3.738      0.640      0.017
         1.      3.750      0.695      0.013
         1.      3.768      0.661      0.013
         1.      3.785      0.662      0.017
         1.      3.793      0.662      0.013
         1.      3.808      0.705      0.013
         1.      3.823      0.654      0.021
         1.      3.838      0.688      0.021
         1.      3.852      0.675      0.017
         1.      3.867      0.688      0.017
         1.      3.882      0.672      0.017
         1.      3.895      0.629      0.021
         1.      3.910      0.663      0.017
         1.      3.922      0.732      0.017
         1.      3.941      0.809      0.021
         1.      3.952      0.945      0.025
         1.      3.969      0.949      0.025
         1.      3.984      0.962      0.017
         1.      3.997      0.937      0.017
         1.      4.008      0.933      0.017
         1.      4.027      0.882      0.017
         1.      4.040      0.857      0.021
         1.      4.053      0.827      0.021
         1.      4.070      0.861      0.013
         1.      4.087      0.789      0.017
         1.      4.098      0.824      0.017
         1.      4.113      0.785      0.013
         1.      4.126      0.747      0.013
         1.      4.129      0.883      0.009
         1.      4.143      0.688      0.009
         1.      4.154      0.633      0.013
         1.      4.172      0.539      0.009
         1.      4.187      0.506      0.009
         1.      4.202      0.548      0.009
         1.      4.214      0.638      0.009
         1.      4.226      0.736      0.013
         1.      4.242      0.770      0.009
         1.      4.255      0.762      0.013
         1.      4.272      0.792      0.021
         1.      4.289      0.737      0.009
         1.      4.300      0.682      0.013
         1.      4.313      0.720      0.009
         1.      4.326      0.610      0.013
         1.      4.340      0.559      0.009
         1.      4.357      0.478      0.009
         1.      4.370      0.432      0.013
         1.      4.388      0.364      0.009
         1.      4.399      0.326      0.013
         1.      4.412      0.271      0.009
         1.      4.425      0.190      0.013
         1.      4.443      0.135      0.009
         1.      4.458      0.097      0.009
         1.      4.471      0.037      0.013
         1.      4.486     -0.005      0.009
         1.      4.499     -0.052      0.017
         1.      4.512     -0.073      0.009
         1.      4.526     -0.166      0.021
         1.      4.544     -0.106      0.017
         1.      4.555     -0.157      0.017
         1.      4.572     -0.178      0.017
         1.      4.587     -0.199      0.021
         1.      4.598     -0.242      0.025
         2.      2.462      0.927      0.195
         2.      2.491      1.008      0.165
         2.      2.519      0.995      0.123
         2.      2.533      0.809      0.089
         2.      2.549      0.919      0.085
         2.      2.562      0.805      0.064
         2.      2.578      0.750      0.047
         2.      2.593      0.696      0.038
         2.      2.602      0.573      0.030
         2.      2.615      0.454      0.021
         2.      2.629      0.332      0.021
         2.      2.645      0.408      0.017
         2.      2.660      0.815      0.025
         2.      2.673      0.095      0.034
         2.      2.690      1.116      0.034
         2.      2.705      1.057      0.034
         2.      2.720      0.981      0.047
         2.      2.729      0.952      0.047
         2.      2.745      0.820      0.034
         2.      2.758      0.787      0.042
         2.      2.775      0.723      0.051
         2.      2.801      0.677      0.047
         2.      2.828      0.521      0.051
         2.      2.858      0.487      0.051
         2.      2.887      0.475      0.051
         2.      2.909      0.420      0.051
         2.      2.939      0.365      0.047
         2.      2.966      0.476      0.047
         2.      2.994      0.311      0.042
         2.      3.022      0.324      0.034
         2.      3.052      0.358      0.047
         2.      3.083      0.384      0.038
         2.      3.109      0.274      0.055
         2.      3.135      0.237      0.038
         2.      3.167      0.267      0.038
         2.      3.182      0.191      0.030
         2.      3.197      0.225      0.034
         2.      3.207      0.242      0.030
         2.      3.222      0.284      0.025
         2.      3.237      0.284      0.025
         2.      3.253      0.382      0.021
         2.      3.266      0.319      0.017
         2.      3.283      0.467      0.025
         2.      3.296      0.607      0.030
         2.      3.307      0.616      0.034
         2.      3.323      0.480      0.025
         2.      3.339      0.311      0.030
         2.      3.353      0.070      0.021
         2.      3.371     -0.095      0.017
         2.      3.382     -0.226      0.009
         2.      3.398     -0.247      0.009
         2.      3.409     -0.323      0.017
         2.      3.424     -0.370      0.021
         2.      3.439     -0.370      0.021
         2.      3.453     -0.352      0.017
         2.      3.483     -0.356      0.017
         2.      3.496     -0.390      0.021
         2.      3.509     -0.377      0.013
         2.      3.523     -0.335      0.017
         2.      3.538     -0.364      0.013
         2.      3.555     -0.355      0.017
         2.      3.570     -0.321      0.017
         2.      3.584     -0.207      0.013
         2.      3.601     -0.101      0.009
         2.      3.609     -0.181      0.009
         2.      3.624     -0.160      0.009
         2.      3.639     -0.142      0.009
         2.      3.653     -0.028      0.009
         2.      3.668     -0.002      0.009
         2.      3.684      0.057      0.009
         2.      3.697      0.083      0.004
         2.      3.711      0.138      0.009
         2.      3.726      0.257      0.009
         2.      3.738      0.274      0.017
         2.      3.755      0.338      0.013
         2.      3.770      0.342      0.017
         2.      3.784      0.419      0.017
         2.      3.795      0.427      0.013
         2.      3.811      0.504      0.017
         2.      3.824      0.500      0.017
         2.      3.840      0.585      0.017
         2.      3.857      0.661      0.021
         2.      3.873      0.742      0.034
         2.      3.886      0.759      0.025
         2.      3.901      0.814      0.021
         2.      3.911      0.844      0.025
         2.      3.928      0.895      0.025
         2.      3.940      0.904      0.025
         2.      3.958      0.862      0.017
         2.      3.973      0.773      0.017
         2.      3.986      0.765      0.025
         2.      3.997      0.722      0.017
         2.      4.011      0.727      0.025
         2.      4.029      0.723      0.017
         2.      4.041      0.723      0.017
         2.      4.058      0.744      0.017
         2.      4.073      0.762      0.021
         2.      4.088      0.749      0.021
         2.      4.100      0.792      0.017
         2.      4.113      0.847      0.021
         2.      4.130      0.843      0.017
         2.      4.143      0.809      0.017
         2.      4.160      0.780      0.017
         2.      4.174      0.581      0.021
         2.      4.188      0.361      0.008
         2.      4.204      0.208      0.013
         2.      4.212      0.242      0.008
         2.      4.229      0.285      0.013
         2.      4.244      0.327      0.013
         2.      4.258      0.353      0.008
         2.      4.261      0.306      0.013
         2.      4.265      0.357      0.013
         2.      4.274      0.256      0.008
         2.      4.288      0.269      0.013
         2.      4.302      0.214      0.008
         2.      4.314      0.252      0.008
         2.      4.328      0.125      0.008
         2.      4.345      0.087      0.009
         2.      4.356      0.011      0.008
         2.      4.373     -0.048      0.008
         2.      4.389     -0.120      0.008
         2.      4.400     -0.162      0.008
         2.      4.415     -0.213      0.013
         2.      4.427     -0.212      0.008
         2.      4.443     -0.280      0.013
         2.      4.458     -0.310      0.017
         2.      4.473     -0.373      0.017
         2.      4.490     -0.364      0.013
         2.      4.499     -0.368      0.013
         2.      4.513     -0.360      0.013
         2.      4.526     -0.377      0.017
         2.      4.541     -0.347      0.008
         2.      4.558     -0.376      0.017
         2.      4.571     -0.380      0.013
         2.      4.590     -0.354      0.017
         2.      4.600     -0.333      0.013
         3.      2.483      0.261      0.050
         3.      2.513      0.755      0.105
         3.      2.539      0.521      0.059
         3.      2.554      0.538      0.059
         3.      2.569      0.693      0.059
         3.      2.584      0.639      0.042
         3.      2.599      0.597      0.038
         3.      2.614      0.476      0.029
         3.      2.625      0.443      0.021
         3.      2.635      0.347      0.017
         3.      2.652      0.314      0.021
         3.      2.667      0.544      0.021
         3.      2.681      0.636      0.013
         3.      2.699      0.435      0.025
         3.      2.712      0.373      0.008
         3.      2.725      0.323      0.013
         3.      2.740      0.277      0.013
         3.      2.752      0.319      0.008
         3.      2.765      0.265      0.008
         3.      2.780      0.248      0.017
         3.      2.795      0.294      0.021
         3.      2.818      0.136      0.021
         3.      2.848      0.153      0.017
         3.      2.878      0.225      0.021
         3.      2.895      0.187      0.008
         3.      2.908      0.179      0.021
         3.      2.933      0.146      0.021
         3.      2.963      0.096      0.017
         3.      2.990      0.075      0.013
         3.      3.016      0.105      0.021
         3.      3.044      0.076      0.013
         3.      3.071     -0.037      0.017
         3.      3.103      0.022      0.017
         3.      3.129     -0.153      0.025
         3.      3.157     -0.169      0.013
         3.      3.188     -0.152      0.021
         3.      3.205     -0.072      0.021
         3.      3.216     -0.127      0.021
         3.      3.229     -0.135      0.013
         3.      3.244     -0.189      0.017
         3.      3.274     -0.277      0.021
         3.      3.290     -0.122      0.008
         3.      3.306      0.473      0.021
         3.      3.319      0.427      0.021
         3.      3.329      0.385      0.021
         3.      3.345      0.323      0.021
         3.      3.359      0.511      0.021
         3.      3.374      0.444      0.017
         3.      3.389      0.436      0.021
         3.      3.406      0.461      0.025
         3.      3.419      0.340      0.021
         3.      3.431      0.361      0.025
         3.      3.444      0.290      0.017
         3.      3.459      0.253      0.017
         3.      3.476      0.190      0.017
         3.      3.491      0.224      0.013
         3.      3.506      0.136      0.017
         3.      3.517      0.166      0.017
         3.      3.532      0.179      0.017
         3.      3.544      0.166      0.013
         3.      3.561      0.162      0.013
         3.      3.574      0.196      0.017
         3.      3.591      0.217      0.017
         3.      3.604      0.179      0.013
         3.      3.627      0.079      0.021
         3.      3.646      0.230      0.013
         3.      3.659      0.272      0.017
         3.      3.675      0.406      0.017
         3.      3.688      0.444      0.017
         3.      3.707      0.503      0.013
         3.      3.718      0.482      0.013
         3.      3.730      0.570      0.021
         3.      3.745      0.654      0.017
         3.      3.764      0.621      0.017
         3.      3.777      0.671      0.017
         3.      3.794      0.684      0.017
         3.      3.806      0.726      0.017
         3.      3.823      0.810      0.017
         3.      3.832      0.839      0.021
         3.      3.849      0.814      0.025
         3.      3.864      0.773      0.017
         3.      3.878      0.857      0.021
         3.      3.891      0.828      0.021
         3.      3.908      0.907      0.029
         3.      3.921      0.832      0.025
         3.      3.931      0.916      0.029
         3.      3.950      0.996      0.021
         3.      3.965      1.075      0.034
         3.      3.980      0.954      0.025
         3.      3.995      0.745      0.025
         3.      4.008      0.800      0.021
         3.      4.019      0.800      0.017
         3.      4.036      0.779      0.021
         3.      4.048      0.863      0.029
         3.      4.065      0.830      0.021
         3.      4.080      0.851      0.021
         3.      4.095      0.855      0.017
         3.      4.112      0.868      0.017
         3.      4.122      0.906      0.021
         3.      4.135      0.956      0.021
         3.      4.152      0.927      0.021
         3.      4.167      0.777      0.017
         3.      4.195      0.539      0.013
         3.      4.210      0.434      0.017
         3.      4.221      0.280      0.013
         3.      4.234      0.213      0.008
         3.      4.249      0.238      0.013
         3.      4.264      0.335      0.013
         3.      4.278      0.418      0.008
         3.      4.293      0.448      0.013
         3.      4.310      0.544      0.013
         3.      4.323      0.544      0.013
         3.      4.333      0.507      0.013
         3.      4.351      0.428      0.008
         3.      4.363      0.490      0.004
         3.      4.380      0.541      0.017
         3.      4.395      0.604      0.013
         3.      4.412      0.592      0.013
         3.      4.422      0.579      0.017
         3.      4.435      0.558      0.013
         3.      4.452      0.634      0.017
         3.      4.465      0.634      0.017
         3.      4.482      0.630      0.013
         3.      4.495      0.521      0.021
         3.      4.511      0.622      0.017
         3.      4.522      0.564      0.021
         3.      4.537      0.606      0.021
         3.      4.550      0.493      0.021
         3.      4.567      0.573      0.021
         3.      4.577      0.560      0.017
         3.      4.596      0.569      0.017
         3.      4.609      0.506      0.021
         3.      4.622      0.490      0.021
         4.      2.453      0.020      0.056
         4.      2.481      0.333      0.069
         4.      2.510      0.132      0.060
         4.      2.523      0.338      0.021
         4.      2.540      0.299      0.039
         4.      2.553      0.394      0.013
         4.      2.569      0.137      0.034
         4.      2.583      0.017      0.039
         4.      2.598     -0.008      0.026
         4.      2.609     -0.171      0.021
         4.      2.626     -0.141      0.021
         4.      2.638      0.070      0.021
         4.      2.645     -0.076
         4.      2.653      0.275
         4.      2.668      0.331      0.021
         4.      2.681      0.507      0.026
         4.      2.695      0.353      0.021
         4.      2.707      0.165      0.017
         4.      2.723      0.028      0.017
         4.      2.737      0.092      0.013
         4.      2.753     -0.036      0.013
         4.      2.764     -0.134      0.030
         4.      2.791     -0.078      0.021
         4.      2.819     -0.172      0.026
         4.      2.849     -0.069      0.021
         4.      2.880     -0.287      0.038
         4.      2.903     -0.342      0.038
         4.      2.933     -0.341      0.038
         4.      2.968     -0.444      0.043
         4.      2.990     -0.324      0.034
         4.      3.016     -0.362      0.039
         4.      3.047     -0.502      0.039
         4.      3.077     -0.536      0.038
         4.      3.102     -0.283      0.021
         4.      3.132     -0.227      0.017
         4.      3.160     -0.351      0.021
         4.      3.176     -0.201      0.021
         4.      3.191     -0.201      0.009
         4.      3.202     -0.226      0.013
         4.      3.217     -0.269      0.009
         4.      3.231     -0.170      0.013
         4.      3.246     -0.208      0.013
         4.      3.261     -0.482      0.013
         4.      3.277     -0.362      0.034
         4.      3.288     -0.148      0.021
         4.      3.302     -0.032      0.021
         4.      3.318     -0.126      0.017
         4.      3.333     -0.215      0.026
         4.      3.349     -0.322      0.030
         4.      3.364     -0.301      0.030
         4.      3.376     -0.326      0.043
         4.      3.389     -0.382      0.039
         4.      3.401     -0.253      0.038
         4.      3.419     -0.308      0.030
         4.      3.432     -0.415      0.030
         4.      3.447     -0.441      0.030
         4.      3.464     -0.389      0.026
         4.      3.479     -0.470      0.030
         4.      3.491     -0.282      0.026
         4.      3.503     -0.260      0.021
         4.      3.518     -0.251      0.017
         4.      3.536     -0.311      0.017
         4.      3.550     -0.255      0.026
         4.      3.563     -0.246      0.021
         4.      3.578     -0.379      0.017
         4.      3.592     -0.469      0.021
         4.      3.605     -0.314      0.013
         4.      3.618     -0.245      0.026
         4.      3.630     -0.190      0.021
         4.      3.649     -0.125      0.021
         4.      3.661     -0.069      0.017
         4.      3.678     -0.035      0.013
         4.      3.690      0.008      0.017
         4.      3.703      0.013      0.013
         4.      3.720      0.043      0.017
         4.      3.733      0.000      0.017
         4.      3.750      0.035      0.009
         4.      3.762      0.014      0.021
         4.      3.779      0.121      0.021
         4.      3.794      0.087      0.021
         4.      3.806      0.117      0.021
         4.      3.818      0.229      0.021
         4.      3.836      0.113      0.021
         4.      3.848      0.182      0.017
         4.      3.865      0.169      0.017
         4.      3.878      0.242      0.026
         4.      3.891      0.195      0.026
         4.      3.905      0.281      0.026
         4.      3.921      0.329      0.021
         4.      3.935      0.470      0.026
         4.      3.950      0.445      0.017
         4.      3.964      0.282      0.017
         4.      3.979      0.308      0.013
         4.      3.993      0.381      0.013
         4.      4.004      0.326      0.013
         4.      4.014      0.518      0.013
         4.      4.023      0.420      0.013
         4.      4.036      0.395      0.017
         4.      4.053      0.391      0.013
         4.      4.067      0.429      0.013
         4.      4.082      0.404      0.017
         4.      4.095      0.460      0.017
         4.      4.109      0.537      0.017
         4.      4.124      0.494      0.017
         4.      4.139      0.499      0.009
         4.      4.153      0.546      0.013
         4.      4.170      0.619      0.017
         4.      4.184      0.461      0.021
         4.      4.196      0.273      0.013
         4.      4.207      0.192      0.013
         4.      4.225      0.393      0.013
         4.      4.238      0.282      0.009
         4.      4.255      0.304      0.009
         4.      4.269      0.334      0.009
         4.      4.282      0.338      0.009
         4.      4.290      0.424      0.009
         4.      4.297      0.347      0.009
         4.      4.308      0.219      0.013
         4.      4.322      0.056      0.013
         4.      4.337      0.048      0.013
         4.      4.352      0.001      0.013
         4.      4.369      0.014      0.013
         4.      4.382     -0.024      0.017
         4.      4.395     -0.050      0.013
         4.      4.408     -0.067      0.021
         4.      4.423     -0.071      0.021
         4.      4.438     -0.092      0.021
         4.      4.452     -0.010      0.017
         4.      4.468     -0.139      0.017
         4.      4.481     -0.143      0.021
         4.      4.494     -0.164      0.021
         4.      4.506     -0.172      0.021
         4.      4.524     -0.258      0.026
         4.      4.538     -0.133      0.030
         4.      4.552     -0.090      0.021
         4.      4.565     -0.086      0.021
         4.      4.583     -0.184      0.021
         4.      4.584     -0.441
         4.      4.591     -0.201      0.021
ENDDATA            546
ENDSUBENT          560
ENDENTRY             3
