ENTRY            F0451   19990410   19990429
SUBENT        F0451001   19990410   19990429
BIB                 11         19
TITLE      9Be(d,alpha0)7Li (ground state)and 9Be(d,alpha1)7Li
            (470 keV)reactions in the 0.9 - 2.2 MeV energy range
AUTHOR     (A.SAGANEK,I.SLEDZINSKA,A.TUROS,Z.WILHELMI,
           B.ZWIEGLINSKI)
INSTITUTE  (3POLWWA)
REFERENCE  (J,APP/B,2,473,197107)
MONITOR    (4-BE-9(D,EL)4-BE-9,,DA,,,EXP)
MONIT-REF  (,MACHALI+,J,AKE,13,(1),29,196802)
SAMPLE     Targets were prepared by vacuum evaporation in
           spectroscopically pure beryllium metal on thin
           organic backings. The average thickness of the
           beryllium layer was 40 mu-g/cm**2
FACILITY   (VDG)
DETECTOR   (SOLST) Semiconductor detectors of surface-barrier type
ERR-ANALYS (ERR-S) Statistical error
           (ERR-T) The overrall errors of the absolute cross
           sections inclusive of the uncertainty of the elastic
           scattering (,MACHALI+,J,AKE,13,(1),29,196802)
HISTORY    (19860901C)
ENDBIB              19
COMMON               2          3
ERR-S      ERR-T
PER-CENT   PER-CENT
  3.0        10.0
ENDCOMMON            3
ENDSUBENT           26
SUBENT        F0451002   19990410   19990429
BIB                  4          5
REACTION   (4-BE-9(D,A)3-LI-7,PAR,DA,,,EXP)
ERR-ANALYS (ANG-ERR) Digitizing error
           (DATA-ERR) Digitizing error
EN-SEC     (E-LVL,3-LI-7)
STATUS     (CURVE) Fig 7, 8
ENDBIB               5
COMMON               2          3
ANG-ERR    DATA-ERR
ADEG       MB/SR
  1.        0.05
ENDCOMMON            3
DATA                 4        493
EN         E-LVL      ANG-CM     DATA-CM
MEV        MEV        ADEG       MB/SR
     0.9        0.        23.69       1.333
     0.9        0.        27.99       1.483
     0.9        0.        35.15       1.332
     0.9        0.        39.45       1.407
     0.9        0.        45.18       1.415
     0.9        0.        56.65       1.632
     0.9        0.        66.68       1.632
     0.9        0.        76.71       1.706
     0.9        0.        88.17       1.631
     0.9        0.        96.77       1.856
     0.9        0.       106.8        1.931
     0.9        0.       115.4        1.855
     0.9        0.       125.4        2.156
     0.9        0.       134.         2.145
     0.9        0.       142.6        2.456
     0.9        0.       152.6        2.531
     0.9        0.       167.         2.982
     0.9        0.48      24.69       3.533
     0.9        0.48      30.39       3.608
     0.9        0.48      36.04       3.145
     0.9        0.48      41.73       3.067
     0.9        0.48      46.         3.066
     0.9        0.48      57.35       2.679
     0.9        0.48      68.72       2.522
     0.9        0.48      78.64       1.981
     0.9        0.48      88.57       1.671
     0.9        0.48      98.52       1.592
     0.9        0.48     108.5        1.359
     0.9        0.48     115.6        0.9724
     0.9        0.48     126.9        0.8927
     0.9        0.48     135.4        0.583
     0.9        0.48     144.         0.8886
     0.9        0.48     154.         0.9631
     0.9        0.48     166.8        1.268
     1.         0.        16.78       1.664
     1.         0.        22.51       1.663
     1.         0.        25.38       1.737
     1.         0.        32.55       1.885
     1.         0.        39.72       1.883
     1.         0.        46.88       1.807
     1.         0.        55.48       1.88
     1.         0.        65.52       2.102
     1.         0.        76.98       2.025
     1.         0.        87.01       2.098
     1.         0.        97.04       2.096
     1.         0.       105.6        2.169
     1.         0.       115.7        2.316
     1.         0.       124.3        2.464
     1.         0.       135.8        2.536
     1.         0.       144.4        2.908
     1.         0.       153.         3.279
     1.         0.       165.9        3.724
     1.         0.48      25.29       4.469
     1.         0.48      28.13       4.393
     1.         0.48      33.78       4.09
     1.         0.48      40.85       3.787
     1.         0.48      45.07       3.41
     1.         0.48      56.43       3.256
     1.         0.48      67.76       2.876
     1.         0.48      76.2        2.122
     1.         0.48      86.11       1.743
     1.         0.48      97.47       1.588
     1.         0.48     107.4        1.284
     1.         0.48     114.5        0.9809
     1.         0.48     125.8        0.9765
     1.         0.48     134.4        1.048
     1.         0.48     142.9        1.12
     1.         0.48     152.9        1.191
     1.         0.48     164.3        1.412
     1.1        0.        22.35       1.895
     1.1        0.        28.09       2.046
     1.1        0.        33.82       2.046
     1.1        0.        39.55       2.045
     1.1        0.        43.85       2.272
     1.1        0.        56.75       2.271
     1.1        0.        65.34       2.346
     1.1        0.        76.81       2.345
     1.1        0.        85.4        2.118
     1.1        0.        96.86       2.118
     1.1        0.       106.9        2.419
     1.1        0.       116.9        2.479
     1.1        0.       124.1        2.483
     1.1        0.       135.6        2.493
     1.1        0.       144.2        3.096
     1.1        0.       152.8        3.698
     1.1        0.       164.2        4.075
     1.1        0.48      31.1        4.915
     1.1        0.48      36.74       4.383
     1.1        0.48      42.4        4.078
     1.1        0.48      46.64       3.85
     1.1        0.48      56.56       3.544
     1.1        0.48      66.47       3.01
     1.1        0.48      76.37       2.477
     1.1        0.48      87.68       1.867
     1.1        0.48      97.62       1.637
     1.1        0.48     107.6        1.407
     1.1        0.48     116.1        1.177
     1.1        0.48     126.         1.174
     1.1        0.48     136.         1.474
     1.1        0.48     143.1        1.395
     1.1        0.48     153.1        1.392
     1.1        0.48     163.2        1.792
     1.2        0.        19.83       2.322
     1.2        0.        25.56       2.246
     1.2        0.        29.87       2.546
     1.2        0.        35.6        2.47
     1.2        0.        41.32       2.394
     1.2        0.        45.63       2.409
     1.2        0.        58.53       2.617
     1.2        0.        68.56       2.615
     1.2        0.        78.58       2.599
     1.2        0.        90.05       2.612
     1.2        0.        98.64       2.611
     1.2        0.       110.1        2.609
     1.2        0.       118.7        2.613
     1.2        0.       127.3        2.757
     1.2        0.       134.5        2.906
     1.2        0.       144.5        3.43
     1.2        0.       154.6        3.804
     1.2        0.       166.1        4.779
     1.2        0.48      16.94       5.045
     1.2        0.48      24.07       5.12
     1.2        0.48      28.35       5.271
     1.2        0.48      34.01       4.964
     1.2        0.48      41.1        4.734
     1.2        0.48      45.34       4.351
     1.2        0.48      56.67       3.814
     1.2        0.48      66.59       3.353
     1.2        0.48      76.48       2.664
     1.2        0.48      84.96       2.051
     1.2        0.48      94.89       1.743
     1.2        0.48     106.3        1.511
     1.2        0.48     114.8        1.204
     1.2        0.48     123.3        1.278
     1.2        0.48     133.3        1.275
     1.2        0.48     141.8        1.501
     1.2        0.48     151.8        1.575
     1.2        0.48     163.2        1.724
     1.3        0.        25.78       2.722
     1.3        0.        31.5        2.495
     1.3        0.        35.81       2.721
     1.3        0.        41.54       2.72
     1.3        0.        47.26       2.493
     1.3        0.        57.3        2.642
     1.3        0.        68.75       2.564
     1.3        0.        78.79       2.638
     1.3        0.        88.81       2.485
     1.3        0.        98.86       2.785
     1.3        0.       108.9        2.784
     1.3        0.       117.5        2.933
     1.3        0.       127.5        2.856
     1.3        0.       133.3        2.855
     1.3        0.       139.         3.306
     1.3        0.       153.4        3.907
     1.3        0.       167.7        4.584
     1.3        0.48      30.84       5.527
     1.3        0.48      33.67       5.226
     1.3        0.48      40.76       4.925
     1.3        0.48      46.43       4.473
     1.3        0.48      56.38       4.322
     1.3        0.48      67.73       3.569
     1.3        0.48      79.07       2.742
     1.3        0.48      88.99       2.14
     1.3        0.48      98.94       1.913
     1.3        0.48     108.9        1.687
     1.3        0.48     117.4        1.46
     1.3        0.48     126.         1.534
     1.3        0.48     131.6        1.458
     1.3        0.48     140.2        1.607
     1.3        0.48     153.         1.83
     1.3        0.48     164.4        1.978
     1.4        0.        19.65       3.336
     1.4        0.        23.95       3.41
     1.4        0.        29.68       3.185
     1.4        0.        35.41       3.26
     1.4        0.        39.7        2.735
     1.4        0.        46.86       2.735
     1.4        0.        56.89       2.734
     1.4        0.        66.92       2.734
     1.4        0.        78.38       2.808
     1.4        0.        88.41       2.882
     1.4        0.        97.01       2.957
     1.4        0.       108.5        3.181
     1.4        0.       117.1        2.955
     1.4        0.       127.1        3.18
     1.4        0.       135.7        3.104
     1.4        0.       144.3        3.553
     1.4        0.       152.9        4.002
     1.4        0.       161.5        4.601
     1.4        0.       168.7        4.825
     1.4        0.48      23.1        5.856
     1.4        0.48      27.36       5.625
     1.4        0.48      34.48       5.394
     1.4        0.48      44.43       4.933
     1.4        0.48      54.39       4.471
     1.4        0.48      62.92       3.856
     1.4        0.48      75.73       3.163
     1.4        0.48      85.68       2.471
     1.4        0.48      97.06       2.163
     1.4        0.48     107.         1.855
     1.4        0.48     115.6        1.701
     1.4        0.48     125.5        1.624
     1.4        0.48     134.1        1.547
     1.4        0.48     142.6        1.624
     1.4        0.48     152.6        1.777
     1.4        0.48     163.9        2.162
     1.5        0.        23.02       3.568
     1.5        0.        30.18       3.491
     1.5        0.        35.9        3.264
     1.5        0.        41.63       3.112
     1.5        0.        47.36       3.111
     1.5        0.        57.37       2.732
     1.5        0.        67.4        2.73
     1.5        0.        78.87       2.956
     1.5        0.        87.47       3.106
     1.5        0.        98.94       3.109
     1.5        0.       107.5        3.254
     1.5        0.       117.6        3.102
     1.5        0.       127.6        3.176
     1.5        0.       136.2        3.099
     1.5        0.       144.8        3.325
     1.5        0.       152.         3.777
     1.5        0.       167.8        4.304
     1.5        0.48      23.31       4.85
     1.5        0.48      27.6        5.073
     1.5        0.48      36.13       5.07
     1.5        0.48      40.37       4.771
     1.5        0.48      46.06       4.769
     1.5        0.48      57.38       4.094
     1.5        0.48      67.29       3.643
     1.5        0.48      78.64       3.266
     1.5        0.48      87.12       2.741
     1.5        0.48      98.46       2.29
     1.5        0.48     107.         2.064
     1.5        0.48     124.         1.686
     1.5        0.48     135.4        1.533
     1.5        0.48     143.9        1.605
     1.5        0.48     153.9        1.677
     1.5        0.48     165.3        1.898
     1.6        0.        19.45       3.774
     1.6        0.        26.66       3.781
     1.6        0.        32.43       3.786
     1.6        0.        36.91       3.343
     1.6        0.        42.67       3.349
     1.6        0.        48.52       3.13
     1.6        0.        55.72       3.137
     1.6        0.        65.82       3.146
     1.6        0.        77.27       3.38
     1.6        0.        87.34       3.464
     1.6        0.        95.94       3.62
     1.6        0.       106.         3.704
     1.6        0.       116.1        3.639
     1.6        0.       126.3        3.499
     1.6        0.       134.9        3.507
     1.6        0.       143.5        3.664
     1.6        0.       153.4        4.268
     1.6        0.       159.1        4.423
     1.6        0.       164.8        4.577
     1.6        0.48      21.68       5.022
     1.6        0.48      27.48       5.398
     1.6        0.48      33.24       5.246
     1.6        0.48      37.55       4.944
     1.6        0.48      43.34       5.093
     1.6        0.48      54.86       4.789
     1.6        0.48      66.38       4.334
     1.6        0.48      76.43       3.728
     1.6        0.48      86.5        3.198
     1.6        0.48      96.58       2.969
     1.6        0.48     108.1        2.665
     1.6        0.48     115.3        2.362
     1.6        0.48     125.4        2.208
     1.6        0.48     135.5        1.905
     1.6        0.48     145.6        1.978
     1.6        0.48     154.3        2.052
     1.6        0.48     160.         2.201
     1.6        0.48     167.3        2.577
     1.7        0.        22.84       4.
     1.7        0.        27.16       4.002
     1.7        0.        34.44       3.487
     1.7        0.        38.79       3.34
     1.7        0.        46.04       3.047
     1.7        0.        56.17       2.754
     1.7        0.        67.69       2.907
     1.7        0.        77.74       3.206
     1.7        0.        87.78       3.58
     1.7        0.        97.88       3.509
     1.7        0.       106.5        3.734
     1.7        0.       118.1        3.369
     1.7        0.       126.8        3.15
     1.7        0.       134.         3.226
     1.7        0.       147.         3.083
     1.7        0.       152.6        3.677
     1.7        0.       167.         4.348
     1.7        0.48      23.01       4.609
     1.7        0.48      28.78       4.609
     1.7        0.48      34.56       4.684
     1.7        0.48      40.34       4.683
     1.7        0.48      46.1        4.456
     1.7        0.48      56.21       4.455
     1.7        0.48      67.74       4.227
     1.7        0.48      76.39       3.849
     1.7        0.48      87.93       3.546
     1.7        0.48      98.         2.942
     1.7        0.48     108.1        3.016
     1.7        0.48     118.2        2.638
     1.7        0.48     125.4        2.109
     1.7        0.48     135.5        2.032
     1.7        0.48     145.6        1.88
     1.7        0.48     155.7        1.879
     1.7        0.48     167.4        2.074
     1.8        0.        16.32       4.693
     1.8        0.        23.56       4.547
     1.8        0.        29.39       4.175
     1.8        0.        33.8        3.728
     1.8        0.        39.59       3.581
     1.8        0.        45.41       3.284
     1.8        0.        49.78       3.061
     1.8        0.        57.01       2.915
     1.8        0.        67.08       3.07
     1.8        0.        80.         3.375
     1.8        0.        90.03       3.755
     1.8        0.        97.28       3.533
     1.8        0.       108.8        3.689
     1.8        0.       116.         3.543
     1.8        0.       126.2        3.248
     1.8        0.       136.3        3.028
     1.8        0.       144.9        3.257
     1.8        0.       153.5        3.56
     1.8        0.       164.9        4.165
     1.8        0.48      24.51       4.997
     1.8        0.48      28.83       4.845
     1.8        0.48      34.59       4.466
     1.8        0.48      40.37       4.541
     1.8        0.48      44.7        4.465
     1.8        0.48      56.24       4.312
     1.8        0.48      66.33       3.933
     1.8        0.48      77.88       4.083
     1.8        0.48      87.97       3.703
     1.8        0.48      98.06       3.248
     1.8        0.48     108.2        3.095
     1.8        0.48     118.3        2.716
     1.8        0.48     126.9        2.412
     1.8        0.48     134.1        2.032
     1.8        0.48     142.8        2.032
     1.8        0.48     152.9        1.955
     1.8        0.48     165.9        2.029
     1.9        0.        17.11       4.453
     1.9        0.        21.43       4.456
     1.9        0.        27.22       4.383
     1.9        0.        33.06       4.008
     1.9        0.        37.5        3.481
     1.9        0.        43.28       3.408
     1.9        0.        54.88       3.112
     1.9        0.        64.98       3.042
     1.9        0.        76.44       3.427
     1.9        0.        86.45       3.812
     1.9        0.        98.         3.742
     1.9        0.       106.8        3.142
     1.9        0.       116.9        2.996
     1.9        0.       125.7        2.547
     1.9        0.       134.4        2.325
     1.9        0.       143.         2.406
     1.9        0.       153.         2.638
     1.9        0.       160.1        3.097
     1.9        0.       165.9        3.403
     1.9        0.48      17.9        4.728
     1.9        0.48      27.99       4.573
     1.9        0.48      32.33       4.648
     1.9        0.48      39.52       4.342
     1.9        0.48      45.3        4.417
     1.9        0.48      56.83       4.186
     1.9        0.48      68.37       4.107
     1.9        0.48      76.99       3.648
     1.9        0.48      87.07       3.342
     1.9        0.48      97.16       3.187
     1.9        0.48     105.8        2.348
     1.9        0.48     115.8        2.27
     1.9        0.48     125.9        1.963
     1.9        0.48     136.         1.656
     1.9        0.48     146.1        1.654
     1.9        0.48     153.4        1.88
     1.9        0.48     162.         2.107
     1.9        0.48     164.9        2.182
     2.         0.        18.1        5.404
     2.         0.        23.96       4.952
     2.         0.        29.74       4.88
     2.         0.        35.6        4.428
     2.         0.        39.97       4.203
     2.         0.        45.85       3.599
     2.         0.        57.42       3.454
     2.         0.        67.53       3.383
     2.         0.        79.         3.693
     2.         0.        90.43       4.23
     2.         0.        99.08       4.234
     2.         0.       107.9        3.557
     2.         0.       118.         3.183
     2.         0.       128.2        2.657
     2.         0.       135.5        2.206
     2.         0.       145.6        2.136
     2.         0.       155.7        2.445
     2.         0.       162.8        2.828
     2.         0.       167.1        2.982
     2.         0.48      16.08       4.964
     2.         0.48      21.85       4.963
     2.         0.48      27.61       4.731
     2.         0.48      33.38       4.499
     2.         0.48      39.15       4.422
     2.         0.48      44.91       4.036
     2.         0.48      53.56       3.881
     2.         0.48      66.54       3.571
     2.         0.48      76.65       3.57
     2.         0.48      86.73       3.183
     2.         0.48      96.83       3.028
     2.         0.48     106.9        2.487
     2.         0.48     118.4        2.101
     2.         0.48     127.1        1.868
     2.         0.48     134.3        1.559
     2.         0.48     144.4        1.635
     2.         0.48     153.1        1.865
     2.         0.48     161.8        2.095
     2.         0.48     166.1        2.326
     2.1        0.        18.17       4.981
     2.1        0.        22.5        4.983
     2.1        0.        28.32       4.685
     2.1        0.        34.13       4.463
     2.1        0.        39.94       4.165
     2.1        0.        45.81       3.568
     2.1        0.        57.35       3.573
     2.1        0.        67.47       3.428
     2.1        0.        78.95       3.733
     2.1        0.        88.98       4.113
     2.1        0.        97.63       4.117
     2.1        0.       109.2        3.747
     2.1        0.       118.         3.001
     2.1        0.       126.8        2.329
     2.1        0.       136.9        1.959
     2.1        0.       144.1        1.962
     2.1        0.       154.2        2.267
     2.1        0.       165.6        2.798
     2.1        0.48      16.47       4.891
     2.1        0.48      20.8        4.89
     2.1        0.48      28.02       4.889
     2.1        0.48      32.31       4.277
     2.1        0.48      38.08       4.2
     2.1        0.48      43.82       3.664
     2.1        0.48      55.36       3.509
     2.1        0.48      64.         3.278
     2.1        0.48      75.53       2.971
     2.1        0.48      85.63       2.74
     2.1        0.48      95.72       2.661
     2.1        0.48     105.8        2.278
     2.1        0.48     115.9        1.894
     2.1        0.48     124.5        1.51
     2.1        0.48     133.2        1.509
     2.1        0.48     143.3        1.431
     2.1        0.48     152.         1.658
     2.1        0.48     165.         2.115
     2.16       0.        15.41       4.487
     2.16       0.        19.73       4.49
     2.16       0.        26.98       4.342
     2.16       0.        31.34       4.193
     2.16       0.        37.17       3.893
     2.16       0.        43.03       3.516
     2.16       0.        54.62       3.296
     2.16       0.        64.73       3.226
     2.16       0.        76.15       3.69
     2.16       0.        87.64       3.925
     2.16       0.        96.32       3.779
     2.16       0.       106.4        3.633
     2.16       0.       116.7        2.879
     2.16       0.       125.5        2.125
     2.16       0.       134.3        1.826
     2.16       0.       142.9        1.908
     2.16       0.       153.         1.99
     2.16       0.       164.4        2.606
     2.16       0.48      16.26       5.059
     2.16       0.48      23.46       4.602
     2.16       0.48      27.78       4.297
     2.16       0.48      32.1        4.068
     2.16       0.48      37.86       3.839
     2.16       0.48      43.63       3.611
     2.16       0.48      55.16       3.229
     2.16       0.48      65.26       3.075
     2.16       0.48      76.8        2.922
     2.16       0.48      86.89       2.616
     2.16       0.48      96.98       2.311
     2.16       0.48     105.6        2.158
     2.16       0.48     115.7        1.776
     2.16       0.48     127.3        1.546
     2.16       0.48     135.9        1.393
     2.16       0.48     143.1        1.468
     2.16       0.48     151.8        1.62
     2.16       0.48     163.4        1.923
ENDDATA            495
ENDSUBENT          509
SUBENT        F0451003   19990410   19990429
BIB                  4          5
REACTION   (4-BE-9(D,A)3-LI-7,PAR,SIG,,,EXP)
ERR-ANALYS (EN-ERR) Digitizing error
           (DATA-ERR) Digitizing error
EN-SEC     (E-LVL,3-LI-7)
STATUS     (CURVE) fig 9
ENDBIB               5
COMMON               2          3
DATA-ERR   EN-ERR
PER-CENT   MEV
  10.       0.01
ENDCOMMON            3
DATA                 3         28
EN         E-LVL      DATA
MEV        MEV        MB
     0.8908     0.        22.82
     0.8967     0.48      21.37
     0.988      0.48      25.87
     0.9933     0.        28.1
     1.09       0.48      30.
     1.096      0.        30.16
     1.183      0.48      32.03
     1.198      0.        33.29
     1.295      0.48      34.05
     1.3        0.        35.35
     1.397      0.48      37.13
     1.403      0.        37.41
     1.489      0.48      36.
     1.494      0.        37.33
     1.592      0.48      41.18
     1.607      0.        42.6
     1.694      0.48      42.15
     1.709      0.        41.43
     1.786      0.48      43.13
     1.811      0.        41.34
     1.888      0.48      40.94
     1.903      0.        40.18
     1.99       0.48      38.76
     2.005      0.        42.24
     2.097      0.        43.03
     2.137      0.48      35.35
     2.168      0.        39.94
     2.235      0.48      32.86
ENDDATA             30
ENDSUBENT           44
SUBENT        F0451004   19990410   19990429
BIB                  4          6
REACTION   (4-BE-9(D,A)3-LI-7,PAR,DA,,LEG/RS,EXP)
ERR-ANALYS (EN-ERR) Digitizing error
           (DATA-ERR) Error from graphic bars(statistical) and
           digitizing error
EN-SEC     (E-LVL,3-LI-7)
STATUS     (CURVE) Fig 10, 11
ENDBIB               6
COMMON               1          3
EN-ERR
MEV
 0.01
ENDCOMMON            3
DATA                 5        176
EN         NUMBER     E-LVL      DATA-CM    DATA-ERR
MEV        NO-DIM     MEV        NO-DIM     NO-DIM
     0.8936     3.         0.        -0.1135 0.8205E-02
     0.898      6.         0.48      -0.0144 0.5453E-02
     0.9        4.         0.48       0.1427     0.0571
     0.9007     3.         0.48      -0.0905 0.5313E-02
     0.901      1.         0.        -0.3181 0.6011E-02
     0.9021     2.         0.         0.1286 0.5945E-02
     0.9023     4.         0.         0.0476 0.5988E-02
     0.9086     5.         0.        -0.0108 0.4453E-02
     0.9107     5.         0.48      -0.064      0.0551
     0.9183     1.         0.48       0.8575 0.6843E-02
     0.9193     2.         0.48       0.3004     0.0286
     0.9308     6.         0.         0.0742     0.0443
     0.9899     2.         0.48       0.4719     0.0286
     0.9924     3.         0.        -0.1702     0.0571
     0.9973     6.         0.48       0.0141 0.5453E-02
     0.9992     4.         0.48       0.0854     0.0286
     1.         3.         0.48      -0.0621 0.5313E-02
     1.001      4.         0.         0.0476 0.5988E-02
     1.007      5.         0.        -0.04   0.4453E-02
     1.01       5.         0.48       0.0189 0.6621E-02
     1.014      1.         0.        -0.2899     0.0422
     1.015      2.         0.         0.1429     0.0714
     1.015      6.         0.         0.0597 0.7285E-02
     1.018      1.         0.48       0.9148 0.6843E-02
     1.077      3.         0.        -0.2127     0.0286
     1.084      4.         0.48       0.0996     0.0857
     1.085      3.         0.48       0.0234     0.0856
     1.097      6.         0.48       0.114      0.0571
     1.098      1.         0.        -0.2335 0.6011E-02
     1.099      4.         0.         0.0619 0.5988E-02
     1.103      2.         0.48       0.5293     0.0714
     1.109      5.         0.48       0.088      0.0827
     1.113      2.         0.         0.2144 0.5945E-02
     1.117      1.         0.48       0.8436     0.0429
     1.119      5.         0.        -0.0836 0.4453E-02
     1.128      6.         0.         0.0894     0.0295
     1.183      4.         0.48      -0.0148     0.0714
     1.189      2.         0.48       0.458  0.6843E-02
     1.19       3.         0.        -0.198  0.8205E-02
     1.197      1.         0.        -0.1912     0.0563
     1.198      2.         0.         0.2001 0.5945E-02
     1.199      3.         0.48      -0.0908 0.5313E-02
     1.199      6.         0.         0.0454 0.7285E-02
     1.208      5.         0.48      -0.0359     0.0827
     1.21       6.         0.48      -0.0147 0.5453E-02
     1.212      4.         0.         0.119  0.5988E-02
     1.216      1.         0.48       0.8438 0.6843E-02
     1.218      5.         0.        -0.0843 0.4453E-02
     1.288      3.         0.        -0.1119 0.8205E-02
     1.294      5.         0.48      -0.0771     0.0551
     1.295      1.         0.        -0.1771 0.6011E-02
     1.296      2.         0.         0.2144 0.5945E-02
     1.297      4.         0.48      -0.0577     0.0571
     1.297      6.         0.         0.0898 0.7285E-02
     1.301      1.         0.48       0.8153 0.6843E-02
     1.302      2.         0.48       0.4439 0.6843E-02
     1.309      6.         0.48  -0.4493E-03 0.5453E-02
     1.311      4.         0.         0.1048 0.5988E-02
     1.312      3.         0.48      -0.1052     0.0571
     1.316      5.         0.        -0.1135 0.4453E-02
     1.386      3.         0.        -0.0543 0.8205E-02
     1.393      5.         0.48  -0.7989E-02 0.6621E-02
     1.395      4.         0.         0.1904 0.5988E-02
     1.396      4.         0.48       0.0279 0.5340E-02
     1.397      3.         0.48      -0.0625 0.5313E-02
     1.401      2.         0.48       0.4012 0.6843E-02
     1.408      1.         0.        -0.1207 0.6011E-02
     1.409      2.         0.         0.2287 0.5945E-02
     1.409      6.         0.48       0.0852 0.5453E-02
     1.41       6.         0.         0.0901     0.0443
     1.415      1.         0.48       0.8012     0.0714
     1.415      5.         0.        -0.0715 0.4453E-02
     1.485      3.         0.         0.0461 0.8205E-02
     1.492      5.         0.48      -0.0354     0.0276
     1.494      4.         0.         0.1761 0.5988E-02
     1.494      6.         0.         0.0165 0.7285E-02
     1.495      4.         0.48      -0.0151 0.5340E-02
     1.496      3.         0.48      -0.1196 0.5313E-02
     1.501      2.         0.48       0.23   0.6843E-02
     1.507      1.         0.        -0.0785     0.0704
     1.508      2.         0.         0.1859 0.5945E-02
     1.508      6.         0.48  -0.5991E-03 0.5453E-02
     1.514      1.         0.48       0.7443     0.0286
     1.514      5.         0.        -0.0722 0.4453E-02
     1.591      1.         0.        -0.0362 0.6011E-02
     1.592      4.         0.         0.1619 0.5988E-02
     1.596      3.         0.48      -0.1198 0.5313E-02
     1.597      3.         0.         0.0322 0.8205E-02
     1.6        2.         0.48       0.1302 0.6843E-02
     1.606      2.         0.         0.1288 0.5945E-02
     1.606      5.         0.48      -0.0903 0.6621E-02
     1.607      6.         0.     0.2022E-02 0.7285E-02
     1.609      4.         0.48      -0.0295 0.5340E-02
     1.612      5.         0.        -0.0872 0.4453E-02
     1.614      1.         0.48       0.6159 0.6843E-02
     1.621      6.         0.48       0.0565     0.0571
     1.689      1.         0.        -0.022  0.6011E-02
     1.692      6.         0.48       0.0993 0.5453E-02
     1.695      3.         0.         0.1326     0.0428
     1.699      1.         0.48       0.516  0.6843E-02
     1.7        2.         0.48   0.1765E-02 0.6843E-02
     1.705      2.         0.         0.1145 0.5945E-02
     1.705      4.         0.         0.2903     0.0428
     1.705      5.         0.48      -0.0212 0.6621E-02
     1.706      6.         0.         0.0613 0.7285E-02
     1.708      4.         0.48       0.0276 0.5340E-02
     1.709      3.         0.48      -0.0771 0.5313E-02
     1.711      5.         0.        -0.1021 0.4453E-02
     1.775      4.         0.         0.2761     0.0856
     1.776      5.         0.48       0.0478 0.6621E-02
     1.78       3.         0.         0.2187     0.0714
     1.791      6.         0.48       0.042  0.5453E-02
     1.793      4.         0.48       0.0847 0.5340E-02
     1.799      2.         0.48      -0.0123     0.0571
     1.802      1.         0.         0.0343     0.0422
     1.804      2.         0.         0.1145     0.0571
     1.804      6.         0.         0.091  0.7285E-02
     1.809      3.         0.48       0.0369 0.5313E-02
     1.812      1.         0.48       0.502  0.6843E-02
     1.824      5.         0.        -0.0887     0.057
     1.878      3.         0.         0.1334 0.8205E-02
     1.887      1.         0.         0.2174 0.6011E-02
     1.888      2.         0.         0.0431 0.5945E-02
     1.888      4.         0.         0.3474     0.0428
     1.889      5.         0.48      -0.0209 0.6621E-02
     1.893      4.         0.48       0.0703 0.5340E-02
     1.898      2.         0.48      -0.0407     0.0429
     1.905      6.         0.48       0.042  0.5453E-02
     1.908      3.         0.48      -0.1343 0.5313E-02
     1.908      5.         0.        -0.1036     0.0428
     1.912      1.         0.48       0.5164 0.6843E-02
     1.917      6.         0.     0.2727E-02 0.7285E-02
     1.977      3.         0.         0.2195 0.8205E-02
     1.987      4.         0.         0.3902     0.0285
     1.988      5.         0.48      -0.0207     0.0551
     1.997      1.         0.48       0.5451 0.6843E-02
     1.999      1.         0.         0.3019 0.6011E-02
     2.001      2.         0.     0.2813E-03 0.5945E-02
     2.004      6.         0.48       0.0562 0.5453E-02
     2.006      4.         0.48       0.1702 0.5340E-02
     2.007      3.         0.48      -0.0203     0.0713
     2.012      2.         0.48       0.0738 0.6843E-02
     2.015      6.         0.         0.0177     0.0443
     2.021      5.         0.        -0.0759     0.0285
     2.076      3.         0.         0.177  0.8205E-02
     2.084      1.         0.         0.3442 0.6011E-02
     2.085      4.         0.         0.376      0.0428
     2.097      2.         0.48       0.1453 0.6843E-02
     2.099      2.         0.        -0.0854 0.5945E-02
     2.1        6.         0.        -0.0116 0.7285E-02
     2.102      5.         0.48      -0.0619 0.6621E-02
     2.103      6.         0.48       0.0275 0.5453E-02
     2.105      4.         0.48       0.1843 0.5340E-02
     2.106      3.         0.48       0.0651     0.0571
     2.119      5.         0.        -0.1621     0.0428
     2.124      1.         0.48       0.5882 0.6843E-02
     2.146      3.         0.         0.1487 0.8205E-02
     2.158      5.         0.48   0.7153E-02 0.6621E-02
     2.162      4.         0.48       0.1986 0.5340E-02
     2.168      2.         0.48       0.1883 0.6843E-02
     2.17       6.         0.        -0.0262     0.0146
     2.174      6.         0.48       0.0703 0.5453E-02
     2.175      5.         0.        -0.191      0.0429
     2.177      3.         0.48       0.065  0.5313E-02
     2.181      1.         0.48       0.6169 0.6843E-02
     2.226      4.         0.         0.4331 0.5988E-02
     2.23       3.         0.         0.1919 0.8205E-02
     2.239      1.         0.         0.3865 0.6011E-02
     2.245      5.         0.        -0.2058     0.0284
     2.247      4.         0.48       0.2271     0.0429
     2.254      2.         0.        -0.1139 0.5945E-02
     2.258      5.         0.48       0.0349 0.6621E-02
     2.26       6.         0.48       0.0988     0.0286
     2.262      3.         0.48       0.065  0.5313E-02
     2.266      1.         0.48       0.6885 0.6843E-02
     2.267      2.         0.48       0.2314 0.6843E-02
ENDDATA            178
ENDSUBENT          193
ENDENTRY             4
