ENTRY            F0465   20220609   20230023   20221219       F093
SUBENT        F0465001   20220609   20230023   20221219       F093
BIB                 10         18
TITLE      Reaction mechanism for the 11B(alpha,n)14N reaction
AUTHOR     (G.S.Mani,G.C.Dutt)
INSTITUTE  (2UK MAN)
REFERENCE  (J,NP,78,613,1966)
FACILITY   (VDG,2UK MAN)
SAMPLE     The target was 99% enriched 11B on thick gold
           backing 30 mg/cm**2
METHOD     (TOF,BCINT)
DETECTOR   (SCIN) NE213 liquid scintillator
ERR-ANALYS (ERR-1) The uncertainty in the absolute efficiency of
           the neutron detector
           (ERR-T) Total error. The major errors in the
           determination of the absolute cross section came from
           the errors in the value of the target thickness and
           in the knowledge of the absolute efficiency. The mean
           error in the cross section evaluation =20%.
HISTORY    (19920925C)
           (20220609A) SD: Corrections in all Subents.
ENDBIB              18
COMMON               1          3
ERR-1
PER-CENT
  6.0
ENDCOMMON            3
ENDSUBENT           25
SUBENT        F0465002   20220609   20230023   20221219       F093
BIB                  3          4
REACTION   (5-B-11(A,N)7-N-14,PAR,DA)
STATUS     (CURVE) Fig.1,2 from Nucl.Phys.,78(1966)613
HISTORY    (20220609A) SD: SF9=EXP deleted from REACTION code.
           EN-ERR -> EN-ERR-DIG; DATA-ERR -> ERR-T.
ENDBIB               4
COMMON               2          3
ANG        EN-ERR-DIG
ADEG       MEV
 0.         0.004
ENDCOMMON            3
DATA                 4        134
E-LVL      EN         DATA       ERR-T
MEV        MEV        MB/SR      MB/SR
         0.      2.389      0.125      0.030
         0.      2.420      0.130      0.035
         0.      2.450      0.140      0.030
         0.      2.511      0.160      0.035
         0.      2.549      0.206      0.040
         0.      2.580      0.256      0.030
         0.      2.603      0.332      0.030
         0.      2.633      0.807      0.045
         0.      2.641      1.029      0.040
         0.      2.672      0.392      0.035
         0.      2.710      0.286      0.030
         0.      2.725      0.211      0.040
         0.      2.779      0.160      0.035
         0.      2.824      0.155      0.040
         0.      2.878      0.175      0.035
         0.      2.901      0.190      0.030
         0.      2.916      0.190      0.035
         0.      2.947      0.221      0.030
         0.      2.969      0.256      0.035
         0.      3.000      0.322      0.030
         0.      3.015      0.327      0.040
         0.      3.046      0.251      0.030
         0.      3.061      0.211      0.035
         0.      3.099      0.231      0.035
         0.      3.137      0.271      0.035
         0.      3.168      0.347      0.030
         0.      3.168      0.286      0.025
         0.      3.191      0.302      0.040
         0.      3.237      0.367      0.040
         0.      3.259      0.918      0.045
         0.      3.290      0.438      0.040
         0.      3.298      0.357      0.035
         0.      3.320      0.317      0.040
         0.      3.336      0.357      0.030
         0.      3.359      0.377      0.045
         0.      3.397      0.433      0.040
         0.      3.481      0.458      0.030
         0.      3.496      0.478      0.035
         0.      3.504      0.478      0.035
         0.      3.526      0.534      0.030
         0.      3.542      0.519      0.025
         0.      3.549      0.519      0.030
         0.      3.557      0.549      0.030
         0.      3.572      0.549      0.020
         0.      3.572      0.579      0.040
         0.      3.587      1.256      0.051
         0.      3.595      0.660      0.030
         0.      3.603      0.746      0.035
         0.      3.618      0.574      0.045
         0.      3.649      0.615      0.020
         0.      3.649      0.650      0.035
         0.      3.656      0.625      0.025
         0.      3.656      0.615      0.040
         0.      3.671      0.640      0.025
         0.      3.687      0.701      0.035
         0.      3.710      0.776      0.040
         0.      3.740      0.938      0.035
         0.      3.755      1.044      0.040
         0.      3.786      0.852      0.002
         0.      3.801      0.665      0.056
         0.      3.824      0.640      0.045
         0.      3.847      0.590      0.040
         0.      3.870      0.625      0.030
         0.      3.901      0.620      0.045
         0.      3.923      0.782      0.035
         0.      3.938      1.039      0.045
         0.      3.969      1.024      0.040
         0.      3.984      0.989      0.051
         0.      4.000      0.958      0.051
         0.      4.038      0.883      0.040
         0.      4.053      0.837      0.045
         0.      4.084      0.842      0.035
         0.      4.099      0.822      0.051
         0.      4.122      0.812      0.045
         0.      4.145      0.792      0.035
         0.      4.183      0.721      0.045
         0.      4.206      0.893      0.030
         0.      4.221      0.862      0.040
         0.      4.252      0.842      0.040
         0.      4.274      0.918      0.035
         0.      4.290      1.090      0.051
         0.      4.320      1.049      0.040
         0.      4.335      0.933      0.040
         0.      4.358      0.862      0.040
         0.      4.381      0.837      0.035
         0.      4.412      0.812      0.030
       2.31      3.451      0.147      0.021
       2.31      3.481      0.147      0.021
       2.31      3.497      0.147      0.224
       2.31      3.512      0.221      0.021
       2.31      3.551      0.333      0.021
       2.31      3.559      0.482      0.021
       2.31      3.574      0.519      0.021
       2.31      3.582      0.594      0.021
       2.31      3.605      0.594      0.021
       2.31      3.605      0.743      0.021
       2.31      3.621      0.743      0.021
       2.31      3.621      0.631      0.021
       2.31      3.644      0.818      0.021
       2.31      3.644      0.930      0.112
       2.31      3.667      0.967      0.021
       2.31      3.690      1.191      0.021
       2.31      3.714      1.116      0.021
       2.31      3.737      1.302      0.021
       2.31      3.760      1.414      0.021
       2.31      3.783      1.489      0.261
       2.31      3.799      1.563      0.021
       2.31      3.829      1.563      0.021
       2.31      3.853      1.638      0.224
       2.31      3.876      1.749      0.149
       2.31      3.899      1.786      0.187
       2.31      3.930      2.047      0.187
       2.31      3.946      2.047      0.187
       2.31      3.977      2.047      0.021
       2.31      4.000      2.047      0.021
       2.31      4.023      2.196      0.187
       2.31      4.046      2.234      0.187
       2.31      4.069      2.345      0.224
       2.31      4.085      2.271      0.021
       2.31      4.116      2.457      0.021
       2.31      4.154      2.532      0.021
       2.31      4.162      2.681      0.021
       2.31      4.193      3.091      0.021
       2.31      4.208      2.345      0.224
       2.31      4.239      2.606      0.021
       2.31      4.262      2.382      0.021
       2.31      4.263      2.717      0.021
       2.31      4.286      3.165      0.021
       2.31      4.309      3.389      0.021
       2.31      4.332      3.053      0.224
       2.31      4.363      2.680      0.021
       2.31      4.378      2.381      0.021
       2.31      4.402      1.859      0.224
       2.31      4.417      1.747      0.224
ENDDATA            136
ENDSUBENT          149
ENDENTRY             2
