ENTRY            F0468   19990410   19990429
SUBENT        F0468001   19990410   19990429
BIB                  9         15
TITLE      A study of the 11B(3He,p)13C reaction at 12,10,8,6 and
           4 MeV.
AUTHOR     (R.R.WU,R.L.DANGLE,M.M.DUNCAN,J.L.DUGGAN,P.D.MILLER,
           JUNG LIN)
INSTITUTE  (1USAGEO,1USAORL)
REFERENCE  (J,NP/A,199,23,197301)
SAMPLE     Self - supporting 11B enriched targets were ranged in
           thickness 25 mu-g/cm**2 to 50 mu-g/cm**2
METHOD     (EDE)
FACILITY   (VDG,1USAGEO) For 8 MeV measurements
           (VDG,1USAORL) For the other measurements
DETECTOR   (SOLST) Combination of E-detectors of thickness 2000
           and 300 mm with deltaE-detectors of thickness 1000,400
           and 250 mm were used.
HISTORY    (19920911C)
ENDBIB              15
NOCOMMON
ENDSUBENT           18
SUBENT        F0468002   19990410   19990429
BIB                  4          7
REACTION   (5-B-11(HE3,P)6-C-13,PAR,DA,,,EXP)
ERR-ANALYS (ANG-ERR) Digitizing error
           (DATA-ERR) From graphic bars (statistic errors and
           uncertainty in background) and digitizing error
           The errors range from 5% for p0 to 16% for p7.
EN-SEC     (E-LVL,6-C-13)
STATUS     (CURVE) Fig.2
ENDBIB               7
COMMON               1          3
ANG-ERR
ADEG
  1.
ENDCOMMON            3
DATA                 5        736
EN         E-LVL      ANG-CM     DATA-CM    DATA-ERR
MEV        MEV        ADEG       MB/SR      MB/SR
     4.         0.         1.98       0.8567     0.0187
     4.         0.         4.124      0.8238     0.018
     4.         0.         6.287      0.8556     0.0187
     4.         0.         9.508      0.8224     0.018
     4.         0.        14.87       0.7602     0.0166
     4.         0.        20.23       0.6762     0.0148
     4.         0.        25.57       0.5568     0.0122
     4.         0.        29.85       0.4954     0.0108
     4.         0.        35.19       0.424  0.9265E-02
     4.         0.        43.75       0.3356 0.7334E-02
     4.         0.        55.6        0.3476 0.7595E-02
     4.         0.        66.34       0.3086 0.6744E-02
     4.         0.        76.03       0.3077 0.6724E-02
     4.         0.        85.76       0.3579 0.7821E-02
     4.         0.        95.42       0.3179 0.6947E-02
     4.         3.09       1.501      0.1607 0.5617E-02
     4.         3.09       4.753      0.1665 0.5820E-02
     4.         3.09       6.914      0.1664 0.5816E-02
     4.         3.09      10.19       0.1855 0.6483E-02
     4.         3.09      14.49       0.1722 0.6019E-02
     4.         3.09      20.98       0.1782 0.6231E-02
     4.         3.09      25.31       0.178  0.6223E-02
     4.         3.09      30.71       0.1777 0.6213E-02
     4.         3.09      46.92       0.1769 0.6184E-02
     4.         3.09      57.7        0.1581 0.5525E-02
     4.         3.09      67.43       0.1576 0.5509E-02
     4.         3.09      77.1        0.1262 0.4413E-02
     4.         3.09      86.82       0.1214 0.4243E-02
     4.         3.09      97.64       0.1255 0.4387E-02
     4.         3.68       3.129      0.5359     0.0805
     4.         3.68       5.119      0.5357     0.0806
     4.         3.68       7.095      0.4992     0.1166
     4.         3.68      11.08       0.5166     0.0989
     4.         3.68      16.05       0.516      0.0775
     4.         3.68      21.01       0.4641     0.0887
     4.         3.68      24.97       0.4175     0.0626
     4.         3.68      31.92       0.3887     0.0585
     4.         3.68      36.88       0.3749     0.0717
     4.         3.68      46.78       0.2928     0.0559
     4.         3.68      58.71       0.282      0.0539
     4.         3.68      68.63       0.2447     0.0367
     4.         3.68      77.59       0.2529     0.0483
     4.         3.68      88.55       0.2802     0.0536
     4.         3.68      97.51       0.2999     0.045
     4.         3.85       4.551      0.4988     0.0736
     4.         3.85       6.573      0.5153     0.0756
     4.         3.85       9.548      0.4968     0.0932
     4.         3.85      12.52       0.479      0.0899
     4.         3.85      17.54       0.4937     0.0926
     4.         3.85      22.49       0.4592     0.1047
     4.         3.85      27.4        0.3988     0.0909
     4.         3.85      33.35       0.3707     0.0692
     4.         3.85      39.32       0.3565     0.0526
     4.         3.85      48.15       0.2785     0.052
     4.         3.85      60.14       0.2759     0.0407
     4.         3.85      70.04       0.2387     0.0446
     4.         3.85      80.06       0.245      0.0455
     4.         3.85      90.1        0.2603     0.0384
     4.         3.85     100.2        0.2862     0.0534
     4.         6.86       5.989      0.1475     0.0228
     4.         6.86       8.15       0.1582     0.031
     4.         6.86      12.38       0.1577     0.0309
     4.         6.86      17.67       0.1571     0.0243
     4.         6.86      22.98       0.1622     0.025
     4.         6.86      28.2        0.1452     0.0284
     4.         6.86      33.49       0.1446     0.0283
     4.         6.86      38.82       0.1547     0.0238
     4.         6.86      50.52       0.1708     0.0335
     4.         6.86      59.97       0.1523     0.0234
     4.         6.86      70.62       0.1683     0.0258
     4.         6.86      80.09       0.1556     0.0305
     4.         6.86      91.86       0.1863     0.0376
     4.         6.86     101.4        0.204      0.04
     4.         7.68       2.695      0.2356     0.0564
     4.         7.68       4.812      0.2528     0.0605
     4.         7.68       7.952      0.2615     0.0626
     4.         7.68      11.09       0.2705     0.0648
     4.         7.68      16.31       0.2795     0.0669
     4.         7.68      21.46       0.2503     0.0712
     4.         7.68      27.7        0.2493     0.0597
     4.         7.68      32.96       0.2767     0.0664
     4.         7.68      37.12       0.276      0.0538
     4.         7.68      48.5        0.2376     0.0465
     4.         7.68      58.9        0.2361     0.0461
     4.         7.68      69.21       0.1962     0.047
     4.         7.68      79.69       0.2249     0.0537
     4.         7.68      91.23       0.2671     0.0641
     4.         7.68     100.6        0.2473     0.0592
     4.         9.5        3.629      0.2236     0.0237
     4.         9.5        6.476      0.2312     0.0422
     4.         9.5        7.424      0.2162     0.031
     4.         9.5       11.22       0.2022     0.0369
     4.         9.5       16.91       0.1955     0.0357
     4.         9.5       21.66       0.189      0.0345
     4.         9.5       27.35       0.1546     0.0344
     4.         9.5       33.04       0.1352     0.0194
     4.         9.5       38.73       0.1033     0.0148
     4.         9.5       49.17       0.0934     0.0208
     4.         9.5       59.61       0.0903     0.0165
     4.         9.5       68.93       0.0889     0.0159
     4.         9.5       80.49       0.079      0.0144
     4.         9.5       89.97       0.0714     0.0103
     4.         9.5      100.4        0.0789     0.0113
     4.         9.9        4.467      0.7855     0.0329
     4.         9.9        6.348      0.8342     0.035
     4.         9.9        8.221      0.8093     0.0339
     4.         9.9       11.03       0.7392     0.031
     4.         9.9       16.64       0.6549     0.0275
     4.         9.9       21.33       0.6163     0.0258
     4.         9.9       27.88       0.546      0.0229
     4.         9.9       32.55       0.442      0.0185
     4.         9.9       38.18       0.4286     0.018
     4.         9.9       48.49       0.3912     0.0164
     4.         9.9       58.79       0.3362     0.0141
     4.         9.9       70.04       0.2977     0.0125
     4.         9.9       80.37       0.3458     0.0145
     4.         9.9       89.74       0.3156     0.0132
     6.         0.         3.882      0.9988     0.0215
     6.         0.         7.101      0.9599     0.0207
     6.         0.         9.265      0.9968     0.0215
     6.         0.        10.35       1.036      0.0223
     6.         0.        11.41       0.9584     0.0207
     6.         0.        13.55       0.9214     0.0199
     6.         0.        16.77       0.8855     0.0191
     6.         0.        18.94       0.9557     0.0206
     6.         0.        20.         0.8844     0.0191
     6.         0.        25.35       0.7863     0.017
     6.         0.        30.71       0.7265     0.0157
     6.         0.        33.94       0.7257     0.0157
     6.         0.        36.07       0.6713     0.0145
     6.         0.        41.44       0.6446     0.0139
     6.         0.        45.72       0.5734     0.0124
     6.         0.        51.06       0.5097     0.011
     6.         0.        56.43       0.471      0.0102
     6.         0.        60.69       0.4031 0.8695E-02
     6.         0.        68.15       0.3069 0.6621E-02
     6.         0.        72.46       0.3185 0.6870E-02
     6.         0.        76.72       0.2725 0.5880E-02
     6.         0.        83.17       0.2616 0.5644E-02
     6.         0.        87.48       0.2612 0.5635E-02
     6.         0.        92.81       0.215  0.4638E-02
     6.         0.        97.15       0.241  0.5198E-02
     6.         0.       101.4        0.2062 0.4448E-02
     6.         0.       105.7        0.1834 0.3956E-02
     6.         3.09       3.773      0.0578 0.2082E-02
     6.         3.09       5.976      0.0693 0.2497E-02
     6.         3.09       8.162      0.0773 0.2784E-02
     6.         3.09      10.29       0.0668 0.2405E-02
     6.         3.09      11.45       0.0927 0.3338E-02
     6.         3.09      14.65       0.0772 0.2780E-02
     6.         3.09      16.82       0.08   0.2881E-02
     6.         3.09      17.92       0.0892 0.3213E-02
     6.         3.09      21.19       0.0994 0.3582E-02
     6.         3.09      25.51       0.0958 0.3450E-02
     6.         3.09      32.02       0.1106 0.3985E-02
     6.         3.09      34.2        0.1189 0.4285E-02
     6.         3.09      37.46       0.1278 0.4605E-02
     6.         3.09      41.76       0.1145 0.4123E-02
     6.         3.09      48.29       0.1422 0.5123E-02
     6.         3.09      52.63       0.1528 0.5505E-02
     6.         3.09      58.06       0.1641 0.5913E-02
     6.         3.09      64.54       0.1639 0.5903E-02
     6.         3.09      68.88       0.1761 0.6343E-02
     6.         3.09      74.29       0.1824 0.6569E-02
     6.         3.09      78.59       0.1633 0.5882E-02
     6.         3.09      84.         0.163  0.5873E-02
     6.         3.09      89.4        0.1628 0.5865E-02
     6.         3.09      93.72       0.1626 0.5859E-02
     6.         3.09      98.03       0.151  0.5440E-02
     6.         3.09     103.4        0.1454 0.5238E-02
     6.         3.09     108.8        0.145  0.4863E-02
     6.         3.68       4.415      0.3492     0.0537
     6.         3.68       6.411      0.3618     0.0708
     6.         3.68       8.393      0.3489     0.0537
     6.         3.68       9.381      0.3366     0.0659
     6.         3.68      12.36       0.3245     0.0777
     6.         3.68      13.33       0.2812     0.0551
     6.         3.68      16.3        0.2616     0.0625
     6.         3.68      18.3        0.2809     0.0432
     6.         3.68      20.3        0.3016     0.0591
     6.         3.68      25.26       0.2804     0.0671
     6.         3.68      32.24       0.3007     0.0589
     6.         3.68      34.22       0.3006     0.0719
     6.         3.68      37.2        0.2898     0.0446
     6.         3.68      42.19       0.3109     0.061
     6.         3.68      48.14       0.2891     0.0566
     6.         3.68      52.11       0.2786     0.0429
     6.         3.68      57.07       0.25       0.0489
     6.         3.68      63.03       0.2409     0.037
     6.         3.68      66.99       0.224      0.0439
     6.         3.68      72.95       0.2158     0.0245
     6.         3.68      78.92       0.2156     0.0332
     6.         3.68      82.92       0.2397     0.0469
     6.         3.68      88.89       0.2481     0.0382
     6.         3.68      93.86       0.2478     0.0281
     6.         3.68      98.84       0.2565     0.0502
     6.         3.68     103.8        0.2562     0.0394
     6.         3.68     108.8        0.247      0.0484
     6.         3.85       5.525      0.2912     0.057
     6.         3.85       7.548      0.3013     0.0463
     6.         3.85       9.546      0.3008     0.0589
     6.         3.85      11.59       0.3225     0.0496
     6.         3.85      13.52       0.2892     0.0566
     6.         3.85      15.52       0.2888     0.0568
     6.         3.85      18.49       0.2779     0.0544
     6.         3.85      20.49       0.2774     0.0664
     6.         3.85      22.47       0.2672     0.0639
     6.         3.85      27.44       0.2567     0.0395
     6.         3.85      33.46       0.2647     0.0518
     6.         3.85      36.46       0.2641     0.0299
     6.         3.85      38.45       0.2636     0.0405
     6.         3.85      44.45       0.2623     0.0513
     6.         3.85      49.47       0.2706     0.0416
     6.         3.85      54.49       0.2793     0.0429
     6.         3.85      59.51       0.2882     0.0564
     6.         3.85      65.6        0.3308     0.0505
     6.         3.85      70.57       0.3178     0.0489
     6.         3.85      75.64       0.3523     0.0689
     6.         3.85      81.68       0.3765     0.043
     6.         3.85      85.68       0.3752     0.0425
     6.         3.85      90.68       0.3736     0.0574
     6.         3.85      95.68       0.372      0.0421
     6.         3.85     100.7        0.3574     0.0549
     6.         3.85     105.7        0.3689     0.0722
     6.         3.85     110.7        0.3945     0.0447
     6.         6.86       5.845      0.4346     0.02
     6.         6.86       9.018      0.4336     0.02
     6.         6.86      10.08       0.4332     0.02
     6.         6.86      12.19       0.4325     0.02
     6.         6.86      14.23       0.3897     0.018
     6.         6.86      16.4        0.4166     0.0192
     6.         6.86      17.38       0.3757     0.0173
     6.         6.86      19.49       0.3751     0.0173
     6.         6.86      22.64       0.3616     0.0167
     6.         6.86      27.75       0.2834     0.0131
     6.         6.86      35.97       0.2    0.9222E-02
     6.         6.86      38.08       0.1996 0.9207E-02
     6.         6.86      44.35       0.1793 0.8268E-02
     6.         6.86      49.54       0.1557 0.7181E-02
     6.         6.86      55.88       0.155      0.0289
     6.         6.86      61.1        0.1393     0.0206
     6.         6.86      66.44       0.1486     0.0219
     6.         6.86      70.72       0.1586     0.0233
     6.         6.86      76.05       0.1691     0.0183
     6.         6.86      82.37       0.1626     0.0239
     6.         6.86      87.64       0.1565     0.0231
     6.         6.86      91.92       0.1671     0.0312
     6.         6.86      97.18       0.1608     0.0237
     6.         6.86     101.4        0.1659     0.0243
     6.         6.86     106.8        0.1831     0.0342
     6.         6.86     112.1        0.1887     0.0277
     6.         7.68       5.061      0.3861     0.0948
     6.         7.68       6.137      0.4151     0.1022
     6.         7.68       8.236      0.43       0.0863
     6.         7.68      10.34       0.4455     0.1093
     6.         7.68      12.38       0.4135     0.121
     6.         7.68      20.63       0.3555     0.0872
     6.         7.68      26.77       0.2843     0.0698
     6.         7.68      34.9        0.1892     0.038
     6.         7.68      48.39       0.1744     0.0275
     6.         7.68      54.52       0.1395     0.0281
     6.         7.68      59.69       0.1293     0.0205
     6.         7.68      64.86       0.1198     0.0241
     6.         7.68      71.17       0.1381     0.0277
     6.         7.68      75.37       0.1482     0.0364
     6.         7.68      80.59       0.1533     0.0376
     6.         7.68      84.77       0.1586     0.0318
     6.         7.68      91.07       0.1763     0.0279
     6.         7.68      95.23       0.1759     0.0277
     6.         7.68     101.4        0.1628     0.0327
     6.         7.68     104.6        0.1881     0.0376
     6.         7.68     109.8        0.1681     0.0411
     6.         9.5        5.728      0.1252 0.5344E-02
     6.         9.5        7.626      0.1252 0.5344E-02
     6.         9.5        9.517      0.1137 0.4851E-02
     6.         9.5       11.42       0.1212 0.5173E-02
     6.         9.5       14.27       0.1335 0.5696E-02
     6.         9.5       15.22       0.1334 0.5695E-02
     6.         9.5       18.08       0.1469 0.6271E-02
     6.         9.5       19.97       0.1423 0.6072E-02
     6.         9.5       22.83       0.1566 0.6686E-02
     6.         9.5       27.58       0.1725 0.7361E-02
     6.         9.5       34.22       0.1838 0.7846E-02
     6.         9.5       36.13       0.196  0.8367E-02
     6.         9.5       38.97       0.196  0.8365E-02
     6.         9.5       44.67       0.2157 0.9209E-02
     6.         9.5       50.37       0.23   0.9816E-02
     6.         9.5       56.07       0.2374     0.0101
     6.         9.5       60.82       0.2451     0.0105
     6.         9.5       65.55       0.2224 0.9494E-02
     6.         9.5       71.25       0.2153 0.9189E-02
     6.         9.5       76.         0.2295 0.9796E-02
     6.         9.5       80.73       0.2017 0.8609E-02
     6.         9.5       86.43       0.215  0.9177E-02
     6.         9.5       91.16       0.183  0.7810E-02
     6.         9.5       96.85       0.1715 0.7320E-02
     6.         9.5      100.6        0.1507 0.6433E-02
     6.         9.5      106.3        0.1507 0.6430E-02
     6.         9.5      111.1        0.1324 0.5651E-02
     6.         9.9        6.603      0.556      0.0198
     6.         9.9        9.406      0.5131     0.0183
     6.         9.9       10.36       0.5862     0.0209
     6.         9.9       13.16       0.5129     0.0183
     6.         9.9       15.96       0.5266     0.0188
     6.         9.9       15.98       0.4861     0.0173
     6.         9.9       18.77       0.4732     0.0169
     6.         9.9       20.64       0.4252     0.0152
     6.         9.9       23.43       0.3821     0.0136
     6.         9.9       29.05       0.3525     0.0126
     6.         9.9       34.66       0.3083     0.011
     6.         9.9       39.35       0.3001     0.0107
     6.         9.9       45.9        0.2768 0.9873E-02
     6.         9.9       50.6        0.2919     0.0104
     6.         9.9       55.28       0.2693 0.9604E-02
     6.         9.9       60.89       0.2484 0.8860E-02
     6.         9.9       66.51       0.2292 0.8175E-02
     6.         9.9       71.19       0.2172 0.7746E-02
     6.         9.9       75.88       0.2171 0.7742E-02
     6.         9.9       81.5        0.195  0.6955E-02
     6.         9.9       86.19       0.2056 0.7332E-02
     6.         9.9       91.8        0.1751 0.6245E-02
     6.         9.9       95.54       0.1616 0.5762E-02
     6.         9.9      100.2        0.1703 0.6075E-02
     6.         9.9      104.9        0.2052 0.7318E-02
     6.         9.9      110.6        0.1893 0.6751E-02
     8.         0.         4.545      0.4989     0.0611
     8.         0.         7.812      0.5593     0.0121
     8.         0.         9.941      0.5174     0.0112
     8.         0.        13.19       0.558      0.0121
     8.         0.        15.32       0.5162     0.0111
     8.         0.        17.45       0.4775     0.0103
     8.         0.        20.68       0.4769     0.0103
     8.         0.        26.07       0.4759     0.0103
     8.         0.        31.45       0.4748     0.0103
     8.         0.        35.71       0.4063 0.8779E-02
     8.         0.        42.15       0.39   0.8425E-02
     8.         0.        47.45       0.2972 0.6420E-02
     8.         0.        51.73       0.2747 0.5934E-02
     8.         0.        58.1        0.2013 0.4349E-02
     8.         0.        62.32       0.1535 0.3316E-02
     8.         0.        66.54       0.117  0.2528E-02
     8.         0.        72.94       0.0962 0.2080E-02
     8.         0.        78.26       0.0792 0.1712E-02
     8.         0.        83.68       0.0887 0.1917E-02
     8.         0.        92.38       0.1158 0.2501E-02
     8.         0.       103.2        0.1198 0.2588E-02
     8.         3.09       7.415      0.0895 0.3368E-02
     8.         3.09      10.65       0.0862 0.3245E-02
     8.         3.09      12.8        0.0801 0.3015E-02
     8.         3.09      16.01       0.0692 0.2604E-02
     8.         3.09      18.18       0.0692 0.2603E-02
     8.         3.09      21.42       0.0691 0.2601E-02
     8.         3.09      27.9        0.069  0.2597E-02
     8.         3.09      32.22       0.0665 0.2502E-02
     8.         3.09      37.63       0.0664 0.2499E-02
     8.         3.09      43.06       0.0768 0.2888E-02
     8.         3.09      47.37       0.0739 0.2782E-02
     8.         3.09      53.84       0.0662 0.2490E-02
     8.         3.09      58.15       0.0615 0.2313E-02
     8.         3.09      63.57       0.0661 0.2485E-02
     8.         3.09      67.89       0.066  0.2483E-02
     8.         3.09      73.27       0.0591 0.2223E-02
     8.         3.09      78.71       0.0708 0.2665E-02
     8.         3.09      84.12       0.0707 0.2662E-02
     8.         3.09      93.83       0.0656 0.2470E-02
     8.         3.09     103.5        0.0489 0.1841E-02
     8.         3.09     114.3        0.0525 0.1975E-02
     8.         3.68       4.752      0.337      0.0518
     8.         3.68       8.696      0.2815     0.0319
     8.         3.68      10.67       0.262      0.0627
     8.         3.68      12.67       0.2813     0.0432
     8.         3.68      15.66       0.2811     0.055
     8.         3.68      18.66       0.3017     0.0591
     8.         3.68      21.65       0.3124     0.0354
     8.         3.68      27.65       0.3867     0.0596
     8.         3.68      32.64       0.4148     0.0638
     8.         3.68      38.59       0.3856     0.0593
     8.         3.68      43.58       0.4137     0.0468
     8.         3.68      48.54       0.3847     0.0592
     8.         3.68      52.49       0.3331     0.0512
     8.         3.68      59.42       0.2781 0.7189E-02
     8.         3.68      64.38       0.268      0.0413
     8.         3.68      69.34       0.2405     0.0576
     8.         3.68      74.31       0.2402 0.6208E-02
     8.         3.68      79.25       0.2079     0.032
     8.         3.68      84.24       0.2231     0.0253
     8.         3.68      94.13       0.1672     0.0257
     8.         3.68     104.1        0.222      0.0341
     8.         3.68     114.1        0.2465     0.0379
     8.         3.85       6.144      0.1869     0.0281
     8.         3.85       9.163      0.1932     0.0215
     8.         3.85      11.27       0.2297     0.0439
     8.         3.85      14.36       0.2636     0.0294
     8.         3.85      17.38       0.2724     0.0409
     8.         3.85      19.42       0.2917     0.0557
     8.         3.85      21.46       0.3123     0.0466
     8.         3.85      28.5        0.3332     0.0503
     8.         3.85      33.52       0.3437     0.038
     8.         3.85      39.56       0.3669     0.0406
     8.         3.85      44.51       0.3408     0.0512
     8.         3.85      49.53       0.3516     0.0531
     8.         3.85      55.46       0.3152     0.0602
     8.         3.85      59.41       0.293      0.0324
     8.         3.85      65.41       0.2917     0.0323
     8.         3.85      70.43       0.3009     0.0333
     8.         3.85      76.42       0.2995     0.0452
     8.         3.85      80.42       0.2986     0.0446
     8.         3.85      85.44       0.3081     0.0341
     8.         3.85      96.17       0.2008     0.0382
     8.         3.85     106.2        0.2213     0.0332
     8.         3.85     116.2        0.2048     0.0308
     8.         6.86       6.877      0.445      0.0229
     8.         6.86       8.968      0.4279     0.0221
     8.         6.86      12.12       0.4111     0.0212
     8.         6.86      14.26       0.4261     0.022
     8.         6.86      17.43       0.425      0.0219
     8.         6.86      23.63       0.3378     0.0174
     8.         6.86      27.81       0.3123     0.0161
     8.         6.86      34.06       0.2675     0.0138
     8.         6.86      39.25       0.2293     0.0118
     8.         6.86      43.43       0.2121     0.0109
     8.         6.86      49.83       0.2274     0.0117
     8.         6.86      54.06       0.2266     0.0117
     8.         6.86      59.44       0.2621     0.0135
     8.         6.86      64.66       0.2332     0.012
     8.         6.86      70.95       0.2153     0.0111
     8.         6.86      75.14       0.1991     0.0103
     8.         6.86      80.3        0.1644 0.8479E-02
     8.         6.86      85.47       0.1358 0.7002E-02
     8.         6.86      94.89       0.116  0.5982E-02
     8.         6.86     104.7        0.1737 0.8960E-02
     8.         6.86     115.4        0.2238     0.0115
     8.         7.68       8.382      0.431      0.1032
     8.         7.68       9.443      0.4464     0.087
     8.         7.68      16.59       0.3458     0.0831
     8.         7.68      21.73       0.3096     0.0606
     8.         7.68      25.75       0.2404     0.0471
     8.         7.68      33.03       0.2392     0.047
     8.         7.68      38.08       0.1791     0.0351
     8.         7.68      44.22       0.1491     0.0357
     8.         7.68      50.48       0.1539     0.0368
     8.         7.68      54.63       0.1481     0.0291
     8.         7.68      60.79       0.1278     0.0197
     8.         7.68      64.95       0.1275     0.0196
     8.         7.68      71.21       0.1316     0.0258
     8.         7.68      76.42       0.1311     0.0258
     8.         7.68      80.4        0.0948     0.0185
     8.         7.68      85.52       0.0819     0.0195
     8.         7.68      95.89       0.0757     0.0148
     8.         7.68     107.5        0.1074     0.021
     8.         7.68     116.8        0.0959     0.0188
     8.         9.5        9.114      0.152  0.7408E-02
     8.         9.5       11.96       0.1674 0.8160E-02
     8.         9.5       14.8        0.1675 0.8161E-02
     8.         9.5       16.7        0.1845 0.8989E-02
     8.         9.5       23.34       0.2167     0.0106
     8.         9.5       28.08       0.2099     0.0102
     8.         9.5       34.72       0.2388     0.0116
     8.         9.5       39.47       0.224      0.0109
     8.         9.5       45.16       0.217      0.0106
     8.         9.5       49.91       0.197  0.9601E-02
     8.         9.5       55.61       0.1971 0.9604E-02
     8.         9.5       61.3        0.1971 0.9606E-02
     8.         9.5       65.1        0.1849 0.9009E-02
     8.         9.5       70.79       0.191  0.9306E-02
     8.         9.5       76.49       0.185  0.9013E-02
     8.         9.5       81.23       0.191  0.9310E-02
     8.         9.5       86.93       0.185  0.9018E-02
     8.         9.5       96.42       0.2106     0.0103
     8.         9.5      106.9        0.1794 0.8740E-02
     8.         9.5      115.4        0.1853 0.9029E-02
     8.         9.9        8.091      1.133      0.0446
     8.         9.9       11.83       1.03       0.0406
     8.         9.9       13.69       0.9371     0.0369
     8.         9.9       15.53       0.7754     0.0305
     8.         9.9       19.29       0.7997     0.0315
     8.         9.9       22.02       0.4827     0.019
     8.         9.9       24.8        0.3993     0.0157
     8.         9.9       30.44       0.4249     0.0167
     8.         9.9       35.12       0.4113     0.0162
     8.         9.9       40.72       0.351      0.0138
     8.         9.9       46.33       0.319      0.0126
     8.         9.9       51.         0.2722     0.0107
     8.         9.9       57.54       0.2397 0.9438E-02
     8.         9.9       66.87       0.1746 0.6874E-02
     8.         9.9       72.49       0.169  0.6654E-02
     8.         9.9       78.14       0.1977 0.7782E-02
     8.         9.9       82.83       0.1975 0.7775E-02
     8.         9.9       87.54       0.231  0.9094E-02
     8.         9.9       96.89       0.1849 0.7281E-02
     8.         9.9      106.3        0.1789 0.7043E-02
     8.         9.9      116.5        0.1432 0.5637E-02
    10.         0.         8.76       0.6494     0.012
    10.         0.        11.98       0.6278     0.0116
    10.         0.        15.16       0.5318 0.9860E-02
    10.         0.        19.45       0.4972 0.9219E-02
    10.         0.        24.82       0.4804 0.8907E-02
    10.         0.        31.31       0.5294 0.9815E-02
    10.         0.        35.65       0.5837     0.0108
    10.         0.        41.03       0.5828     0.0108
    10.         0.        62.35       0.2803 0.5197E-02
    10.         0.        66.61       0.2454 0.4549E-02
    10.         0.        71.94       0.2077 0.3852E-02
    10.         0.        81.67       0.2287 0.4241E-02
    10.         0.        92.46       0.2517 0.4668E-02
    10.         0.       101.1        0.2511 0.4656E-02
    10.         3.09      12.08       0.0966 0.3319E-02
    10.         3.09      16.35       0.0741 0.2546E-02
    10.         3.09      21.74       0.067  0.2304E-02
    10.         3.09      27.1        0.0549 0.1888E-02
    10.         3.09      31.33       0.0346 0.1189E-02
    10.         3.09      42.09       0.0256 0.8814E-03
    10.         3.09      53.99       0.0273 0.9395E-03
    10.         3.09      59.45       0.0367 0.1263E-02
    10.         3.09      63.78       0.038  0.1305E-02
    10.         3.09      70.27       0.0392 0.1347E-02
    10.         3.09      74.58       0.0355 0.1219E-02
    10.         3.09      84.25       0.0263 0.9041E-03
    10.         3.09      93.96       0.0238 0.8174E-03
    10.         3.09     104.8        0.0237 0.8158E-03
    10.         3.68       2.644      0.3035     0.064
    10.         3.68       3.639      0.3034     0.0501
    10.         3.68       5.591      0.2601     0.0549
    10.         3.68       7.552      0.2317     0.0384
    10.         3.68       8.519      0.2065     0.0436
    10.         3.68      10.5        0.1985     0.0512
    10.         3.68      14.49       0.214      0.0553
    10.         3.68      16.48       0.2059     0.0532
    10.         3.68      21.47       0.2219     0.0575
    10.         3.68      27.43       0.2214     0.0468
    10.         3.68      33.4        0.2209     0.0468
    10.         3.68      39.35       0.2042     0.0529
    10.         3.68      43.29       0.1749     0.0452
    10.         3.68      54.17       0.1384     0.0229
    10.         3.68      59.15       0.1382     0.0229
    10.         3.68      65.14       0.1547     0.0256
    10.         3.68      70.13       0.1667     0.0352
    10.         3.68      75.11       0.1729     0.0366
    10.         3.68      85.05       0.1658     0.035
    10.         3.68      95.95       0.1417     0.0299
    10.         3.68     104.8        0.1123     0.029
    10.         3.68     114.8        0.0959     0.0203
    10.         3.85       3.736      0.2271     0.0444
    10.         3.85       9.693      0.2105     0.0322
    10.         3.85      11.65       0.1957     0.0383
    10.         3.85      14.77       0.242      0.0474
    10.         3.85      16.77       0.2417     0.0371
    10.         3.85      21.84       0.2778     0.0544
    10.         3.85      33.86       0.2855     0.0441
    10.         3.85      38.81       0.2648     0.0518
    10.         3.85      43.83       0.2735     0.0535
    10.         3.85      49.81       0.2628     0.0404
    10.         3.85      55.82       0.2712     0.0419
    10.         3.85      59.84       0.2803     0.0433
    10.         3.85      64.82       0.2695     0.0645
    10.         3.85      70.74       0.2325     0.0556
    10.         3.85      75.73       0.2317     0.0454
    10.         3.85      80.75       0.2393     0.0366
    10.         3.85      86.69       0.214      0.0329
    10.         3.85      96.7        0.2203     0.0339
    10.         3.85     105.7        0.2038     0.0312
    10.         3.85     115.8        0.2419     0.037
    10.         6.86       4.329      0.2567     0.0126
    10.         6.86       6.327      0.2152     0.0106
    10.         6.86       9.523      0.2223     0.0109
    10.         6.86      11.66       0.2299     0.0113
    10.         6.86      17.94       0.206      0.0101
    10.         6.86      23.18       0.1913 0.9415E-02
    10.         6.86      28.28       0.144  0.7088E-02
    10.         6.86      33.54       0.1385 0.6818E-02
    10.         6.86      38.85       0.1429 0.7033E-02
    10.         6.86      45.29       0.1636 0.8053E-02
    10.         6.86      49.53       0.1631 0.8028E-02
    10.         6.86      55.89       0.1682 0.8275E-02
    10.         6.86      62.19       0.1561 0.7680E-02
    10.         6.86      66.33       0.1353 0.6656E-02
    10.         6.86      71.6        0.1301 0.6402E-02
    10.         6.86      76.88       0.1296 0.6377E-02
    10.         6.86      82.12       0.1204 0.5923E-02
    10.         6.86      88.49       0.1241 0.6106E-02
    10.         6.86      98.2        0.163  0.8023E-02
    10.         6.86     107.8        0.1736 0.8545E-02
    10.         6.86     116.1        0.1449 0.7128E-02
    10.         7.68       2.816      0.3067     0.0772
    10.         7.68       2.896      0.2641     0.0665
    10.         7.68       5.937      0.2635     0.0663
    10.         7.68       8.138      0.3294     0.0987
    10.         7.68      11.28       0.3412     0.1025
    10.         7.68      15.24       0.234      0.0821
    10.         7.68      16.32       0.252      0.0757
    10.         7.68      19.44       0.2515     0.0755
    10.         7.68      22.55       0.2417     0.0609
    10.         7.68      24.57       0.2157     0.0648
    10.         7.68      26.55       0.1786     0.0533
    10.         7.68      30.65       0.1592     0.0475
    10.         7.68      32.59       0.1223     0.0308
    10.         7.68      38.77       0.1089     0.0326
    10.         7.68      42.98       0.117      0.0241
    10.         7.68      49.24       0.1209     0.0304
    10.         7.68      54.46       0.1251     0.0314
    10.         7.68      65.87       0.1152     0.029
    10.         7.68      76.05       0.0758     0.0227
    10.         7.68      86.48       0.0781     0.0197
    10.         7.68      96.92       0.0835     0.03
    10.         7.68     107.5        0.1078     0.0271
    10.         7.68     116.9        0.1198     0.0302
    10.         9.5        5.929      0.7122     0.0136
    10.         9.5       12.6        0.8252     0.0158
    10.         9.5       17.36       0.9283     0.0178
    10.         9.5       21.14       0.8496     0.0162
    10.         9.5       23.06       0.9701     0.0185
    10.         9.5       24.97       1.014      0.0194
    10.         9.5       26.88       1.06       0.0203
    10.         9.5       28.77       1.06       0.0203
    10.         9.5       31.62       1.075      0.0206
    10.         9.5       35.42       1.107      0.0212
    10.         9.5       40.18       1.174      0.0225
    10.         9.5       45.88       1.209      0.0231
    10.         9.5       51.58       1.263      0.0242
    10.         9.5       56.32       1.263      0.0242
    10.         9.5       67.71       1.281      0.0245
    10.         9.5       78.15       1.262      0.0241
    10.         9.5       88.59       1.28       0.0245
    10.         9.5       98.08       1.28       0.0245
    10.         9.5      107.6        1.261      0.0241
    10.         9.5      117.1        1.242      0.0237
    10.         9.9        5.971      0.9053     0.0404
    10.         9.9        6.885      0.7185     0.0321
    10.         9.9        7.84       0.8473     0.0378
    10.         9.9        9.692      0.6723     0.03
    10.         9.9       11.55       0.589      0.0263
    10.         9.9       14.36       0.5333     0.0238
    10.         9.9       16.21       0.4232     0.0189
    10.         9.9       18.1        0.4828     0.0215
    10.         9.9       24.64       0.3829     0.0171
    10.         9.9       26.5        0.314      0.014
    10.         9.9       29.31       0.3139     0.014
    10.         9.9       32.15       0.4086     0.0182
    10.         9.9       34.98       0.4661     0.0208
    10.         9.9       42.49       0.5142     0.0229
    10.         9.9       46.23       0.4503     0.0201
    10.         9.9       51.82       0.313      0.014
    10.         9.9       57.41       0.2176 0.9707E-02
    10.         9.9       67.67       0.1281 0.5717E-02
    10.         9.9       78.         0.146  0.6515E-02
    10.         9.9       93.01       0.1458 0.6503E-02
    10.         9.9       98.65       0.1718 0.7664E-02
    10.         9.9      107.1        0.1716 0.7656E-02
    10.         9.9      116.5        0.1453 0.6484E-02
    12.         0.         4.156      0.7456     0.0153
    12.         0.         6.285      0.6926     0.0142
    12.         0.         9.442      0.5558     0.0114
    12.         0.        12.65       0.516      0.0105
    12.         0.        15.88       0.5154     0.0105
    12.         0.        17.98       0.445  0.9100E-02
    12.         0.        20.18       0.5145     0.0105
    12.         0.        26.67       0.5521     0.0113
    12.         0.        31.05       0.6861     0.014
    12.         0.        33.22       0.7374     0.0151
    12.         0.        36.48       0.7922     0.0162
    12.         0.        41.83       0.7086     0.0145
    12.         0.        47.15       0.5893     0.0121
    12.         0.        52.47       0.49   0.1000E-01
    12.         0.        56.74       0.4385 0.8966E-02
    12.         0.        62.09       0.3922 0.8020E-02
    12.         0.        66.35       0.3384 0.6919E-02
    12.         0.        71.69       0.3027 0.6189E-02
    12.         0.        83.51       0.2801 0.5728E-02
    12.         0.        94.31       0.3112 0.6364E-02
    12.         0.       103.         0.4005 0.8189E-02
    12.         3.09       6.745      0.3453     0.0133
    12.         3.09      11.07       0.345      0.0133
    12.         3.09      13.25       0.399      0.0154
    12.         3.09      15.4        0.3708     0.0143
    12.         3.09      16.49       0.3845     0.0148
    12.         3.09      17.56       0.3574     0.0138
    12.         3.09      21.87       0.3201     0.0124
    12.         3.09      27.21       0.222  0.8574E-02
    12.         3.09      30.42       0.1849 0.7140E-02
    12.         3.09      32.56       0.1597 0.6168E-02
    12.         3.09      34.69       0.1283 0.4954E-02
    12.         3.09      37.93       0.1236 0.4773E-02
    12.         3.09      42.24       0.1191 0.4599E-02
    12.         3.09      47.67       0.1327 0.5125E-02
    12.         3.09      54.17       0.1534 0.5924E-02
    12.         3.09      58.53       0.1908 0.7367E-02
    12.         3.09      63.93       0.1772 0.6842E-02
    12.         3.09      70.39       0.1529 0.5906E-02
    12.         3.09      74.67       0.1184 0.4571E-02
    12.         3.09      84.35       0.0882 0.3408E-02
    12.         3.09      94.08       0.0881 0.3402E-02
    12.         3.09     103.9        0.1221 0.4716E-02
    12.         6.86       7.554      0.3485     0.0832
    12.         6.86      12.9        0.3867     0.0595
    12.         6.86      15.         0.3726     0.0573
    12.         6.86      16.09       0.3999     0.0615
    12.         6.86      20.25       0.3457     0.0532
    12.         6.86      23.34       0.299      0.0586
    12.         6.86      29.59       0.249      0.0488
    12.         6.86      33.78       0.2312     0.0262
    12.         6.86      40.01       0.1858     0.0286
    12.         6.86      46.32       0.1723     0.0265
    12.         6.86      50.45       0.1437     0.0222
    12.         6.86      55.65       0.1198     0.0184
    12.         6.86      61.91       0.1034     0.0203
    12.         6.86      76.86       0.1316     0.0259
    12.         9.5        7.828      0.1471 0.6404E-02
    12.         9.5       12.57       0.1424 0.6200E-02
    12.         9.5       15.43       0.1902 0.8281E-02
    12.         9.5       16.37       0.1518 0.6610E-02
    12.         9.5       18.28       0.1902 0.8280E-02
    12.         9.5       21.12       0.1567 0.6824E-02
    12.         9.5       23.97       0.1782 0.7761E-02
    12.         9.5       28.72       0.184  0.8012E-02
    12.         9.5       34.41       0.1781 0.7756E-02
    12.         9.5       39.16       0.2092 0.9107E-02
    12.         9.5       45.81       0.2091 0.9103E-02
    12.         9.5       51.5        0.209  0.9100E-02
    12.         9.5       56.25       0.2228 0.9702E-02
    12.         9.5       61.94       0.2157 0.9392E-02
    12.         9.9        5.954      0.7773     0.0385
    12.         9.9        9.706      0.7773     0.0385
    12.         9.9       13.46       0.5673     0.0281
    12.         9.9       16.28       0.4273     0.0212
    12.         9.9       18.16       0.4273     0.0212
    12.         9.9       18.16       0.3537     0.0175
    12.         9.9       21.92       0.3022     0.015
    12.         9.9       24.74       0.2581     0.0128
    12.         9.9       30.36       0.2928     0.0145
    12.         9.9       34.11       0.3119     0.0154
    12.         9.9       35.05       0.2929     0.0145
    12.         9.9       40.68       0.3023     0.015
    12.         9.9       46.31       0.2425     0.012
    12.         9.9       51.01       0.161  0.7972E-02
    12.         9.9       56.64       0.1213 0.6005E-02
    12.         9.9       62.27       0.1175 0.5819E-02
ENDDATA            738
ENDSUBENT          754
ENDENTRY             2
