ENTRY            F0465   19990410   19990429
SUBENT        F0465001   19990410   19990429
BIB                 10         13
TITLE      Reaction mechanism for the 11B(a,n)14N reaction
AUTHOR     (G.S.MANI,G.C.DUTT)
INSTITUTE  (2UK MAN)
REFERENCE  (J,NP,78,613,196604)
SAMPLE     The target was 99% enriched 11B on thick gold
           backing 30 mg/cm**2
METHOD     (TOF)
FACILITY   (VDG)
DETECTOR   (SCIN) NE213 liquid scintillator
ERR-ANALYS (ERR-1) The uncertainty in the absolute efficiency of
           the neutron detector
           (ERR-T) The mean error in ther cross section evaluation
HISTORY    (19920925C)
ENDBIB              13
COMMON               2          3
ERR-1      ERR-T
PER-CENT   PER-CENT
  6.0        20.0
ENDCOMMON            3
ENDSUBENT           20
SUBENT        F0465002   19990410   19990429
BIB                  4          5
REACTION   (5-B-11(A,N)7-N-14,PAR,DA,,,EXP)
ERR-ANALYS (DATA-ERR) From graphic bars and digitizing error
           (EN-ERR) Digitizing error
EN-SEC     (E-LVL,7-N-14)
STATUS     (CURVE) Fig.1,2
ENDBIB               5
COMMON               2          3
ANG        EN-ERR
ADEG       MEV
 0.         0.004
ENDCOMMON            3
DATA                 4        134
EN         E-LVL      DATA       DATA-ERR
MEV        MEV        MB/SR      MB/SR
     2.389      0.         0.1247     0.0303
     2.42       0.         0.1297     0.0353
     2.45       0.         0.1398     0.0303
     2.511      0.         0.16       0.0353
     2.549      0.         0.2055     0.0404
     2.58       0.         0.256      0.0303
     2.603      0.         0.3318     0.0303
     2.633      0.         0.8065     0.0454
     2.641      0.         1.029      0.0404
     2.672      0.         0.3924     0.0353
     2.71       0.         0.2863     0.0303
     2.725      0.         0.2106     0.0404
     2.779      0.         0.1601     0.0353
     2.824      0.         0.155      0.0404
     2.878      0.         0.1753     0.0353
     2.901      0.         0.1904     0.0303
     2.916      0.         0.1904     0.0353
     2.947      0.         0.2207     0.0303
     2.969      0.         0.2561     0.0353
     3.         0.         0.3217     0.0303
     3.015      0.         0.3268     0.0404
     3.046      0.         0.251      0.0303
     3.061      0.         0.2106     0.0353
     3.099      0.         0.2308     0.0353
     3.137      0.         0.2713     0.0353
     3.168      0.         0.347      0.0303
     3.168      0.         0.2864     0.0253
     3.191      0.         0.3016     0.0404
     3.237      0.         0.3672     0.0404
     3.259      0.         0.9177     0.0454
     3.29       0.         0.4379     0.0404
     3.298      0.         0.3571     0.0353
     3.32       0.         0.3167     0.0404
     3.336      0.         0.3571     0.0303
     3.359      0.         0.3774     0.0454
     3.397      0.         0.4329     0.0404
     3.451      2.31       0.147      0.0214
     3.481      0.         0.4582     0.0303
     3.481      2.31       0.1468     0.0214
     3.496      0.         0.4784     0.0353
     3.497      2.31       0.1467     0.2239
     3.504      0.         0.4784     0.0353
     3.512      2.31       0.2213     0.0214
     3.526      0.         0.5339     0.0303
     3.542      0.         0.5188     0.0253
     3.549      0.         0.5188     0.0303
     3.551      2.31       0.333      0.0214
     3.557      0.         0.5491     0.0303
     3.559      2.31       0.4822     0.0214
     3.572      0.         0.5491     0.0202
     3.572      0.         0.5794     0.0404
     3.574      2.31       0.5195     0.0214
     3.582      2.31       0.594      0.0214
     3.587      0.         1.256      0.0506
     3.595      0.         0.6602     0.0303
     3.603      0.         0.7461     0.0353
     3.605      2.31       0.7432     0.0214
     3.605      2.31       0.5939     0.0214
     3.618      0.         0.5744     0.0454
     3.621      2.31       0.6312     0.0214
     3.621      2.31       0.7431     0.0214
     3.644      2.31       0.9296     0.1119
     3.644      2.31       0.8176     0.0214
     3.649      0.         0.6501     0.0353
     3.649      0.         0.6148     0.0202
     3.656      0.         0.6148     0.0404
     3.656      0.         0.6249     0.0253
     3.667      2.31       0.9668     0.0214
     3.671      0.         0.64       0.0253
     3.687      0.         0.7006     0.0353
     3.69       2.31       1.191      0.0214
     3.71       0.         0.7764     0.0404
     3.714      2.31       1.116      0.0214
     3.737      2.31       1.302      0.0214
     3.74       0.         0.938      0.0353
     3.755      0.         1.044      0.0404
     3.76       2.31       1.414      0.0214
     3.783      2.31       1.489      0.2612
     3.786      0.         0.8522 0.2407E-02
     3.799      2.31       1.563      0.0214
     3.801      0.         0.6653     0.0556
     3.824      0.         0.6401     0.0454
     3.829      2.31       1.563      0.0214
     3.847      0.         0.5896     0.0404
     3.853      2.31       1.638      0.2239
     3.87       0.         0.6249     0.0303
     3.876      2.31       1.749      0.1493
     3.899      2.31       1.786      0.1866
     3.901      0.         0.6199     0.0454
     3.923      0.         0.7815     0.0353
     3.93       2.31       2.047      0.1866
     3.938      0.         1.039      0.0454
     3.946      2.31       2.047      0.1866
     3.969      0.         1.024      0.0404
     3.977      2.31       2.047      0.0214
     3.984      0.         0.9886     0.0505
     4.         0.         0.9583     0.0505
     4.         2.31       2.047      0.0214
     4.023      2.31       2.196      0.1866
     4.038      0.         0.8825     0.0404
     4.046      2.31       2.234      0.1866
     4.053      0.         0.8371     0.0454
     4.069      2.31       2.345      0.2239
     4.084      0.         0.8421     0.0353
     4.085      2.31       2.271      0.0214
     4.099      0.         0.8219     0.0505
     4.116      2.31       2.457      0.0214
     4.122      0.         0.8118     0.0454
     4.145      0.         0.7916     0.0353
     4.154      2.31       2.532      0.0214
     4.162      2.31       2.681      0.0214
     4.183      0.         0.7209     0.0454
     4.193      2.31       3.091      0.0214
     4.206      0.         0.8926     0.0303
     4.208      2.31       2.345      0.2239
     4.221      0.         0.8623     0.0404
     4.239      2.31       2.606      0.0214
     4.252      0.         0.8421     0.0404
     4.262      2.31       2.382      0.0214
     4.263      2.31       2.717      0.0214
     4.274      0.         0.9179     0.0353
     4.286      2.31       3.165      0.0214
     4.29       0.         1.09       0.0505
     4.309      2.31       3.389      0.0214
     4.32       0.         1.049      0.0404
     4.332      2.31       3.053      0.2239
     4.335      0.         0.9331     0.0404
     4.358      0.         0.8624     0.0404
     4.363      2.31       2.68       0.0214
     4.378      2.31       2.381      0.0214
     4.381      0.         0.8371     0.0353
     4.402      2.31       1.859      0.2239
     4.412      0.         0.8119     0.0303
     4.417      2.31       1.747      0.2239
ENDDATA            136
ENDSUBENT          150
ENDENTRY             2
