ENTRY            F0476   19990410   19990429
SUBENT        F0476001   19990410   19990429
BIB                  9         11
TITLE      The reaction 9Be(alpha,n)12C
AUTHOR     (R.G.MILLER,R.W.KAVANAGH)
INSTITUTE  (1USACAL)
REFERENCE  (J,NP,88,492,196611)
SAMPLE     Target were made by evaporation of 9Be onto tungsten
           backing 0.018 cm thick. Different thickness
           40+-8 mu-g/cm2 and 88+-14 mu-g/cm2
METHOD     (PHD)
FACILITY   (VDGT)
DETECTOR   (SCIN) Stilbene crystal 3.8 cm in diam and 3.8 cm long
HISTORY    (19860917C)
ENDBIB              11
NOCOMMON
ENDSUBENT           14
SUBENT        F0476002   19990410   19990429
BIB                  4          7
REACTION   (4-BE-9(A,N)6-C-12,PAR,DA,,,EXP)
ERR-ANALYS (EN-ERR) Digitizing error
           (DATA-ERR) Digitizing error
           (ERR-1) The standard deviation in the Absolute value
           (ERR-S) Relative error
EN-SEC     (E-LVL,6-C-12)
STATUS     (CURVE) Fig. 2,3
ENDBIB               7
COMMON               3          3
ANG        EN-ERR     DATA-ERR
ADEG       MEV        MB/SR
 0.         0.02       0.015
ENDCOMMON            3
DATA                 5        182
EN         E-LVL      DATA       ERR-1      ERR-S
MEV        MEV        MB/SR      PER-CENT   PER-CENT
     4.206      4.44      21.63      30.         5.
     4.339      4.44      27.06      30.         5.
     4.46       4.44      28.77      30.         5.
     4.523      4.44      30.48      30.         5.
     4.647      4.44      33.05      30.         5.
     4.725      4.44      30.32      30.         5.
     4.818      4.44      32.47      30.         5.
     4.918      4.44      36.47      30.         5.
     5.001      4.44      35.32      30.         5.
     5.015      0.         4.932     20.         2.
     5.091      4.44      36.31      30.         5.
     5.102      0.         4.492     20.         2.
     5.211      4.44      37.59      30.         5.
     5.218      0.         5.895     20.         2.
     5.297      4.44      37.44      30.         5.
     5.305      0.         6.06      20.         2.
     5.392      0.         7.188     20.         2.
     5.424      4.44      31.85      30.         5.
     5.479      0.         5.483     20.         2.
     5.514      4.44      32.7       30.         5.
     5.595      0.         5.235     20.         2.
     5.62       4.44      29.54      30.         5.
     5.682      0.         4.162     20.         2.
     5.76       4.44      28.1       30.         5.
     5.798      0.         3.914     20.         2.
     5.813      4.44      26.66      30.         5.
     5.885      0.         4.327     20.         2.
     5.922      7.66       3.076     40.        10.
     5.947      4.44      23.07      30.         5.
     6.001      0.         4.822     20.         2.
     6.035      7.66       2.711     40.        10.
     6.053      4.44      19.77      30.         5.
     6.117      0.         5.675     20.         2.
     6.15       7.66       2.417     40.        10.
     6.163      4.44      18.04      30.         5.
     6.204      0.         5.84      20.         2.
     6.212      4.44      15.03      30.         5.
     6.235      7.66       2.197     40.        10.
     6.32       0.         5.262     20.         2.
     6.322      4.44      13.3       30.         5.
     6.35       7.66       1.903     40.        10.
     6.378      0.         4.685     20.         2.
     6.41       7.66       2.408     40.        10.
     6.434      4.44      12.        30.         5.
     6.494      0.         4.107     20.         2.
     6.555      7.66       2.404     40.        10.
     6.579      4.44      12.13      30.         5.
     6.58       0.         3.089     20.         2.
     6.632      4.44      10.7       30.         5.
     6.645      7.66       3.125     40.        10.
     6.667      0.         2.539     20.         2.
     6.733      7.66       3.34      40.        10.
     6.747      4.44      10.26      30.         5.
     6.783      0.         2.126     20.         2.
     6.833      4.44       9.965     30.         5.
     6.849      7.66       3.336     40.        10.
     6.87       0.         2.401     20.         2.
     6.921      4.44      10.53      30.         5.
     6.967      7.66       3.767     40.        10.
     6.986      0.         2.869     20.         2.
     7.038      4.44      10.81      30.         5.
     7.082      7.66       3.546     40.        10.
     7.102      0.         2.896     20.         2.
     7.12       4.44       9.227     30.         5.
     7.137      7.66       3.109     40.        10.
     7.189      0.         2.594     20.         2.
     7.266      4.44       9.646     30.         5.
     7.282      7.66       3.177     40.        10.
     7.305      0.         2.291     20.         2.
     7.322      4.44       9.068     30.         5.
     7.37       7.66       3.247     40.        10.
     7.392      0.         2.154     20.         2.
     7.408      4.44       8.919     30.         5.
     7.455      7.66       3.027     40.        10.
     7.479      0.         2.016     20.         2.
     7.527      4.44       9.769     30.         5.
     7.573      7.66       3.313     40.        10.
     7.595      0.         2.236     20.         2.
     7.611      4.44       8.903     30.         5.
     7.658      7.66       3.092     40.        10.
     7.681      0.         2.236     20.         2.
     7.729      4.44       9.611     30.         5.
     7.775      7.66       3.234     40.        10.
     7.798      0.         3.089     20.         2.
     7.85       4.44      11.18      30.         5.
     7.858      7.66       2.579     40.        10.
     7.914      0.         4.767     20.         2.
     7.961      4.44       9.736     30.         5.
     7.975      7.66       2.865     40.        10.
     8.03       0.         4.382     20.         2.
     8.057      7.66       1.848     40.        10.
     8.088      0.         3.942     20.         2.
     8.143      7.66       1.628     40.        10.
     8.203      0.         2.896     20.         2.
     8.258      7.66       1.551     40.        10.
     8.29       0.         2.428     20.         2.
     8.344      7.66       1.331     40.        10.
     8.377      0.         2.208     20.         2.
     8.458      7.66       1.11      40.        10.
     8.464      0.         2.043     20.         2.
     8.573      7.66       0.9613    40.        10.
     8.58       0.         2.016     20.         2.
     8.66       7.66       0.9585    40.        10.
     8.667      0.         2.043     20.         2.
     8.747      7.66       0.8832    40.        10.
     8.783      0.         2.346     20.         2.
     8.87       0.         2.593     20.         2.
     8.891      7.66       0.8785    40.        10.
     8.977      7.66       0.6583    40.        10.
     8.986      0.         2.813     20.         2.
     9.073      0.         2.896     20.         2.
     9.093      7.66       0.6545    40.        10.
     9.181      7.66       0.8691    40.        10.
     9.189      0.         2.868     20.         2.
     9.265      7.66       0.4315    40.        10.
     9.305      0.         2.621     20.         2.
     9.363      0.         2.263     20.         2.
     9.382      7.66       0.6451    40.        10.
     9.498      7.66       0.5689    40.        10.
     9.508      0.         2.071     20.         2.
     9.54       4.44       5.462     30.         5.
     9.586      7.66       0.9283    40.        10.
     9.595      0.         2.098     20.         2.
     9.672      7.66       0.6357    40.        10.
     9.682      0.         2.043     20.         2.
     9.684      4.44       5.308     30.         5.
     9.715      4.44       5.879     30.         5.
     9.768      0.         1.878     20.         2.
     9.788      7.66       0.7768    40.        10.
     9.855      0.         1.74      20.         2.
     9.876      7.66       1.064     40.        10.
     9.888      4.44       5.722     30.         5.
     9.947      4.44       6.291     30.         5.
     9.971      0.         1.85      20.         2.
     9.992      7.66       0.9876    40.        10.
    10.06       0.         1.988     20.         2.
    10.08       7.66       0.9123    40.        10.
    10.09       4.44       5.85      30.         5.
    10.15       4.44       5.989     30.         5.
    10.17       0.         2.043     20.         2.
    10.23       4.44       5.696     30.         5.
    10.29       0.         1.933     20.         2.
    10.38       0.         1.906     20.         2.
    10.38       4.44       5.971     30.         5.
    10.46       0.         1.85      20.         2.
    10.47       4.44       5.535     30.         5.
    10.55       4.44       4.956     30.         5.
    10.58       0.         1.988     20.         2.
    10.67       4.44       4.66      30.         5.
    10.7        0.         2.098     20.         2.
    10.78       4.44       5.225     30.         5.
    10.81       0.         2.318     20.         2.
    10.87       0.         2.703     20.         2.
    10.87       4.44       5.218     30.         5.
    10.96       4.44       5.498     30.         5.
    10.99       0.         2.978     20.         2.
    11.1        4.44       5.344     30.         5.
    11.13       0.         2.896     20.         2.
    11.19       0.         2.538     20.         2.
    11.19       4.44       5.48      30.         5.
    11.25       4.44       5.619     30.         5.
    11.31       0.         2.208     20.         2.
    11.39       0.         1.685     20.         2.
    11.39       4.44       5.895     30.         5.
    11.48       0.         1.328     20.         2.
    11.48       4.44       7.034     30.         5.
    11.54       0.         1.245     20.         2.
    11.6        4.44       8.028     30.         5.
    11.62       0.         1.328     20.         2.
    11.63       4.44       8.455     30.         5.
    11.65       0.         1.603     20.         2.
    11.69       4.44       8.594     30.         5.
    11.69       4.44       9.024     30.         5.
    11.71       0.         1.795     20.         2.
    11.75       4.44       8.59      30.         5.
    11.77       0.         1.41      20.         2.
    11.78       4.44       8.874     30.         5.
    11.8        0.         1.217     20.         2.
    11.88       0.         1.08      20.         2.
    11.9        4.44       9.295     30.         5.
    11.97       0.         1.217     20.         2.
    11.99       4.44      10.58      30.         5.
ENDDATA            184
ENDSUBENT          200
ENDENTRY             2
