ENTRY            F0476   20220608   20230023   20221219       F093
SUBENT        F0476001   20220608   20230023   20221219       F093
BIB                  9         12
TITLE      The reaction 9Be(alpha,n)12C
AUTHOR     (R.G.Miller,R.W.Kavanagh)
INSTITUTE  (1USACAL)
REFERENCE  (J,NP,88,492,1966)
FACILITY   (VDGT,1USACAL)
SAMPLE     Target were made by evaporation of 9Be onto tungsten
           backing 0.018 cm thick. Different thickness
           40+-8 mu-g/cm2 and 88+-14 mu-g/cm2
METHOD     (PHD)
DETECTOR   (SCIN) Stilbene crystal 3.8 cm in diam and 3.8 cm long
HISTORY    (19860917C)
           (20220608A) SD: Corrections in all Subents.
ENDBIB              12
NOCOMMON             0          0
ENDSUBENT           15
SUBENT        F0476002   20220608   20230023   20221219       F093
BIB                  4          7
REACTION   (4-BE-9(A,N)6-C-12,PAR,DA)
ERR-ANALYS (ERR-1) The standard deviation mainly from error
           of target thickness
           (ERR-S) Statistical error
STATUS     (CURVE) Figs 2,3 from Nucl.Phys.,88(1966)492
HISTORY    (20220608A) SD: SF9=EXP deleted from REACTION code.
           EN-ERR -> EN-ERR-DIG; DATA-ERR -> ERR-DIG.
ENDBIB               7
COMMON               3          3
ANG        EN-ERR-DIG ERR-DIG
ADEG       MEV        MB/SR
 0.         0.02       0.015
ENDCOMMON            3
DATA                 5        182
E-LVL      EN         DATA       ERR-1      ERR-S
MEV        MEV        MB/SR      PER-CENT   PER-CENT
         0.       5.01      4.932        20.         2.
         0.       5.10      4.492        20.         2.
         0.       5.22      5.895        20.         2.
         0.       5.30      6.060        20.         2.
         0.       5.39      7.188        20.         2.
         0.       5.48      5.483        20.         2.
         0.       5.59      5.235        20.         2.
         0.       5.68      4.162        20.         2.
         0.       5.80      3.914        20.         2.
         0.       5.88      4.327        20.         2.
         0.       6.00      4.822        20.         2.
         0.       6.12      5.675        20.         2.
         0.       6.20      5.840        20.         2.
         0.       6.32      5.262        20.         2.
         0.       6.38      4.685        20.         2.
         0.       6.49      4.107        20.         2.
         0.       6.58      3.089        20.         2.
         0.       6.67      2.539        20.         2.
         0.       6.78      2.126        20.         2.
         0.       6.87      2.401        20.         2.
         0.       6.99      2.869        20.         2.
         0.       7.10      2.896        20.         2.
         0.       7.19      2.594        20.         2.
         0.       7.30      2.291        20.         2.
         0.       7.39      2.154        20.         2.
         0.       7.48      2.016        20.         2.
         0.       7.59      2.236        20.         2.
         0.       7.68      2.236        20.         2.
         0.       7.80      3.089        20.         2.
         0.       7.91      4.767        20.         2.
         0.       8.03      4.382        20.         2.
         0.       8.09      3.942        20.         2.
         0.       8.20      2.896        20.         2.
         0.       8.29      2.428        20.         2.
         0.       8.38      2.208        20.         2.
         0.       8.46      2.043        20.         2.
         0.       8.58      2.016        20.         2.
         0.       8.67      2.043        20.         2.
         0.       8.78      2.346        20.         2.
         0.       8.87      2.593        20.         2.
         0.       8.99      2.813        20.         2.
         0.       9.07      2.896        20.         2.
         0.       9.19      2.868        20.         2.
         0.       9.30      2.621        20.         2.
         0.       9.36      2.263        20.         2.
         0.       9.51      2.071        20.         2.
         0.       9.60      2.098        20.         2.
         0.       9.68      2.043        20.         2.
         0.       9.77      1.878        20.         2.
         0.       9.86      1.740        20.         2.
         0.       9.97      1.850        20.         2.
         0.      10.06      1.988        20.         2.
         0.      10.17      2.043        20.         2.
         0.      10.29      1.933        20.         2.
         0.      10.38      1.906        20.         2.
         0.      10.46      1.850        20.         2.
         0.      10.58      1.988        20.         2.
         0.      10.70      2.098        20.         2.
         0.      10.81      2.318        20.         2.
         0.      10.87      2.703        20.         2.
         0.      10.99      2.978        20.         2.
         0.      11.13      2.896        20.         2.
         0.      11.19      2.538        20.         2.
         0.      11.31      2.208        20.         2.
         0.      11.39      1.685        20.         2.
         0.      11.48      1.328        20.         2.
         0.      11.54      1.245        20.         2.
         0.      11.62      1.328        20.         2.
         0.      11.65      1.603        20.         2.
         0.      11.71      1.795        20.         2.
         0.      11.77      1.410        20.         2.
         0.      11.80      1.217        20.         2.
         0.      11.88      1.080        20.         2.
         0.      11.97      1.217        20.         2.
       4.44       4.21     21.630        30.         5.
       4.44       4.34     27.060        30.         5.
       4.44       4.46     28.770        30.         5.
       4.44       4.52     30.480        30.         5.
       4.44       4.65     33.050        30.         5.
       4.44       4.72     30.320        30.         5.
       4.44       4.82     32.470        30.         5.
       4.44       4.92     36.470        30.         5.
       4.44       5.00     35.320        30.         5.
       4.44       5.09     36.310        30.         5.
       4.44       5.21     37.590        30.         5.
       4.44       5.30     37.440        30.         5.
       4.44       5.42     31.850        30.         5.
       4.44       5.51     32.700        30.         5.
       4.44       5.62     29.540        30.         5.
       4.44       5.76     28.100        30.         5.
       4.44       5.81     26.660        30.         5.
       4.44       5.95     23.070        30.         5.
       4.44       6.05     19.770        30.         5.
       4.44       6.16     18.040        30.         5.
       4.44       6.21     15.030        30.         5.
       4.44       6.32     13.300        30.         5.
       4.44       6.43     12.000        30.         5.
       4.44       6.58     12.130        30.         5.
       4.44       6.63     10.700        30.         5.
       4.44       6.75     10.260        30.         5.
       4.44       6.83      9.965        30.         5.
       4.44       6.92     10.530        30.         5.
       4.44       7.04     10.810        30.         5.
       4.44       7.12      9.227        30.         5.
       4.44       7.27      9.646        30.         5.
       4.44       7.32      9.068        30.         5.
       4.44       7.41      8.919        30.         5.
       4.44       7.53      9.769        30.         5.
       4.44       7.61      8.903        30.         5.
       4.44       7.73      9.611        30.         5.
       4.44       7.85     11.180        30.         5.
       4.44       7.96      9.736        30.         5.
       4.44       9.54      5.462        30.         5.
       4.44       9.68      5.308        30.         5.
       4.44       9.71      5.879        30.         5.
       4.44       9.89      5.722        30.         5.
       4.44       9.95      6.291        30.         5.
       4.44      10.09      5.850        30.         5.
       4.44      10.15      5.989        30.         5.
       4.44      10.23      5.696        30.         5.
       4.44      10.38      5.971        30.         5.
       4.44      10.47      5.535        30.         5.
       4.44      10.55      4.956        30.         5.
       4.44      10.67      4.660        30.         5.
       4.44      10.78      5.225        30.         5.
       4.44      10.87      5.218        30.         5.
       4.44      10.96      5.498        30.         5.
       4.44      11.10      5.344        30.         5.
       4.44      11.19      5.480        30.         5.
       4.44      11.25      5.619        30.         5.
       4.44      11.39      5.895        30.         5.
       4.44      11.48      7.034        30.         5.
       4.44      11.60      8.028        30.         5.
       4.44      11.63      8.455        30.         5.
       4.44      11.69      9.024        30.         5.
       4.44      11.69      8.594        30.         5.
       4.44      11.75      8.590        30.         5.
       4.44      11.78      8.874        30.         5.
       4.44      11.90      9.295        30.         5.
       4.44      11.99     10.580        30.         5.
       7.66       5.92      3.076        40.        10.
       7.66       6.04      2.711        40.        10.
       7.66       6.15      2.417        40.        10.
       7.66       6.24      2.197        40.        10.
       7.66       6.35      1.903        40.        10.
       7.66       6.41      2.408        40.        10.
       7.66       6.55      2.404        40.        10.
       7.66       6.64      3.125        40.        10.
       7.66       6.73      3.340        40.        10.
       7.66       6.85      3.336        40.        10.
       7.66       6.97      3.767        40.        10.
       7.66       7.08      3.546        40.        10.
       7.66       7.14      3.109        40.        10.
       7.66       7.28      3.177        40.        10.
       7.66       7.37      3.247        40.        10.
       7.66       7.46      3.027        40.        10.
       7.66       7.57      3.313        40.        10.
       7.66       7.66      3.092        40.        10.
       7.66       7.78      3.234        40.        10.
       7.66       7.86      2.579        40.        10.
       7.66       7.97      2.865        40.        10.
       7.66       8.06      1.848        40.        10.
       7.66       8.14      1.628        40.        10.
       7.66       8.26      1.551        40.        10.
       7.66       8.34      1.331        40.        10.
       7.66       8.46      1.110        40.        10.
       7.66       8.57      0.961        40.        10.
       7.66       8.66      0.959        40.        10.
       7.66       8.75      0.883        40.        10.
       7.66       8.89      0.878        40.        10.
       7.66       8.98      0.658        40.        10.
       7.66       9.09      0.654        40.        10.
       7.66       9.18      0.869        40.        10.
       7.66       9.27      0.431        40.        10.
       7.66       9.38      0.645        40.        10.
       7.66       9.50      0.569        40.        10.
       7.66       9.59      0.928        40.        10.
       7.66       9.67      0.636        40.        10.
       7.66       9.79      0.777        40.        10.
       7.66       9.88      1.064        40.        10.
       7.66       9.99      0.988        40.        10.
       7.66      10.08      0.912        40.        10.
ENDDATA            184
ENDSUBENT          200
ENDENTRY             2
