ENTRY            F0486   20220608   20230023   20221219       F093
SUBENT        F0486001   20220608   20230023   20221219       F093
BIB                 10         18
TITLE      Energy levels of 14N from the elastic scattering
           of alpha particles by 10B.
AUTHOR     (T.Mo,H.R.Weller)
INSTITUTE  (1USAFLA)
REFERENCE  (J,PR/C,8,972,1973)
FACILITY   (VDG,1USAFLA)
SAMPLE     The target was a thin self-supporting foil of
           10B (enriched to 93%) of thickness 14 ug/cm2
METHOD     (PHD)
DETECTOR   (SIBAR) Three silicon surface-barrier detectors
ERR-ANALYS (DATA-ERR) Error in the absolute cross-sections.
            No information about source of uncertainty
           (ERR-S) Statistical error
HISTORY    (19920512C)
           (20070625A) Lab. system was changed in c.m.s.; low case
           in the AUTHOR record was introduced; error definition
           was changed.
           (20220608A) SD: Corrections in all Subents.
ENDBIB              18
COMMON               3          3
DATA-ERR   EN-ERR-DIG ERR-DIG
PER-CENT   MEV        MEV
        3.0      0.005       0.2
ENDCOMMON            3
ENDSUBENT           25
SUBENT        F0486002   20220608   20230023   20221219       F093
BIB                  3          3
REACTION   (5-B-10(A,EL)5-B-10,,DA)
STATUS     (CURVE) Fig.2 from Phys.Rev.,C8(1973)972
HISTORY    (20220608A) SD: SF9=EXP deleted from REACTION code.
ENDBIB               3
NOCOMMON             0          0
DATA                 4        635
ANG-CM     EN         DATA-CM    ERR-S
ADEG       MEV        MB/SR      MB/SR
       67.8      2.023      767.2
       67.8      2.041      657.4
       67.8      2.066      651.1
       67.8      2.083      686.1
       67.8      2.103      608.3
       67.8      2.123      630.0
       67.8      2.163      612.1
       67.8      2.180      602.0
       67.8      2.203      605.1
       67.8      2.225      527.2
       67.8      2.241      493.7
       67.8      2.262      458.6
       67.8      2.284      419.7
       67.8      2.303      341.0
       67.8      2.320      350.4
       67.8      2.325      295.1
       67.8      2.358      312.9
       67.8      2.385      320.7
       67.8      2.398      333.9
       67.8      2.423      344.8
       67.8      2.444      352.6
       67.8      2.461      333.1
       67.8      2.488      336.2
       67.8      2.503      328.4
       67.8      2.523      335.4
       67.8      2.541      308.9
       67.8      2.563      315.1
       67.8      2.586      321.3       13.2
       67.8      2.606      309.6
       67.8      2.620      298.7
       67.8      2.639      282.3
       67.8      2.665      280.8
       67.8      2.688      282.3
       67.8      2.698      265.2
       67.8      2.721      270.6
       67.8      2.746      271.4
       67.8      2.759      247.2
       67.8      2.786      242.5
       67.8      2.803      237.1
       67.8      2.826      231.6
       67.8      2.842      205.9
       67.8      2.844      205.9
       67.8      2.858      193.4
       67.8      2.881      191.0
       67.8      2.882      191.8
       67.8      2.904      197.3
       67.8      2.919      177.0
       67.8      2.942      181.7
       67.8      2.959      175.4
       67.8      2.982      179.3
       67.8      3.003      184.7
       67.8      3.024      173.8
       67.8      3.041      179.2
       67.8      3.062      176.9
       67.8      3.085      176.9
       67.8      3.100      169.1
       67.8      3.123      169.0
       67.8      3.146      169.8
       67.8      3.164      165.1
       67.8      3.188      165.9
       67.8      3.198      156.5
       67.8      3.225      153.4       14.8
       67.8      3.248      151.0
       67.8      3.265      159.6
       67.8      3.286      155.7
       67.8      3.303      152.5
       67.8      3.326      149.4
       67.8      3.347      151.7
       67.8      3.366      150.9
       67.8      3.384      146.3
       67.8      3.430      150.9
       67.8      3.445      154.8
       67.8      3.464      152.4
       67.8      3.485      155.5
       67.8      3.508      151.6
       67.8      3.527      157.0
       67.8      3.542      145.3
       67.8      3.567      148.4
       67.8      3.583      146.1
       67.8      3.609      143.7
       67.8      3.626      135.9
       67.8      3.672      135.9
       67.8      3.684      127.3
       67.8      3.726      124.2
       67.8      3.745      111.7
       67.8      3.766      120.2
       67.8      3.787      117.1
       67.8      3.806      111.6
       67.8      3.827      107.0
       67.8      3.846      114.7
       67.8      3.865      106.1
       67.8      3.881      114.7
       67.8      3.911      115.5
       67.8      3.931      109.2
       67.8      3.948      109.2
       67.8      3.967      102.2
       67.8      3.980       92.0
       67.8      4.011       91.2
       67.8      4.034       85.8
       67.8      4.047       77.2       14.0
       67.8      4.070       78.0
       67.8      4.095       81.0
       67.8      4.104       93.5
       67.8      4.126      102.0
       67.8      4.149      123.0
       67.8      4.174      120.7
       67.8      4.187      115.2
       67.8      4.214      113.6
       67.8      4.223      103.5
       67.8      4.246       93.4
       67.8      4.273       92.6
       67.8      4.290       86.3
       89.7      2.026      333.6
       89.7      2.038      315.8
       89.7      2.060      308.9
       89.7      2.074      299.1
       89.7      2.096      295.3
       89.7      2.118      290.3
       89.7      2.135      260.8
       89.7      2.159      261.2
       89.7      2.185      261.1
       89.7      2.201      246.0
       89.7      2.223      234.2
       89.7      2.242      211.1
       89.7      2.261      187.6
       89.7      2.276      155.0
       89.7      2.296      114.1
       89.7      2.318      143.7
       89.7      2.333      155.4
       89.7      2.357      189.5
       89.7      2.383      192.9
       89.7      2.400      198.2
       89.7      2.419      203.5
       89.7      2.436      211.4
       89.7      2.462      218.6
       89.7      2.478      213.3
       89.7      2.497      209.5
       89.7      2.520      196.6
       89.7      2.533      189.8
       89.7      2.581      194.7        7.2
       89.7      2.593      182.5
       89.7      2.625      182.5
       89.7      2.637      176.8
       89.7      2.658      173.8
       89.7      2.676      171.5
       89.7      2.700      170.0
       89.7      2.714      162.8
       89.7      2.740      161.3
       89.7      2.758      155.6
       89.7      2.774      148.4
       89.7      2.798      137.7
       89.7      2.824      133.2
       89.7      2.840      123.7
       89.7      2.857      127.1
       89.7      2.877      130.9
       89.7      2.898      132.8
       89.7      2.922      134.3
       89.7      2.939      145.3
       89.7      2.959      149.4
       89.7      2.976      146.8
       89.7      3.000      149.0
       89.7      3.020      155.1
       89.7      3.037      147.5
       89.7      3.057      149.7
       89.7      3.083      148.2
       89.7      3.098      144.0
       89.7      3.122      147.8
       89.7      3.136      144.8
       89.7      3.160      145.5
       89.7      3.177      138.7
       89.7      3.202      136.8        6.4
       89.7      3.225      142.5
       89.7      3.236      134.1
       89.7      3.263      133.7
       89.7      3.282      138.3
       89.7      3.298      129.9
       89.7      3.318      122.0
       89.7      3.339      125.0
       89.7      3.359      118.9
       89.7      3.381      117.8
       89.7      3.419      118.5
       89.7      3.436      113.2
       89.7      3.464      113.9
       89.7      3.486      110.5
       89.7      3.494      102.9
       89.7      3.524      101.8
       89.7      3.542       94.6
       89.7      3.566      100.6
       89.7      3.584       88.1
       89.7      3.604       86.2
       89.7      3.621       84.7
       89.7      3.647       83.2
       89.7      3.657       74.1
       89.7      3.685       72.5
       89.7      3.703       68.8
       89.7      3.727       68.7
       89.7      3.742       72.1
       89.7      3.763       72.5
       89.7      3.785       71.4
       89.7      3.801       66.4
       89.7      3.823       67.2
       89.7      3.845       67.9
       89.7      3.862       64.9
       89.7      3.888       63.7
       89.7      3.904       59.2
       89.7      3.919       55.8
       89.7      3.945       56.9
       89.7      3.963       56.1
       89.7      3.979       50.4
       89.7      4.000       49.3
       89.7      4.026       49.3        7.2
       89.7      4.044       49.6
       89.7      4.064       52.3
       89.7      4.085       64.0
       89.7      4.110       74.6
       89.7      4.121       84.1
       89.7      4.148       90.1
       89.7      4.169       81.4
       89.7      4.186       75.0
       89.7      4.207       70.0
       89.7      4.228       66.6
       89.7      4.242       63.6
       89.7      4.266       63.9
       89.7      4.283       61.7
       89.7      4.309       59.8
      113.5      2.022      203.5
      113.5      2.038      156.0
      113.5      2.061      159.8
      113.5      2.080      176.9
      113.5      2.096      139.2
      113.5      2.115      130.2
      113.5      2.138      134.4
      113.5      2.158      119.2
      113.5      2.180       91.2
      113.5      2.193       77.1
      113.5      2.218       69.7
      113.5      2.238       59.9
      113.5      2.259       63.8
      113.5      2.278       68.4
      113.5      2.299       90.2
      113.5      2.319      113.5
      113.5      2.339      104.9
      113.5      2.358      111.1
      113.5      2.381      111.1
      113.5      2.398      106.0
      113.5      2.418      105.2
      113.5      2.435       97.0
      113.5      2.460       93.1
      113.5      2.480       93.0        6.6
      113.5      2.501       91.4
      113.5      2.531       88.7
      113.5      2.557       87.8
      113.5      2.574       82.4
      113.5      2.597       77.3
      113.5      2.618       79.2
      113.5      2.640       69.0
      113.5      2.672       65.1
      113.5      2.717       62.3
      113.5      2.740       59.9
      113.5      2.757       54.1
      113.5      2.778       55.2
      113.5      2.796       50.1
      113.5      2.819       47.4
      113.5      2.857       48.9
      113.5      2.876       56.2
      113.5      2.902       56.2
      113.5      2.921       59.7
      113.5      2.957       60.8
      113.5      2.981       63.8
      113.5      3.010       67.3
      113.5      3.038       64.9
      113.5      3.061       60.6
      113.5      3.081       62.9
      113.5      3.098       58.6
      113.5      3.123       57.4
      113.5      3.149       54.2
      113.5      3.181       54.2        7.0
      113.5      3.204       50.7
      113.5      3.217       46.7
      113.5      3.240       49.8
      113.5      3.262       47.8
      113.5      3.289       43.5
      113.5      3.319       40.8
      113.5      3.351       38.0
      113.5      3.377       34.8
      113.5      3.411       33.6
      113.5      3.437       31.2
      113.5      3.473       29.2
      113.5      3.511       27.2
      113.5      3.549       26.8
      113.5      3.579       25.9
      113.5      3.611       25.9
      113.5      3.643       25.1
      113.5      3.677       25.0
      113.5      3.713       25.0
      113.5      3.741       26.1
      113.5      3.769       28.4
      113.5      3.799       28.7
      113.5      3.833       29.1
      113.5      3.871       27.4
      113.5      3.901       28.6
      113.5      3.926       25.8
      113.5      3.956       27.3
      113.5      3.980       28.8
      113.5      4.011       30.3
      113.5      4.037       33.0
      113.5      4.064       33.0
      113.5      4.075       38.8
      113.5      4.101       39.9        7.4
      113.5      4.126       37.9
      113.5      4.145       35.2
      113.5      4.167       30.9
      113.5      4.199       29.3
      113.5      4.228       27.3
      113.5      4.252       22.6
      113.5      4.275       26.8
      113.5      4.305       24.4
      141.8      2.021       89.8
      141.8      2.046       91.7
      141.8      2.058       85.6
      141.8      2.079       80.9
      141.8      2.098       82.9
      141.8      2.116       76.3
      141.8      2.136       71.5
      141.8      2.153       66.6
      141.8      2.175       63.0
      141.8      2.198       60.2
      141.8      2.216       54.7
      141.8      2.237       53.3
      141.8      2.265       52.2
      141.8      2.279       60.5
      141.8      2.295       82.3
      141.8      2.319       97.4
      141.8      2.333      109.6
      141.8      2.354      119.4
      141.8      2.377      115.8
      141.8      2.391      109.8
      141.8      2.418      109.7
      141.8      2.440      108.8
      141.8      2.453      105.9
      141.8      2.477      103.5        4.0
      141.8      2.495       93.2
      141.8      2.520       90.8
      141.8      2.536       86.2
      141.8      2.561       85.4
      141.8      2.577       80.0
      141.8      2.598       78.4
      141.8      2.620       77.6
      141.8      2.641       77.6
      141.8      2.654       73.1
      141.8      2.678       71.3
      141.8      2.695       68.5
      141.8      2.719       67.9
      141.8      2.746       66.4
      141.8      2.762       64.8
      141.8      2.779       62.0
      141.8      2.797       57.3
      141.8      2.835       59.5
      141.8      2.857       67.6
      141.8      2.873       65.5
      141.8      2.898       66.8
      141.8      2.920       65.8
      141.8      2.943       64.3
      141.8      2.959       58.2
      141.8      2.982       57.8
      141.8      3.004       56.7
      141.8      3.019       51.9
      141.8      3.047       50.6
      141.8      3.079       48.5
      141.8      3.094       44.9
      141.8      3.118       42.8
      141.8      3.137       40.9
      141.8      3.153       37.5
      141.8      3.185       36.5        3.8
      141.8      3.202       33.4
      141.8      3.237       29.8
      141.8      3.266       28.8
      141.8      3.282       25.4
      141.8      3.321       20.1
      141.8      3.340       17.6
      141.8      3.372       15.1
      141.8      3.417       14.9
      141.8      3.454       14.5
      141.8      3.487       15.6
      141.8      3.515       16.7
      141.8      3.547       16.3
      141.8      3.551       19.7
      141.8      3.589       20.8
      141.8      3.628       22.0
      141.8      3.655       25.6
      141.8      3.674       28.0
      141.8      3.700       28.2
      141.8      3.716       32.5
      141.8      3.738       36.1
      141.8      3.759       41.0
      141.8      3.782       39.8
      141.8      3.799       43.5
      141.8      3.813       47.1
      141.8      3.837       49.4
      141.8      3.862       49.3
      141.8      3.879       52.3
      141.8      3.915       53.6
      141.8      3.937       55.5
      141.8      3.960       53.4
      141.8      3.977       56.9
      141.8      4.020       57.3
      141.8      4.036       61.0
      141.8      4.062       62.9
      141.8      4.076       71.0
      141.8      4.099       74.7        4.2
      141.8      4.125       74.0
      141.8      4.141       63.2
      141.8      4.162       42.8
      141.8      4.182       32.0
      141.8      4.200       27.3
      141.8      4.217       24.4
      141.8      4.245       22.1
      141.8      4.277       24.0
      141.8      4.300       26.0
      154.9      2.089       64.6
      154.9      2.113       61.2
      154.9      2.132       58.0
      154.9      2.155       51.7
      154.9      2.172       42.1
      154.9      2.199       51.2
      154.9      2.214       43.2
      154.9      2.238       43.4
      154.9      2.258       59.7
      154.9      2.278       79.9
      154.9      2.295       91.3
      154.9      2.313      102.6
      154.9      2.338       82.4
      154.9      2.358       83.6
      154.9      2.375       78.1
      154.9      2.399       80.1
      154.9      2.418       73.1
      154.9      2.433       78.8
      154.9      2.451       65.0
      154.9      2.470       62.0
      154.9      2.488       58.3
      154.9      2.518       58.7
      154.9      2.534       61.6        4.0
      154.9      2.553       58.6
      154.9      2.573       53.2
      154.9      2.593       59.0
      154.9      2.615       54.1
      154.9      2.633       45.3
      154.9      2.655       46.4
      154.9      2.681       46.4
      154.9      2.694       38.2
      154.9      2.714       40.9
      154.9      2.735       49.1
      154.9      2.754       41.3
      154.9      2.775       33.6
      154.9      2.793       37.2
      154.9      2.815       37.8
      154.9      2.835       39.9
      154.9      2.856       29.3
      154.9      2.873       37.7
      154.9      2.897       38.8
      154.9      2.910       34.2
      154.9      2.932       35.4
      154.9      2.960       35.1
      154.9      2.980       34.9
      154.9      2.998       36.4
      154.9      3.017       28.0
      154.9      3.032       23.0
      154.9      3.056       22.7
      154.9      3.074       24.1
      154.9      3.093       23.1
      154.9      3.117       21.2
      154.9      3.139       20.2
      154.9      3.159       19.4
      154.9      3.176       16.1
      154.9      3.194       14.3
      154.9      3.229       12.6
      154.9      3.257       12.0
      154.9      3.283       11.1        3.8
      154.9      3.300        9.7
      154.9      3.316        9.5
      154.9      3.326        8.3
      154.9      3.344        6.4
      154.9      3.376        7.2
      154.9      3.401        7.3
      154.9      3.435        7.1
      154.9      3.463        7.8
      154.9      3.495        9.0
      154.9      3.519       10.3
      154.9      3.547       11.3
      154.9      3.577       11.8
      154.9      3.595       14.4
      154.9      3.623       15.1
      154.9      3.635       17.1
      154.9      3.659       17.9
      154.9      3.673       21.6
      154.9      3.693       22.4
      154.9      3.721       24.2
      154.9      3.736       28.1
      154.9      3.752       31.3
      154.9      3.774       32.3
      154.9      3.798       33.0
      154.9      3.820       37.4
      154.9      3.842       38.0
      154.9      3.858       39.7
      154.9      3.875       43.5
      154.9      3.897       44.9
      154.9      3.921       48.6
      154.9      3.943       50.2
      154.9      3.956       47.5
      154.9      3.980       47.1
      154.9      4.002       48.5
      154.9      4.020       50.2
      154.9      4.040       51.2
      154.9      4.066       52.4
      154.9      4.159       44.0
      154.9      4.177       31.6
      154.9      4.198       22.5
      154.9      4.219       18.1
      154.9      4.241       16.6
      154.9      4.265       16.0
      154.9      4.286       17.2
      169.1      2.026       78.6
      169.1      2.041       74.2
      169.1      2.059       61.4
      169.1      2.080       70.0
      169.1      2.099       64.7
      169.1      2.119       67.2
      169.1      2.140       59.4
      169.1      2.158       53.5
      169.1      2.178       51.9
      169.1      2.204       53.4
      169.1      2.221       51.6
      169.1      2.245       50.6
      169.1      2.261       55.5
      169.1      2.285       64.1
      169.1      2.302       85.0
      169.1      2.316      100.8
      169.1      2.340      112.6
      169.1      2.365      111.6
      169.1      2.379      110.2
      169.1      2.394      102.7
      169.1      2.423      102.0
      169.1      2.435       92.1
      169.1      2.463       93.5
      169.1      2.481       97.4
      169.1      2.481       83.1
      169.1      2.500       86.7        4.0
      169.1      2.524       80.3
      169.1      2.542       78.7
      169.1      2.559       75.9
      169.1      2.579       73.3
      169.1      2.598       70.1
      169.1      2.617       67.3
      169.1      2.639       67.5
      169.1      2.662       65.4
      169.1      2.678       63.4
      169.1      2.700       64.4
      169.1      2.725       62.0
      169.1      2.736       59.2
      169.1      2.756       57.4
      169.1      2.773       55.0
      169.1      2.801       54.5
      169.1      2.820       53.3
      169.1      2.837       55.8
      169.1      2.856       53.0
      169.1      2.880       54.2
      169.1      2.899       50.2
      169.1      2.918       48.8
      169.1      2.940       47.1
      169.1      2.957       41.0
      169.1      2.976       39.8
      169.1      3.004       40.9
      169.1      3.019       37.1
      169.1      3.040       33.7
      169.1      3.058       32.7
      169.1      3.074       30.9
      169.1      3.093       26.9
      169.1      3.116       25.3
      169.1      3.142       26.6
      169.1      3.155       21.7
      169.1      3.185       21.8
      169.1      3.216       17.2
      169.1      3.242       18.0
      169.1      3.261       14.0
      169.1      3.276       12.0
      169.1      3.298       13.1        4.0
      169.1      3.307       10.1
      169.1      3.337        8.5
      169.1      3.362        8.1
      169.1      3.392        9.2
      169.1      3.422        9.3
      169.1      3.442        9.5
      169.1      3.458       12.4
      169.1      3.476       15.2
      169.1      3.502       13.3
      169.1      3.518       15.5
      169.1      3.542       15.8
      169.1      3.558       18.4
      169.1      3.578       19.7
      169.1      3.599       19.7
      169.1      3.616       22.2
      169.1      3.640       23.8
      169.1      3.656       26.5
      169.1      3.676       28.3
      169.1      3.698       29.8
      169.1      3.714       33.7
      169.1      3.734       42.2
      169.1      3.755       41.0
      169.1      3.777       45.5
      169.1      3.798       48.2
      169.1      3.814       52.7
      169.1      3.836       53.3
      169.1      3.851       60.0
      169.1      3.879       62.1
      169.1      3.898       66.8
      169.1      3.917       66.5
      169.1      3.936       70.5
      169.1      3.957       65.7
      169.1      3.977       68.2
      169.1      3.996       67.6
      169.1      4.016       69.3
      169.1      4.034       79.2
      169.1      4.054       84.7
      169.1      4.076      105.2
      169.1      4.098      120.0
      169.1      4.116      124.1        4.0
      169.1      4.137      107.3
      169.1      4.152       76.2
      169.1      4.172       51.1
      169.1      4.197       36.2
      169.1      4.215       28.3
      169.1      4.234       21.7
      169.1      4.262       21.5
      169.1      4.285       21.2
      169.1      4.307       21.4
ENDDATA            637
ENDSUBENT          645
ENDENTRY             2
