ENTRY            F0486   19990410   19990429
SUBENT        F0486001   19990410   19990429
BIB                 10         16
TITLE      Energy levels of 14N from the elastic scattering
           of alpha particles by 10B
AUTHOR     (T.MO,H.R.WELLER)
INSTITUTE  (1USAFLA)
REFERENCE  (J,PR/C,8,972,197309)
SAMPLE     The target was a thin self-supporting foil of
           10B (enriched to 93%) of thickness 14 mu-g/cm**2
METHOD     (PHD)
FACILITY   (VDG)
DETECTOR   (SOLST) Three silicon surface-barrier detectors
ERR-ANALYS (EN-ERR) Digitizing error
           (DATA-ERR) Error in the absolute cross-sections
           measurements
           (DATA-ERR1) Digitizing error
           (DATA-ERR2) Statistical error from the error bars
HISTORY    (19920512C)
ENDBIB              16
COMMON               2          3
EN-ERR     DATA-ERR
MEV        PER-CENT
 0.005       3.0
ENDCOMMON            3
ENDSUBENT           23
SUBENT        F0486002   19990410   19990429
BIB                  2          2
REACTION   (5-B-10(A,EL)5-B-10,,DA,,,EXP)
STATUS     (CURVE) Fig.2
ENDBIB               2
NOCOMMON
DATA                 5        635
EN         ANG        DATA       DATA-ERR1  DATA-ERR2
MEV        ADEG       MB/SR      MB/SR      MB/SR
     2.021    141.8       89.79       0.095
     2.022    113.5      203.5        0.19
     2.023     67.8      767.2        0.65
     2.026     89.7      333.6        0.25
     2.026    169.1       78.62       0.1
     2.038     89.7      315.8        0.25
     2.038    113.5      156.         0.19
     2.041     67.8      657.4        0.65
     2.041    169.1       74.24       0.1
     2.046    141.8       91.65       0.095
     2.058    141.8       85.6        0.095
     2.059    169.1       61.37       0.1
     2.06      89.7      308.9        0.25
     2.061    113.5      159.8        0.19
     2.066     67.8      651.1        0.65
     2.074     89.7      299.1        0.25
     2.079    141.8       80.86       0.095
     2.08     113.5      176.9        0.19
     2.08     169.1       70.02       0.1
     2.083     67.8      686.1        0.65
     2.089    154.9       64.64       0.1
     2.096     89.7      295.3        0.25
     2.096    113.5      139.2        0.19
     2.098    141.8       82.92       0.095
     2.099    169.1       64.65       0.1
     2.103     67.8      608.3        0.65
     2.113    154.9       61.2        0.1
     2.115    113.5      130.2        0.19
     2.116    141.8       76.29       0.095
     2.118     89.7      290.3        0.25
     2.119    169.1       67.19       0.1
     2.123     67.8      630.         0.65
     2.132    154.9       57.96       0.1
     2.135     89.7      260.8        0.25
     2.136    141.8       71.55       0.095
     2.138    113.5      134.4        0.19
     2.14     169.1       59.44       0.1
     2.153    141.8       66.63       0.095
     2.155    154.9       51.72       0.1
     2.158    113.5      119.2        0.19
     2.158    169.1       53.48       0.1
     2.159     89.7      261.2        0.25
     2.163     67.8      612.1        0.65
     2.172    154.9       42.09       0.1
     2.175    141.8       63.02       0.095
     2.178    169.1       51.87       0.1
     2.18      67.8      602.         0.65
     2.18     113.5       91.16       0.19
     2.185     89.7      261.1        0.25
     2.193    113.5       77.13       0.19
     2.198    141.8       60.17       0.095
     2.199    154.9       51.24       0.1
     2.201     89.7      246.         0.25
     2.203     67.8      605.1        0.65
     2.204    169.1       53.4        0.1
     2.214    154.9       43.22       0.1
     2.216    141.8       54.68       0.095
     2.218    113.5       69.7        0.19
     2.221    169.1       51.59       0.1
     2.223     89.7      234.2        0.25
     2.225     67.8      527.2        0.65
     2.237    141.8       53.33       0.095
     2.238    113.5       59.94       0.19
     2.238    154.9       43.38       0.1
     2.241     67.8      493.7        0.65
     2.242     89.7      211.1        0.25
     2.245    169.1       50.56       0.1
     2.258    154.9       59.74       0.1
     2.259    113.5       63.8        0.19
     2.261     89.7      187.6        0.25
     2.261    169.1       55.47       0.1
     2.262     67.8      458.6        0.65
     2.265    141.8       52.17       0.095
     2.276     89.7      155.         0.25
     2.278    113.5       68.44       0.19
     2.278    154.9       79.9        0.1
     2.279    141.8       60.46       0.095
     2.284     67.8      419.7        0.65
     2.285    169.1       64.13       0.1
     2.295    141.8       82.33       0.095
     2.295    154.9       91.27       0.1
     2.296     89.7      114.1        0.25
     2.299    113.5       90.2        0.19
     2.302    169.1       85.04       0.1
     2.303     67.8      341.         0.65
     2.313    154.9      102.6        0.1
     2.316    169.1      100.8        0.1
     2.318     89.7      143.7        0.25
     2.319    113.5      113.5        0.19
     2.319    141.8       97.4        0.095
     2.32      67.8      350.4        0.65
     2.325     67.8      295.1        0.65
     2.333     89.7      155.4        0.25
     2.333    141.8      109.6        0.095
     2.338    154.9       82.4        0.1
     2.339    113.5      104.9        0.19
     2.34     169.1      112.6        0.1
     2.354    141.8      119.4        0.095
     2.357     89.7      189.5        0.25
     2.358     67.8      312.9        0.65
     2.358    113.5      111.1        0.19
     2.358    154.9       83.56       0.1
     2.365    169.1      111.6        0.1
     2.375    154.9       78.13       0.1
     2.377    141.8      115.8        0.095
     2.379    169.1      110.2        0.1
     2.381    113.5      111.1        0.19
     2.383     89.7      192.9        0.25
     2.385     67.8      320.7        0.65
     2.391    141.8      109.8        0.095
     2.394    169.1      102.7        0.1
     2.398     67.8      333.9        0.65
     2.398    113.5      106.         0.19
     2.399    154.9       80.09       0.1
     2.4       89.7      198.2        0.25
     2.418    113.5      105.2        0.19
     2.418    141.8      109.7        0.095
     2.418    154.9       73.06       0.1
     2.419     89.7      203.5        0.25
     2.423     67.8      344.8        0.65
     2.423    169.1      102.         0.1
     2.433    154.9       78.83       0.1
     2.435    113.5       96.99       0.19
     2.435    169.1       92.11       0.1
     2.436     89.7      211.4        0.25
     2.44     141.8      108.8        0.095
     2.444     67.8      352.6        0.65
     2.451    154.9       65.         0.1
     2.453    141.8      105.9        0.095
     2.46     113.5       93.06       0.19
     2.461     67.8      333.1        0.65
     2.462     89.7      218.6        0.25
     2.463    169.1       93.45       0.1
     2.47     154.9       61.97       0.1
     2.477    141.8      103.5        0.095      3.964
     2.478     89.7      213.3        0.25
     2.48     113.5       93.03       0.19       6.615
     2.481    169.1       83.14       0.1
     2.481    169.1       97.37       0.1
     2.488     67.8      336.2        0.65
     2.488    154.9       58.33       0.1
     2.495    141.8       93.24       0.095
     2.497     89.7      209.5        0.25
     2.5      169.1       86.66       0.1        3.951
     2.501    113.5       91.44       0.19
     2.503     67.8      328.4        0.65
     2.518    154.9       58.68       0.1
     2.52      89.7      196.6        0.25
     2.52     141.8       90.77       0.095
     2.523     67.8      335.4        0.65
     2.524    169.1       80.3        0.1
     2.531    113.5       88.67       0.19
     2.533     89.7      189.8        0.25
     2.534    154.9       61.65       0.1        3.995
     2.536    141.8       86.22       0.095
     2.541     67.8      308.9        0.65
     2.542    169.1       78.68       0.1
     2.553    154.9       58.62       0.1
     2.557    113.5       87.85       0.19
     2.559    169.1       75.89       0.1
     2.561    141.8       85.44       0.095
     2.563     67.8      315.1        0.65
     2.573    154.9       53.19       0.1
     2.574    113.5       82.38       0.19
     2.577    141.8       79.95       0.095
     2.579    169.1       73.28       0.1
     2.581     89.7      194.7        0.25       7.196
     2.586     67.8      321.3        0.65      13.24
     2.593     89.7      182.5        0.25
     2.593    154.9       58.95       0.1
     2.597    113.5       77.28       0.19
     2.598    141.8       78.42       0.095
     2.598    169.1       70.09       0.1
     2.606     67.8      309.6        0.65
     2.615    154.9       54.11       0.1
     2.617    169.1       67.29       0.1
     2.618    113.5       79.2        0.19
     2.62      67.8      298.7        0.65
     2.62     141.8       77.64       0.095
     2.625     89.7      182.5        0.25
     2.633    154.9       45.28       0.1
     2.637     89.7      176.8        0.25
     2.639     67.8      282.3        0.65
     2.639    169.1       67.45       0.1
     2.64     113.5       69.04       0.19
     2.641    141.8       77.62       0.095
     2.654    141.8       73.08       0.095
     2.655    154.9       46.44       0.1
     2.658     89.7      173.8        0.25
     2.662    169.1       65.43       0.1
     2.665     67.8      280.8        0.65
     2.672    113.5       65.1        0.19
     2.676     89.7      171.5        0.25
     2.678    141.8       71.35       0.095
     2.678    169.1       63.42       0.1
     2.681    154.9       46.4        0.1
     2.688     67.8      282.3        0.65
     2.694    154.9       38.17       0.1
     2.695    141.8       68.5        0.095
     2.698     67.8      265.2        0.65
     2.7       89.7      170.         0.25
     2.7      169.1       64.37       0.1
     2.714     89.7      162.8        0.25
     2.714    154.9       40.94       0.1
     2.717    113.5       62.31       0.19
     2.719    141.8       67.91       0.095
     2.721     67.8      270.6        0.65
     2.725    169.1       61.96       0.1
     2.735    154.9       49.1        0.1
     2.736    169.1       59.17       0.1
     2.74      89.7      161.3        0.25
     2.74     113.5       59.94       0.19
     2.746     67.8      271.4        0.65
     2.746    141.8       66.37       0.095
     2.754    154.9       41.27       0.1
     2.756    169.1       57.36       0.1
     2.757    113.5       54.08       0.19
     2.758     89.7      155.6        0.25
     2.759     67.8      247.2        0.65
     2.762    141.8       64.85       0.095
     2.773    169.1       54.95       0.1
     2.774     89.7      148.4        0.25
     2.775    154.9       33.63       0.1
     2.778    113.5       55.21       0.19
     2.779    141.8       62.         0.095
     2.786     67.8      242.5        0.65
     2.793    154.9       37.2        0.1
     2.796    113.5       50.12       0.19
     2.797    141.8       57.26       0.095
     2.798     89.7      137.7        0.25
     2.801    169.1       54.51       0.1
     2.803     67.8      237.1        0.65
     2.815    154.9       37.76       0.1
     2.819    113.5       47.36       0.19
     2.82     169.1       53.29       0.1
     2.824     89.7      133.2        0.25
     2.826     67.8      231.6        0.65
     2.835    141.8       59.49       0.095
     2.835    154.9       39.92       0.1
     2.837    169.1       55.83       0.1
     2.84      89.7      123.7        0.25
     2.842     67.8      205.9        0.65
     2.844     67.8      205.9        0.65
     2.856    154.9       29.29       0.1
     2.856    169.1       53.03       0.1
     2.857     89.7      127.1        0.25
     2.857    113.5       48.86       0.19
     2.857    141.8       67.58       0.095
     2.858     67.8      193.4        0.65
     2.873    141.8       65.48       0.095
     2.873    154.9       37.66       0.1
     2.876    113.5       56.23       0.19
     2.877     89.7      130.9        0.25
     2.88     169.1       54.17       0.1
     2.881     67.8      191.         0.65
     2.882     67.8      191.8        0.65
     2.897    154.9       38.82       0.1
     2.898     89.7      132.8        0.25
     2.898    141.8       66.78       0.095
     2.899    169.1       50.19       0.1
     2.902    113.5       56.18       0.19
     2.904     67.8      197.3        0.65
     2.91     154.9       34.19       0.1
     2.918    169.1       48.77       0.1
     2.919     67.8      177.         0.65
     2.92     141.8       65.81       0.095
     2.921    113.5       59.66       0.19
     2.922     89.7      134.3        0.25
     2.932    154.9       35.35       0.1
     2.939     89.7      145.3        0.25
     2.94     169.1       47.15       0.1
     2.942     67.8      181.7        0.65
     2.943    141.8       64.28       0.095
     2.957    113.5       60.77       0.19
     2.957    169.1       40.99       0.1
     2.959     67.8      175.4        0.65
     2.959     89.7      149.4        0.25
     2.959    141.8       58.22       0.095
     2.96     154.9       35.1        0.1
     2.976     89.7      146.8        0.25
     2.976    169.1       39.77       0.1
     2.98     154.9       34.87       0.1
     2.981    113.5       63.84       0.19
     2.982     67.8      179.3        0.65
     2.982    141.8       57.82       0.095
     2.998    154.9       36.44       0.1
     3.        89.7      149.         0.25
     3.003     67.8      184.7        0.65
     3.004    141.8       56.66       0.095
     3.004    169.1       40.91       0.1
     3.01     113.5       67.3        0.19
     3.017    154.9       28.01       0.1
     3.019    141.8       51.93       0.095
     3.019    169.1       37.13       0.1
     3.02      89.7      155.1        0.25
     3.024     67.8      173.8        0.65
     3.032    154.9       22.98       0.1
     3.037     89.7      147.5        0.25
     3.038    113.5       64.92       0.19
     3.04     169.1       33.73       0.1
     3.041     67.8      179.2        0.65
     3.047    141.8       50.58       0.095
     3.056    154.9       22.74       0.1
     3.057     89.7      149.7        0.25
     3.058    169.1       32.71       0.1
     3.061    113.5       60.61       0.19
     3.062     67.8      176.9        0.65
     3.074    154.9       24.11       0.1
     3.074    169.1       30.9        0.1
     3.079    141.8       48.47       0.095
     3.081    113.5       62.91       0.19
     3.083     89.7      148.2        0.25
     3.085     67.8      176.9        0.65
     3.093    154.9       23.07       0.1
     3.093    169.1       26.92       0.1
     3.094    141.8       44.87       0.095
     3.098     89.7      144.         0.25
     3.098    113.5       58.6        0.19
     3.1       67.8      169.1        0.65
     3.116    169.1       25.3        0.1
     3.117    154.9       21.23       0.1
     3.118    141.8       42.77       0.095
     3.122     89.7      147.8        0.25
     3.123     67.8      169.         0.65
     3.123    113.5       57.4        0.19
     3.136     89.7      144.8        0.25
     3.137    141.8       40.86       0.095
     3.139    154.9       20.19       0.1
     3.142    169.1       26.63       0.1
     3.146     67.8      169.8        0.65
     3.149    113.5       54.24       0.19
     3.153    141.8       37.45       0.095
     3.155    169.1       21.67       0.1
     3.159    154.9       19.36       0.1
     3.16      89.7      145.5        0.25
     3.164     67.8      165.1        0.65
     3.176    154.9       16.13       0.1
     3.177     89.7      138.7        0.25
     3.181    113.5       54.19       0.19       7.01
     3.185    141.8       36.47       0.095      3.773
     3.185    169.1       21.81       0.1
     3.188     67.8      165.9        0.65
     3.194    154.9       14.29       0.1
     3.198     67.8      156.5        0.65
     3.202     89.7      136.8        0.25       6.439
     3.202    141.8       33.43       0.095
     3.204    113.5       50.66       0.19
     3.216    169.1       17.21       0.1
     3.217    113.5       46.74       0.19
     3.225     67.8      153.4        0.65      14.79
     3.225     89.7      142.5        0.25
     3.229    154.9       12.63       0.1
     3.236     89.7      134.1        0.25
     3.237    141.8       29.81       0.095
     3.24     113.5       49.82       0.19
     3.242    169.1       17.96       0.1
     3.248     67.8      151.         0.65
     3.257    154.9       11.98       0.1
     3.261    169.1       13.97       0.1
     3.262    113.5       47.84       0.19
     3.263     89.7      133.7        0.25
     3.265     67.8      159.6        0.65
     3.266    141.8       28.84       0.095
     3.276    169.1       11.97       0.1
     3.282     89.7      138.3        0.25
     3.282    141.8       25.42       0.095
     3.283    154.9       11.14       0.1        3.799
     3.286     67.8      155.7        0.65
     3.289    113.5       43.52       0.19
     3.298     89.7      129.9        0.25
     3.298    169.1       13.12       0.1        3.954
     3.3      154.9        9.707      0.1
     3.303     67.8      152.5        0.65
     3.307    169.1       10.14       0.1
     3.316    154.9        9.479      0.1
     3.318     89.7      122.         0.25
     3.319    113.5       40.75       0.19
     3.321    141.8       20.1        0.095
     3.326     67.8      149.4        0.65
     3.326    154.9        8.262      0.1
     3.337    169.1        8.502      0.1
     3.339     89.7      125.         0.25
     3.34     141.8       17.63       0.095
     3.344    154.9        6.431      0.1
     3.347     67.8      151.7        0.65
     3.351    113.5       37.98       0.19
     3.359     89.7      118.9        0.25
     3.362    169.1        8.061      0.1
     3.366     67.8      150.9        0.65
     3.372    141.8       15.14       0.095
     3.376    154.9        7.174      0.1
     3.377    113.5       34.82       0.19
     3.381     89.7      117.8        0.25
     3.384     67.8      146.3        0.65
     3.392    169.1        9.193      0.1
     3.401    154.9        7.329      0.1
     3.411    113.5       33.6        0.19
     3.417    141.8       14.9        0.095
     3.419     89.7      118.5        0.25
     3.422    169.1        9.338      0.1
     3.43      67.8      150.9        0.65
     3.435    154.9        7.069      0.1
     3.436     89.7      113.2        0.25
     3.437    113.5       31.23       0.19
     3.442    169.1        9.5        0.1
     3.445     67.8      154.8        0.65
     3.454    141.8       14.48       0.095
     3.458    169.1       12.44       0.1
     3.463    154.9        7.82       0.1
     3.464     67.8      152.4        0.65
     3.464     89.7      113.9        0.25
     3.473    113.5       29.23       0.19
     3.476    169.1       15.17       0.1
     3.485     67.8      155.5        0.65
     3.486     89.7      110.5        0.25
     3.487    141.8       15.58       0.095
     3.494     89.7      102.9        0.25
     3.495    154.9        8.964      0.1
     3.502    169.1       13.35       0.1
     3.508     67.8      151.6        0.65
     3.511    113.5       27.22       0.19
     3.515    141.8       16.68       0.095
     3.518    169.1       15.49       0.1
     3.519    154.9       10.32       0.1
     3.524     89.7      101.8        0.25
     3.527     67.8      157.         0.65
     3.542     67.8      145.3        0.65
     3.542     89.7       94.59       0.25
     3.542    169.1       15.84       0.1
     3.547    141.8       16.27       0.095
     3.547    154.9       11.27       0.1
     3.549    113.5       26.77       0.19
     3.551    141.8       19.66       0.095
     3.558    169.1       18.38       0.1
     3.566     89.7      100.6        0.25
     3.567     67.8      148.4        0.65
     3.577    154.9       11.82       0.1
     3.578    169.1       19.73       0.1
     3.579    113.5       25.95       0.19
     3.583     67.8      146.1        0.65
     3.584     89.7       88.13       0.25
     3.589    141.8       20.76       0.095
     3.595    154.9       14.39       0.1
     3.599    169.1       19.69       0.1
     3.604     89.7       86.23       0.25
     3.609     67.8      143.7        0.65
     3.611    113.5       25.9        0.19
     3.616    169.1       22.23       0.1
     3.621     89.7       84.7        0.25
     3.623    154.9       15.14       0.1
     3.626     67.8      135.9        0.65
     3.628    141.8       22.03       0.095
     3.635    154.9       17.12       0.1
     3.64     169.1       23.77       0.1
     3.643    113.5       25.07       0.19
     3.647     89.7       83.18       0.25
     3.655    141.8       25.59       0.095
     3.656    169.1       26.51       0.1
     3.657     89.7       74.08       0.25
     3.659    154.9       17.87       0.1
     3.672     67.8      135.9        0.65
     3.673    154.9       21.65       0.1
     3.674    141.8       28.02       0.095
     3.676    169.1       28.25       0.1
     3.677    113.5       25.02       0.19
     3.684     67.8      127.3        0.65
     3.685     89.7       72.55       0.25
     3.693    154.9       22.41       0.1
     3.698    169.1       29.79       0.1
     3.7      141.8       28.18       0.095
     3.703     89.7       68.75       0.25
     3.713    113.5       24.96       0.19
     3.714    169.1       33.71       0.1
     3.716    141.8       32.51       0.095
     3.721    154.9       24.16       0.1
     3.726     67.8      124.2        0.65
     3.727     89.7       68.74       0.25
     3.734    169.1       42.18       0.1
     3.736    154.9       28.14       0.1
     3.738    141.8       36.07       0.095
     3.741    113.5       26.08       0.19
     3.742     89.7       72.14       0.25
     3.745     67.8      111.7        0.65
     3.752    154.9       31.31       0.1
     3.755    169.1       40.95       0.1
     3.759    141.8       40.95       0.095
     3.763     89.7       72.51       0.25
     3.766     67.8      120.2        0.65
     3.769    113.5       28.37       0.19
     3.774    154.9       32.27       0.1
     3.777    169.1       45.46       0.1
     3.782    141.8       39.79       0.095
     3.785     89.7       71.37       0.25
     3.787     67.8      117.1        0.65
     3.798    154.9       33.03       0.1
     3.798    169.1       48.19       0.1
     3.799    113.5       28.72       0.19
     3.799    141.8       43.55       0.095
     3.801     89.7       66.43       0.25
     3.806     67.8      111.6        0.65
     3.813    141.8       47.12       0.095
     3.814    169.1       52.7        0.1
     3.82     154.9       37.39       0.1
     3.823     89.7       67.18       0.25
     3.827     67.8      107.         0.65
     3.833    113.5       29.05       0.19
     3.836    169.1       53.26       0.1
     3.837    141.8       49.36       0.095
     3.842    154.9       37.95       0.1
     3.845     89.7       67.93       0.25
     3.846     67.8      114.7        0.65
     3.851    169.1       59.95       0.1
     3.858    154.9       39.72       0.1
     3.862     89.7       64.89       0.25
     3.862    141.8       49.33       0.095
     3.865     67.8      106.1        0.65
     3.871    113.5       27.44       0.19
     3.875    154.9       43.49       0.1
     3.879    141.8       52.33       0.095
     3.879    169.1       62.07       0.1
     3.881     67.8      114.7        0.65
     3.888     89.7       63.74       0.25
     3.897    154.9       44.85       0.1
     3.898    169.1       66.78       0.1
     3.901    113.5       28.56       0.19
     3.904     89.7       59.19       0.25
     3.911     67.8      115.5        0.65
     3.915    141.8       53.61       0.095
     3.917    169.1       66.55       0.1
     3.919     89.7       55.77       0.25
     3.921    154.9       48.61       0.1
     3.926    113.5       25.8        0.19
     3.931     67.8      109.2        0.65
     3.936    169.1       70.47       0.1
     3.937    141.8       55.48       0.095
     3.943    154.9       50.17       0.1
     3.945     89.7       56.9        0.25
     3.948     67.8      109.2        0.65
     3.956    113.5       27.31       0.19
     3.956    154.9       47.55       0.1
     3.957    169.1       65.69       0.1
     3.96     141.8       53.38       0.095
     3.963     89.7       56.13       0.25
     3.967     67.8      102.2        0.65
     3.977    141.8       56.94       0.095
     3.977    169.1       68.22       0.1
     3.979     89.7       50.44       0.25
     3.98      67.8       92.04       0.65
     3.98     113.5       28.82       0.19
     3.98     154.9       47.11       0.1
     3.996    169.1       67.59       0.1
     4.        89.7       49.29       0.25
     4.002    154.9       48.47       0.1
     4.011     67.8       91.23       0.65
     4.011    113.5       30.33       0.19
     4.016    169.1       69.34       0.1
     4.02     141.8       57.27       0.095
     4.02     154.9       50.24       0.1
     4.026     89.7       49.28       0.25       7.196
     4.034     67.8       85.76       0.65
     4.034    169.1       79.18       0.1
     4.036    141.8       61.03       0.095
     4.037    113.5       33.02       0.19
     4.04     154.9       51.2        0.1
     4.044     89.7       49.65       0.25
     4.047     67.8       77.19       0.65      14.01
     4.054    169.1       84.68       0.1
     4.062    141.8       62.89       0.095
     4.064     89.7       52.29       0.25
     4.064    113.5       32.97       0.19
     4.066    154.9       52.35       0.1
     4.07      67.8       77.95       0.65
     4.075    113.5       38.79       0.19
     4.076    141.8       70.99       0.095
     4.076    169.1      105.2        0.1
     4.085     89.7       64.02       0.25
     4.095     67.8       81.04       0.65
     4.098    169.1      120.         0.1
     4.099    141.8       74.74       0.095      4.153
     4.101    113.5       39.92       0.19       7.393
     4.104     67.8       93.49       0.65
     4.11      89.7       74.62       0.25
     4.116    169.1      124.1        0.1        3.951
     4.121     89.7       84.08       0.25
     4.125    141.8       73.95       0.095
     4.126     67.8      102.         0.65
     4.126    113.5       37.94       0.19
     4.137    169.1      107.3        0.1
     4.141    141.8       63.18       0.095
     4.145    113.5       35.18       0.19
     4.148     89.7       90.13       0.25
     4.149     67.8      123.         0.65
     4.152    169.1       76.21       0.1
     4.159    154.9       43.99       0.1
     4.162    141.8       42.78       0.095
     4.167    113.5       30.87       0.19
     4.169     89.7       81.41       0.25
     4.172    169.1       51.08       0.1
     4.174     67.8      120.7        0.65
     4.177    154.9       31.56       0.1
     4.182    141.8       32.01       0.095
     4.186     89.7       74.96       0.25
     4.187     67.8      115.2        0.65
     4.197    169.1       36.21       0.1
     4.198    154.9       22.52       0.1
     4.199    113.5       29.26       0.19
     4.2      141.8       27.27       0.095
     4.207     89.7       70.03       0.25
     4.214     67.8      113.6        0.65
     4.215    169.1       28.28       0.1
     4.217    141.8       24.42       0.095
     4.219    154.9       18.09       0.1
     4.223     67.8      103.5        0.65
     4.228     89.7       66.61       0.25
     4.228    113.5       27.27       0.19
     4.234    169.1       21.72       0.1
     4.241    154.9       16.65       0.1
     4.242     89.7       63.57       0.25
     4.245    141.8       22.13       0.095
     4.246     67.8       93.37       0.65
     4.252    113.5       22.56       0.19
     4.262    169.1       21.47       0.1
     4.265    154.9       16.01       0.1
     4.266     89.7       63.94       0.25
     4.273     67.8       92.57       0.65
     4.275    113.5       26.81       0.19
     4.277    141.8       23.98       0.095
     4.283     89.7       61.66       0.25
     4.285    169.1       21.23       0.1
     4.286    154.9       17.17       0.1
     4.29      67.8       86.33       0.65
     4.3      141.8       26.03       0.095
     4.305    113.5       24.43       0.19
     4.307    169.1       21.39       0.1
     4.309     89.7       59.75       0.25
ENDDATA            637
ENDSUBENT          644
ENDENTRY             2
