ENTRY            F0484   20030517   20030930
SUBENT        F0484001   20030517   20030930
BIB                  9         14
TITLE      Investigation of the 11B(3He,p)13C and 20Ne(3He,p)22Na
           reactions at E(He3) below 3 MeV.
AUTHOR     (C.MEYNADIER,J.F.ALLARD,M.AMIEL,H.BEAUMEVIEILLE,
           B.CHAMBON,C.MORAND)
INSTITUTE  (3ALGALG) Institut d'Etudes Nucleaires d'Alger
REFERENCE  (J,NP/A,161,305,197101)
METHOD     (EDE,PHD)
FACILITY   (VDG)
DETECTOR   (TELES,SIBAR) Three sets of movable surface barrier
           detectors which are 1000 or 1500 mu-m thick.
ERR-ANALYS (DATA-ERR) Max. overall error
HISTORY    (19920429C)
           (20030505U) Excluded COMMENT from subent 001;
           Changed data headings in 003. Inserted sub.005
ENDBIB              14
COMMON               1          3
DATA-ERR
PER-CENT
  20.0
ENDCOMMON            3
ENDSUBENT           21
SUBENT        F0484002   20010201   20030430
BIB                  3          5
REACTION   (5-B-11(HE3,P)6-C-13,PAR,SIG)
SAMPLE     A gaseous target of isotopic boron (enriched 11B 99%)
           with chemical form B2H6 was used with
           differential pumping.
STATUS     (TABLE) Tbl.2
ENDBIB               5
COMMON               1          3
EN
MEV
 3.0
ENDCOMMON            3
DATA                 2         12
E-EXC      DATA
MEV        MB
  3.080      3.120
  3.680      6.180
  3.850      3.930
  6.860      3.120
  7.500      3.990
  7.550      6.870
  7.690      3.280
  9.510      1.620
  9.890      5.090
  10.76      3.430
  11.01      1.080
  11.09      3.530
ENDDATA             14
ENDSUBENT           28
SUBENT        F0484003   20030517   20030930
BIB                  4          6
REACTION   (5-B-11(HE3,P)6-C-13,PAR,DA)
ERR-ANALYS (ANG-ERR) Digitizing error
           (DATA-ERR1) Digitizing error
           (DATA-ERR2) Experimental error from graphic bars
EN-SEC     (E-LVL,6-C-13)
STATUS     (CURVE) Fig.5
ENDBIB               6
COMMON               3          3
EN         ANG-ERR    DATA-ERR1
MEV        ADEG       MB/SR
  3.0       0.5        0.001
ENDCOMMON            3
DATA                 4        214
E-LVL      ANG-CM     DATA-CM    DATA-ERR2
MEV        ADEG       MB/SR      MB/SR
  3.080      10.26     0.2906     0.5610E-01
  3.080      24.92     0.1519     0.2370E-01
  3.080      43.00     0.1019
  3.080      62.38     0.1065
  3.080      79.32     0.1055
  3.080      99.67     0.1354     0.1600E-01
  3.080      117.9     0.1284
  3.080      137.6     0.2230
  3.080      155.7     0.2753
  3.080      173.3     0.3126
  3.080      191.2     0.3546     0.5320E-01
  3.080      209.1     0.3627
  3.080      224.9     0.4025
  3.080      240.2     0.4939
  3.080      255.0     0.4587     0.5290E-01
  3.080      265.8     0.4327
  3.080      269.9     0.4116
  3.680      23.25     0.3176
  3.680      25.30     0.3130     0.4660E-01
  3.680      31.25     0.3329
  3.680      38.34     0.3533
  3.680      47.31     0.3526
  3.680      56.23     0.3825     0.4730E-01
  3.680      66.25     0.3739
  3.680      75.24     0.4641
  3.680      84.51     0.4457
  3.680      94.33     0.5415
  3.680      103.7     0.5538     0.6360E-01
  3.680      112.8     0.6107
  3.680      121.7     0.5748
  3.680      130.7     0.5845
  3.680      138.5     0.6183
  3.680      147.2     0.7369
  3.680      154.0     0.6445     0.8380E-01
  3.680      157.8     0.6031
  3.680      159.2     0.6732
  3.680      161.3     0.6568
  3.850      23.10     0.1296     0.2410E-01
  3.850      24.85     0.1371
  3.850      30.80     0.1396
  3.850      38.96     0.1853     0.3470E-01
  3.850      46.92     0.1719
  3.850      56.65     0.2057
  3.850      66.54     0.2517     0.4320E-01
  3.850      75.47     0.2843
  3.850      84.65     0.3322
  3.850      94.40     0.3444
  3.850      112.7     0.4076     0.6320E-01
  3.850      121.8     0.4102
  3.850      130.6     0.3854
  3.850      138.8     0.4080
  3.850      146.6     0.4938
  3.850      153.6     0.4224
  3.850      158.9     0.4928     0.6670E-01
  3.850      160.5     0.4246
  6.860      22.62     0.2387
  6.860      24.58     0.2422
  6.860      30.53     0.2506     0.3740E-01
  6.860      38.08     0.2890
  6.860      47.40     0.2661
  6.860      56.45     0.2765
  6.860      65.53     0.2533
  6.860      75.46     0.3068
  6.860      84.62     0.2865     0.5350E-01
  6.860      93.70     0.2154
  6.860      103.7     0.2222     0.4120E-01
  6.860      121.8     0.2138
  6.860      129.7     0.2139
  6.860      137.8     0.2364
  6.860      145.9     0.2696
  6.860      153.2     0.2529
  6.860      157.8     0.2771     0.4280E-01
  6.860      160.0     0.2703
  7.500      23.34     0.1425
  7.500      25.00     0.1461     0.2970E-01
  7.500      30.97     0.1642
  7.500      39.86     0.2143
  7.500      76.26     0.2860     0.5210E-01
  7.500      85.27     0.2392
  7.500      94.37     0.2109
  7.500      104.2     0.2556
  7.500      122.7     0.4529
  7.500      130.4     0.4714     0.6890E-01
  7.500      139.7     0.5936
  7.500      146.6     0.5448
  7.500      154.2     0.4950
  7.500      159.0     0.5349     0.6420E-01
  7.500      160.4     0.4934
  7.550      23.39     0.1681
  7.550      24.99     0.1737     0.4630E-01
  7.550      31.12     0.2034
  7.550      39.15     0.2571
  7.550      66.48     0.3233
  7.550      76.65     0.4137
  7.550      85.26     0.4330     0.7810E-01
  7.550      94.40     0.5202
  7.550      104.6     0.6242     0.1069
  7.550      113.8     0.5216
  7.550      122.2     0.6909
  7.550      139.5     0.9370
  7.550      141.7      1.072
  7.550      146.6      1.127     0.1483
  7.550      153.9      1.298
  7.550      158.8      1.410
  7.550      160.9      1.235
  7.680      22.71     0.2319
  7.680      24.59     0.2270     0.4260E-01
  7.680      30.41     0.1945
  7.680      38.61     0.1922
  7.680      46.48     0.1919
  7.680      56.89     0.2270
  7.680      65.90     0.2097     0.3250E-01
  7.680      84.92     0.2881
  7.680      94.75     0.2603
  7.680      121.6     0.2656     0.4160E-01
  7.680      129.8     0.2744
  7.680      145.5     0.4069
  7.680      153.1     0.3411
  7.680      157.8     0.4043     0.5440E-01
  7.680      160.4     0.3729
  9.520      23.03     0.6570E-01
  9.520      25.21     0.6470E-01
  9.520      30.82     0.7450E-01 0.1060E-01
  9.520      38.94     0.8690E-01
  9.520      47.98     0.1012
  9.520      57.60     0.8870E-01
  9.520      67.15     0.1042     0.2590E-01
  9.520      76.27     0.1065
  9.520      86.65     0.1214
  9.520      95.36     0.1348
  9.520      104.6     0.1409
  9.520      113.3     0.1580     0.2320E-01
  9.520      131.9     0.1563
  9.520      139.7     0.1702
  9.520      146.8     0.2104
  9.520      154.0     0.1948     0.2640E-01
  9.520      159.1     0.2479
  9.520      166.2     0.2040
  9.900      23.38     0.3035     0.3230E-01
  9.900      26.23     0.3329
  9.900      31.20     0.2887
  9.900      39.48     0.2868
  9.900      46.68     0.2565
  9.900      57.27     0.2698     0.3160E-01
  9.900      67.43     0.3043
  9.900      77.51     0.3373
  9.900      86.44     0.3341     0.5900E-01
  9.900      95.72     0.3622
  9.900      104.8     0.4374
  9.900      113.9     0.4545
  9.900      123.0     0.4610     0.5130E-01
  9.900      132.2     0.5349
  9.900      140.1     0.6114
  9.900      147.4     0.7305
  9.900      154.1     0.7002     0.6290E-01
  9.900      159.0     0.7151
  9.900      160.9     0.6961
  10.76      25.71     0.1028     0.2220E-01
  10.76      31.97     0.1365
  10.76      39.86     0.2692     0.4430E-01
  10.76      48.61     0.2594
  10.76      67.87     0.3693     0.6120E-01
  10.76      113.9     0.2353     0.5050E-01
  10.76      122.8     0.2585
  10.76      131.5     0.2902
  10.76      139.6     0.2610
  10.76      146.7     0.3689
  10.76      153.9     0.3439     0.3810E-01
  10.76      158.7     0.3193
  10.82      23.19     0.2311
  10.82      25.69     0.2396     0.1980E-01
  10.82      31.90     0.2148
  10.82      48.62     0.2926
  10.82      67.39     0.2618
  10.82      86.31     0.2795     0.4340E-01
  10.82      123.1     0.3326     0.3290E-01
  10.82      131.0     0.3562
  10.82      139.3     0.3946
  10.82      146.6     0.4108
  10.82      153.9     0.3941
  10.82      158.7     0.3941     0.3630E-01
  10.82      160.2     0.4566
  11.01      22.73     0.1488
  11.01      25.98     0.1237     0.1750E-01
  11.01      32.45     0.1181
  11.01      49.17     0.5800E-01
  11.01      58.24     0.6260E-01
  11.01      68.84     0.1101
  11.01      77.54     0.8940E-01 0.1880E-01
  11.01      79.34     0.1209
  11.01      87.64     0.1045
  11.01      96.49     0.8090E-01
  11.01      132.2     0.8370E-01 0.1860E-01
  11.01      140.3     0.5570E-01
  11.01      147.4     0.9260E-01
  11.01      154.7     0.8720E-01
  11.01      159.9     0.1056     0.1460E-01
  11.01      161.9     0.1570
  11.01      171.9     0.1437
  11.09      24.33     0.2742
  11.09      26.01     0.2765     0.2750E-01
  11.09      31.24     0.2303
  11.09      39.04     0.2638
  11.09      57.92     0.2218     0.3600E-01
  11.09      76.34     0.2821
  11.09      86.14     0.2761
  11.09      95.87     0.3440
  11.09      105.0     0.3843     0.6320E-01
  11.09      114.0     0.3162
  11.09      123.2     0.3339
  11.09      131.1     0.3182
  11.09      152.8     0.2266     0.3660E-01
  11.09      158.1     0.2232
  11.09      159.8     0.1769
ENDDATA            216
ENDSUBENT          231
SUBENT        F0484004   20010201   20030430
BIB                  3          3
REACTION   (10-NE-20(HE3,P)11-NA-22,PAR,SIG)
SAMPLE     Natural neon (90.5% - 20Ne, 9% -22Ne, 0.5% 21Ne)
STATUS     (TABLE) Tbl.3
ENDBIB               3
COMMON               1          3
EN
MEV
  2.9
ENDCOMMON            3
DATA                 2         10
E-EXC      DATA
MEV        MICRO-B
 0.0000E+00  255.0
 0.5830      511.0
 0.6570      180.0
 0.8910      198.0
  1.528      140.0
  2.211      629.0
  2.572      430.0
  2.969      565.0
  3.059      589.0
  3.944      1.670
ENDDATA             12
ENDSUBENT           24
SUBENT        F0484005   20030517   20030930
BIB                  5          7
REACTION   (10-NE-20(HE3,P)11-NA-22,PAR,DA)
SAMPLE     Natural neon (90.5% - 20Ne, 9% -22Ne, 0.5% 21Ne)
EN-SEC     (E-LVL,11-NA-22)
ERR-ANALYS (ANG-ERR)    Digitizing error
           (DATA-ERR1)   Digitizing error
           (DATA-ERR2) Experimental error from graphic bars
STATUS     (CURVE)fig. 3
ENDBIB               7
COMMON               2          3
ANG-ERR    DATA-ERR1
ADEG       MU-B/SR
 0.5         0.2
ENDCOMMON            3
DATA                 5        242
EN         E-LVL      ANG-CM     DATA-CM    DATA-ERR2
MEV        MEV        ADEG       MU-B/SR    MU-B/SR
  2.800      0.000      21.90      21.78
  2.800      0.000      23.74      25.88
  2.800      0.000      29.89      30.37      2.455
  2.800      0.000      38.61      34.41
  2.800      0.000      51.32      33.93
  2.800      0.000      65.60      32.00
  2.800      0.000      79.63      24.17      3.092
  2.800      0.000      93.54      17.88
  2.800      0.000      106.1      14.67
  2.800      0.000      120.3      13.74      2.092
  2.800      0.000      145.5      19.78
  2.800      0.000      156.3      20.74
  2.800     0.5800      23.75      46.32
  2.800     0.5800      29.80      47.48      5.087
  2.800     0.5800      50.91      41.92
  2.800     0.5800      64.75      37.91
  2.800     0.5800      78.85      36.26
  2.800     0.5800      132.4      43.77      4.901
  2.800     0.5800      144.4      41.92
  2.800     0.5800      154.5      31.87
  2.800     0.5800      159.7      30.12
  2.800     0.6500      22.31      20.13
  2.800     0.6500      24.59      13.60      3.547
  2.800     0.6500      29.79      6.619
  2.800     0.6500      38.53      11.11
  2.800     0.6500      63.10      12.04
  2.800     0.6500      79.97      14.30
  2.800     0.6500      93.23      11.27      2.455
  2.800     0.6500      107.7      6.876
  2.800     0.6500      145.4      22.32
  2.800     0.6500      155.4      24.09      3.001
  2.800     0.6500      160.9      27.39
  2.800     0.6500      165.8      25.41
  2.800     0.8900      22.46      19.89
  2.800     0.8900      24.49      17.45
  2.800     0.8900      30.22      9.944
  2.800     0.8900      38.66      22.53
  2.800     0.8900      50.23      13.88      2.632
  2.800     0.8900      64.70      15.88
  2.800     0.8900      78.01      15.06
  2.800     0.8900      133.1      8.046
  2.800     0.8900      144.7      9.209      2.816
  2.800     0.8900      155.2      12.54      2.632
  2.800     0.8900      160.2      8.126
  2.800      1.520      22.14      15.61
  2.800      1.520      24.26      16.08
  2.800      1.520      30.52      22.02
  2.800      1.520      39.15      18.54      3.814
  2.800      1.520      50.98      8.076
  2.800      1.520      64.87      5.983
  2.800      1.520      78.70      4.617
  2.800      1.520      92.35      8.606
  2.800      1.520      107.4      6.158      2.450
  2.800      1.520      132.6      6.133
  2.800      1.520      159.7      5.122      2.455
  2.800      1.520      170.1      5.641
  2.800      2.210      24.17      41.56      2.741
  2.800      2.210      37.95      40.99
  2.800      2.210      51.22      43.51      5.120
  2.800      2.210      65.30      44.40
  2.800      2.210      79.49      50.77
  2.800      2.210      93.56      59.89
  2.800      2.210      107.2      45.23      5.116
  2.800      2.210      120.7      51.05
  2.800      2.210      133.4      50.64
  2.800      2.210      145.5      46.39
  2.800      2.210      155.6      47.23      2.375
  2.800      2.210      166.1      47.53
  2.800      2.570      23.87      24.54      3.062
  2.800      2.570      38.04      33.14
  2.800      2.570      65.34      41.17
  2.800      2.570      79.80      35.03      2.691
  2.800      2.570      93.52      29.43
  2.800      2.570      107.6      31.20
  2.800      2.570      119.8      28.28
  2.800      2.570      133.6      27.35
  2.800      2.570      146.1      26.23
  2.800      2.570      156.0      23.28      2.695
  2.800      2.570      160.9      19.74
  2.800      2.570      166.0      20.33
  2.800      2.970      24.06      31.18
  2.800      2.970      29.65      28.68
  2.800      2.970      38.71      39.52      2.917
  2.800      2.970      50.73      40.56
  2.800      2.970      79.37      20.46
  2.800      2.970      93.08      16.23      3.091
  2.800      2.970      106.7      22.20
  2.800      2.970      120.9      25.07
  2.800      2.970      133.5      20.10
  2.800      2.970      145.9      22.05
  2.800      2.970      160.1      14.19
  2.800      2.970      165.4      9.506      2.913
  2.800      2.970      170.2      8.099
  2.800      3.060      22.66      96.43
  2.800      3.060      29.61      87.09      3.987
  2.800      3.060      38.24      72.69
  2.800      3.060      51.04      70.30
  2.800      3.060      64.70      57.05
  2.800      3.060      79.10      51.24      3.802
  2.800      3.060      93.28      42.34
  2.800      3.060      107.4      35.26
  2.800      3.060      120.3      22.54
  2.800      3.060      133.7      22.15
  2.800      3.060      145.0      21.92
  2.800      3.060      155.5      20.77      2.354
  2.800      3.060      160.6      21.01
  3.000      0.000      21.68      15.69
  3.000      0.000      23.43      16.33
  3.000      0.000      29.86      17.37      2.546
  3.000      0.000      37.79      17.86
  3.000      0.000      51.29      20.93
  3.000      0.000      64.22      17.82      2.090
  3.000      0.000      79.14      16.80
  3.000      0.000      93.26      16.78
  3.000      0.000      106.0      15.76
  3.000      0.000      120.2      19.74
  3.000      0.000      133.8      16.72
  3.000      0.000      145.6      14.69
  3.000      0.000      155.4      9.829      2.365
  3.000      0.000      160.6      7.765
  3.000     0.5800      21.21      38.85
  3.000     0.5800      24.13      37.98      6.348
  3.000     0.5800      29.66      26.98
  3.000     0.5800      37.19      27.43
  3.000     0.5800      50.28      39.92
  3.000     0.5800      77.84      50.40      7.082
  3.000     0.5800      91.99      39.86
  3.000     0.5800      106.2      36.03
  3.000     0.5800      119.7      24.21      5.804
  3.000     0.5800      132.9      33.26
  3.000     0.5800      144.4      56.98
  3.000     0.5800      154.6      70.16
  3.000     0.5800      159.3      85.28      4.539
  3.000     0.5800      164.8      91.88
  3.000     0.6500      24.17      44.96
  3.000     0.6500      30.45      43.26      2.455
  3.000     0.6500      38.40      33.38
  3.000     0.6500      50.58      25.17
  3.000     0.6500      64.18      12.14
  3.000     0.6500      64.73      9.502
  3.000     0.6500      78.22      3.290      2.183
  3.000     0.6500      92.49      6.445
  3.000     0.6500      120.3      2.933
  3.000     0.6500      133.6      9.355      3.909
  3.000     0.6500      145.7      6.955
  3.000     0.6500      155.9      16.36
  3.000     0.6500      160.9      17.75      2.546
  3.000     0.6500      165.4      15.41
  3.000     0.8900      22.56      18.89
  3.000     0.8900      30.45      15.03      3.631
  3.000     0.8900      37.13      23.52
  3.000     0.8900      50.13      18.61
  3.000     0.8900      64.26      13.06
  3.000     0.8900      91.94      18.96
  3.000     0.8900      106.0      14.05
  3.000     0.8900      120.2      18.59
  3.000     0.8900      139.8      11.99
  3.000     0.8900      160.4      14.12
  3.000     0.8900      165.5      8.704
  3.000      1.520      21.46      11.52
  3.000      1.520      24.03      11.09      1.454
  3.000      1.520      30.31      9.491
  3.000      1.520      39.09      8.093
  3.000      1.520      51.46      14.16
  3.000      1.520      64.26      12.25      1.906
  3.000      1.520      77.96      12.15
  3.000      1.520      92.33      16.23
  3.000      1.520      105.5      21.13      2.455
  3.000      1.520      120.7      16.77
  3.000      1.520      133.4      20.21
  3.000      1.520      146.0      20.20
  3.000      1.520      155.6      17.54      2.271
  3.000      2.210      20.96      23.98
  3.000      2.210      24.79      19.09      4.751
  3.000      2.210      29.89      18.41
  3.000      2.210      39.15      30.03
  3.000      2.210      51.37      31.81
  3.000      2.210      64.14      37.80
  3.000      2.210      78.94      38.52      3.837
  3.000      2.210      93.33      48.55
  3.000      2.210      106.6      60.58
  3.000      2.210      120.4      66.95      4.942
  3.000      2.210      133.8      74.05
  3.000      2.210      133.8      66.00
  3.000      2.210      145.5      71.25
  3.000      2.210      156.1      78.68
  3.000      2.210      160.0      79.82      2.558
  3.000      2.210      166.5      88.85
  3.000      2.570      22.62      60.83
  3.000      2.570      24.08      52.58      4.859
  3.000      2.570      30.98      36.48
  3.000      2.570      51.22      14.95
  3.000      2.570      64.92      9.707
  3.000      2.570      79.17      8.424      2.875
  3.000      2.570      93.36      16.67
  3.000      2.570      108.2      42.17
  3.000      2.570      122.5      55.81
  3.000      2.570      134.6      62.77
  3.000      2.570      146.1      90.22
  3.000      2.570      157.3      92.13      3.230
  3.000      2.570      161.8      88.77
  3.000      2.570      166.9      89.36
  3.000      2.970      21.85      57.93      3.459
  3.000      2.970      24.72      67.98
  3.000      2.970      37.73      80.49
  3.000      2.970      52.00      80.28
  3.000      2.970      65.11      90.43
  3.000      2.970      80.06      100.4
  3.000      2.970      93.86      85.26      7.468
  3.000      2.970      108.1      50.99
  3.000      2.970      119.7      36.17
  3.000      2.970      133.4      32.85      4.916
  3.000      2.970      145.5      32.07
  3.000      2.970      155.6      25.25
  3.000      2.970      160.3      27.30
  3.000      2.970      165.7      21.35
  3.000      3.060      21.81      67.25
  3.000      3.060      24.94      70.19      2.901
  3.000      3.060      30.27      72.60
  3.000      3.060      38.16      74.50
  3.000      3.060      65.02      65.93      3.806
  3.000      3.060      80.13      60.49
  3.000      3.060      93.37      56.47      4.703
  3.000      3.060      107.3      52.46
  3.000      3.060      120.6      39.39
  3.000      3.060      132.8      25.76
  3.000      3.060      145.5      18.48
  3.000      3.060      160.3      19.19
  3.000      3.060      165.6      21.97      3.444
  3.000      3.940      22.70      166.7
  3.000      3.940      24.78      121.3      8.723
  3.000      3.940      30.12      110.8
  3.000      3.940      50.76      102.2
  3.000      3.940      64.84      93.03      5.088
  3.000      3.940      79.21      87.16
  3.000      3.940      92.95      110.4
  3.000      3.940      106.9      125.9
  3.000      3.940      120.6      164.4
  3.000      3.940      134.0      189.8
  3.000      3.940      146.3      226.1      3.635
  3.000      3.940      155.5      225.2
  3.000      3.940      161.8      220.2
ENDDATA            244
ENDSUBENT          260
ENDENTRY             5
