ENTRY            10240   20010309   20010426
SUBENT        10240001   20010309   20010426
BIB                 10         17
INSTITUTE  (1USALAS,1USAFSU)
REFERENCE  (J,NP/A,171,113,197108)
AUTHOR     (M.J.BENNETT,R.K.SHELINE,Y.SHIDA)
TITLE      Levels in 153Sm
INC-SOURCE (THCOL) Thermal column of Omega West Reactor
SAMPLE     Sm2O3 sample enriched to 99.18% in 152Sm.
MONITOR    (79-AU-197(N,G)79-AU-198,,SIG)
ERR-ANALYS (DATA-ERR) Uncertainty given includes minimum
            uncertainty due to efficiency and standard cross
            section (10%), combined quadratically with
            statistical error.
           Note from author: minimum more probably 20%.
STATUS     (APRVD) Approved by author.
            Data taken from Table 2 in reference.
HISTORY    (19740603C)
           (19821018A) Converted to REACTION formalism
           (20010309A) Updated to new date formats, lower case.
ENDBIB              17
COMMON               1          3
EN
EV
 0.0253
ENDCOMMON            3
ENDSUBENT           24
SUBENT        10240002   20010309   20010426
BIB                  2          4
REACTION   (62-SM-152(N,G)62-SM-153,PAR,SIG)
DETECTOR   (BPAIR) Ge(Li) detector inside NaI(Tl) annulus
            operated as pair spectrometer for high-energy gamma
            spectrum.
ENDBIB               4
NOCOMMON             0          0
DATA                 4         25
E          E-ERR      DATA       DATA-ERR
KEV        KEV        MB         PER-CENT
 4468.3     0.8        270.       17.
 4474.4     0.8        228.       18.
 4505.8     0.4        1468.      11.
 4523.9     0.5        589.       12.
 4545.7     0.4        1941.      10.
 4643.8     1.0        265.       15.
 4696.3     0.4        2068.      10.
 4757.9     0.7        155.       19.
 4883.2     0.6        762.       11.
 4951.5     0.6        241.       15.
 5117.5     0.5        770.       11.
 5133.3     0.8        124.       42.
 5172.2     0.3        1210.      11.
 5220.4     1.0        33.        60.
 5237.4     0.3        2102.      10.
 5283.9     1.1        68.        31.
 5386.5     0.5        877.       11.
 5453.1     0.7        408.       12.
 5462.8     0.5        589.       12.
 5546.8     1.0        174.       16.
 5591.7     1.2        163.       16.
 5740.9     0.3        8701.      10.
 5832.6     0.3        1989.      10.
 5861.6     1.0        12.        60.
 5868.6     0.7        282.       11.
ENDDATA             27
ENDSUBENT           36
SUBENT        10240003   20010309   20010426
BIB                  2          5
REACTION   (62-SM-152(N,G)62-SM-153,PAR,SIG)
DETECTOR   For low-energy spectrum (less than 130 keV), Si(Li)
            spectrometer used.
           For higher-energy spectrum, NaI(Tl) annulus and Ge(Li)
            detector operated in anticoincidence.
ENDBIB               5
NOCOMMON             0          0
DATA                 4         79
E          E-ERR      DATA       DATA-ERR
KEV        KEV        B          PER-CENT
 28.29      0.02       4.36       20.
 35.87      0.02       16.06      20.
 37.33      0.03       0.74       21.
 53.54      0.02       0.48       20.
 55.04      0.02       0.44       20.
 83.37      0.02       3.03       15.
 90.88      0.02       4.13       15.
 91.49      0.03       1.22       17.
 108.95     0.22       0.18       49.
 119.77     0.02       4.31       16.
 127.24     0.02       10.28      15.
 129.45     0.06       1.14       19.
 146.95     0.05       0.59       15.
 166.60     0.04       1.75       10.
 171.75     0.04       0.52       11.
 175.26     0.04       2.61       10.
 182.86     0.04       3.19       10.
 186.33     0.05       0.39       11.
 196.93     0.06       0.21       16.
 208.61     0.08       0.22       15.
 212.98     0.07       0.24       15.
 223.04     0.04       0.86       10.
 254.85     0.05       0.72       10.
 269.02     0.04       1.51       10.
 276.79     0.04       3.62       10.
 313.72     0.16       0.36       15.
 321.04     0.04       5.02       10.
 354.67     0.08       1.04       11.
 362.50     0.07       1.17       11.
 390.22     0.08       1.13       11.
 398.81     0.04       6.57       10.
 403.77     0.04       4.66       10.
 414.89     0.04       6.19       10.
 470.62     0.05       3.83       10.
 473.56     0.05       4.08       10.
 481.20     0.12       0.99       12.
 517.2      0.4        1.70       13.
 568.6      1.1        0.62       27.
 623.3      0.3        2.38       13.
 627.4      0.8        0.83       16.
 630.3      0.2        2.71       12.
 646.1      1.0        0.52       22.
 659.9      0.2        3.28       12.
 681.4      0.5        0.82       18.
 688.6      0.9        0.52       23.
 693.8      1.0        0.48       25.
 698.0      0.5        0.90       16.
 706.3      0.5        0.82       17.
 727.1      0.5        0.99       16.
 753.0      0.5        1.23       15.
 767.5      0.8        0.72       22.
 772.7      1.5        0.37       39.
 781.0      1.3        0.41       36.
 789.3      0.8        0.71       23.
 808.0      0.5        0.45       13.
 825.7      0.3        0.85       11.
 836.0      0.2        1.32       11.
 841.2      0.2        1.20       12.
 873.4      0.5        0.31       18.
 880.6      0.2        1.39       11.
 901.4      0.6        0.44       14.
 906.6      0.3        0.99       12.
 915.9      1.0        0.26       20.
 928.3      0.7        0.37       16.
 946.0      0.3        1.02       12.
 949.1      0.8        0.40       16.
 955.3      0.9        0.33       18.
 959.4      0.4        0.65       13.
 970.8      0.5        0.58       14.
 976.0      0.3        0.81       12.
 984.3      0.2        1.63       10.
 989.5      0.7        0.40       16.
 1029.8     0.3        1.01       12.
 1045.4     0.2        2.24       10.
 1075.4     0.5        0.61       14.
 1097.2     0.4        0.86       12.
 1142.8     0.8        0.40       18.
 1160.5     0.5        0.70       14.
 1215.4     0.4        0.97       12.
ENDDATA             81
ENDSUBENT           91
ENDENTRY             3
