ENTRY            10262   20011204   20060111                  1337
SUBENT        10262001   20011204   20060111                  1337
BIB                 14         28
INSTITUTE  (1USAORL)
REFERENCE  (J,PL/B,38,501,197204)
AUTHOR     (H.Rosler,F.Plasil,H.W.Schmitt)
TITLE      High-resolution cross section measurement for
            236U(n,f).
FACILITY   (LINAC) Oak Ridge Electron Linear Accelerator
INC-SOURCE (PHOTO)
SAMPLE     0.5 mg/cm2 236U electroplated on both sides of
            aluminum plates.
METHOD     (TOF) Time-of-flight over 33-m flight path.
DETECTOR   (FISCH)
           (SCIN) plastic scintillator and ionization chamber used
                  to monitor neutron flux.
MONITOR    (92-U-235(N,F),,SIG) For flux monitor calibration.
            Cross section normalized at 2 MeV.
CORRECTION Data corrected for dead-time, background effects, and
            effects of aluminum contained in chamber or flux
            monitors.
ERR-ANALYS No information on uncertainties.
STATUS     No reply to author proff.
           Tabulated data received from H. Rosler, August 1975.
HISTORY    (19750812C)
           (19830613A) Converted to REACTION formalism
           (20011204A) Converted to new date formats, lower case.
           (20051018C) DR First value at 0.4916 MeV deleted
                       because of its possible wrong value (of
                       0.08421) compared to cross sections at
                       0.4921 MeV and higher energies
ENDBIB              28
NOCOMMON             0          0
ENDSUBENT           31
SUBENT        10262002   20011204   20060111                  1337
BIB                  1          1
REACTION   (92-U-236(N,F),,SIG)
ENDBIB               1
COMMON               2          3
EN-RSL     EN-NRM
KEV        MEV
 7.         2.
ENDCOMMON            3
DATA                 2       1483
EN         DATA
MEV        B
     0.4921    0.02074
     0.4926    0.02023
     0.4931    0.01880
     0.4937    0.01386
     0.4942    0.01531
     0.4947    0.01882
     0.4952    0.01786
     0.4957    0.01715
     0.4962    0.01768
     0.4968    0.01762
     0.4973    0.01887
     0.4978    0.01952
     0.4983    0.01536
     0.4988    0.01322
     0.4994    0.01436
     0.4999    0.01983
     0.5004    0.01784
     0.5009    0.01563
     0.5015    0.01523
     0.5020    0.01667
     0.5025    0.01986
     0.5031    0.02186
     0.5036    0.02240
     0.5041    0.02117
     0.5047    0.02067
     0.5052    0.01685
     0.5057    0.01675
     0.5063    0.01414
     0.5068    0.01438
     0.5073    0.01474
     0.5079    0.01447
     0.5084    0.01290
     0.5089    0.01636
     0.5095    0.01605
     0.5100    0.01690
     0.5106    0.01876
     0.5111    0.01818
     0.5116    0.01682
     0.5122    0.01770
     0.5127    0.01413
     0.5133    0.01267
     0.5138    0.01006
     0.5144    0.01172
     0.5149    0.01688
     0.5155    0.01579
     0.5160    0.01402
     0.5166    0.01627
     0.5171    0.01633
     0.5177    0.01619
     0.5182    0.01796
     0.5188    0.01721
     0.5193    0.01559
     0.5199    0.01488
     0.5204    0.01374
     0.5210    0.02074
     0.5216    0.02891
     0.5221    0.02683
     0.5227    0.01871
     0.5232    0.01893
     0.5238    0.02113
     0.5244    0.02013
     0.5249    0.01919
     0.5255    0.01866
     0.5261    0.02117
     0.5266    0.01814
     0.5272    0.01751
     0.5278    0.01963
     0.5283    0.01720
     0.5289    0.02269
     0.5295    0.02021
     0.5301    0.01723
     0.5306    0.02103
     0.5312    0.01669
     0.5318    0.01769
     0.5324    0.01593
     0.5329    0.01346
     0.5335    0.01542
     0.5341    0.01298
     0.5347    0.01254
     0.5352    0.01316
     0.5358    0.01303
     0.5364    0.01461
     0.5370    0.01943
     0.5376    0.01714
     0.5382    0.01506
     0.5388    0.01696
     0.5393    0.01721
     0.5399    0.01857
     0.5405    0.01758
     0.5411    0.01614
     0.5417    0.01524
     0.5423    0.01684
     0.5429    0.01773
     0.5435    0.01674
     0.5441    0.01448
     0.5447    0.01938
     0.5453    0.01978
     0.5459    0.01882
     0.5465    0.02206
     0.5471    0.01903
     0.5477    0.01486
     0.5483    0.01413
     0.5489    0.01496
     0.5495    0.01876
     0.5501    0.02066
     0.5507    0.02096
     0.5513    0.02105
     0.5519    0.01779
     0.5525    0.01875
     0.5531    0.02158
     0.5537    0.01998
     0.5543    0.01802
     0.5550    0.01718
     0.5556    0.01773
     0.5562    0.01867
     0.5568    0.01822
     0.5574    0.01826
     0.5580    0.02178
     0.5587    0.01988
     0.5593    0.02140
     0.5599    0.02027
     0.5605    0.02051
     0.5611    0.01818
     0.5618    0.01427
     0.5624    0.01556
     0.5630    0.02350
     0.5637    0.02032
     0.5643    0.02075
     0.5649    0.02366
     0.5655    0.02410
     0.5662    0.02339
     0.5668    0.02391
     0.5674    0.01916
     0.5681    0.01568
     0.5687    0.01678
     0.5693    0.02002
     0.5700    0.02020
     0.5706    0.01659
     0.5713    0.01729
     0.5719    0.01837
     0.5725    0.01820
     0.5732    0.01761
     0.5738    0.01879
     0.5745    0.01777
     0.5751    0.01918
     0.5758    0.02091
     0.5764    0.02095
     0.5771    0.01833
     0.5777    0.01691
     0.5784    0.01697
     0.5790    0.01834
     0.5797    0.02195
     0.5803    0.02462
     0.5810    0.02114
     0.5817    0.01920
     0.5823    0.01911
     0.5830    0.02003
     0.5836    0.01927
     0.5843    0.01800
     0.5850    0.01786
     0.5856    0.02354
     0.5863    0.02635
     0.5870    0.02315
     0.5876    0.02065
     0.5883    0.02118
     0.5890    0.02024
     0.5896    0.01954
     0.5903    0.02065
     0.5910    0.01961
     0.5917    0.01885
     0.5923    0.01869
     0.5930    0.02219
     0.5937    0.02427
     0.5944    0.02476
     0.5951    0.02855
     0.5957    0.02793
     0.5964    0.02618
     0.5971    0.02210
     0.5978    0.02125
     0.5985    0.02457
     0.5992    0.02318
     0.5999    0.02097
     0.6005    0.02101
     0.6012    0.02575
     0.6019    0.03233
     0.6026    0.03029
     0.6033    0.02339
     0.6040    0.02030
     0.6047    0.02325
     0.6054    0.02274
     0.6061    0.02608
     0.6068    0.02511
     0.6075    0.02799
     0.6082    0.02546
     0.6089    0.02550
     0.6096    0.02896
     0.6103    0.02407
     0.6110    0.02427
     0.6118    0.02529
     0.6125    0.02309
     0.6132    0.02137
     0.6139    0.02278
     0.6146    0.02022
     0.6153    0.01951
     0.6160    0.02077
     0.6168    0.02532
     0.6175    0.02695
     0.6182    0.02484
     0.6189    0.02656
     0.6196    0.03135
     0.6204    0.03082
     0.6211    0.03406
     0.6218    0.03718
     0.6226    0.03213
     0.6233    0.03110
     0.6240    0.02824
     0.6247    0.02461
     0.6255    0.02405
     0.6262    0.02321
     0.6270    0.02503
     0.6277    0.02600
     0.6284    0.02836
     0.6292    0.02912
     0.6299    0.03321
     0.6307    0.03532
     0.6314    0.03189
     0.6321    0.02708
     0.6329    0.02584
     0.6336    0.02728
     0.6344    0.02813
     0.6351    0.02671
     0.6359    0.02431
     0.6366    0.02705
     0.6374    0.02776
     0.6382    0.02600
     0.6389    0.02542
     0.6397    0.02498
     0.6404    0.02574
     0.6412    0.02485
     0.6420    0.02352
     0.6427    0.02767
     0.6435    0.02759
     0.6443    0.02655
     0.6450    0.03060
     0.6458    0.02912
     0.6466    0.02729
     0.6473    0.02992
     0.6481    0.02535
     0.6489    0.02313
     0.6497    0.02775
     0.6504    0.02676
     0.6512    0.02384
     0.6520    0.02476
     0.6528    0.02853
     0.6536    0.03190
     0.6544    0.03390
     0.6551    0.03343
     0.6559    0.02984
     0.6567    0.02813
     0.6575    0.02979
     0.6583    0.03513
     0.6591    0.03679
     0.6599    0.03611
     0.6607    0.03795
     0.6615    0.03975
     0.6623    0.04019
     0.6631    0.03588
     0.6639    0.03344
     0.6647    0.03470
     0.6655    0.03674
     0.6663    0.03277
     0.6671    0.03292
     0.6679    0.03205
     0.6687    0.02980
     0.6695    0.03219
     0.6704    0.03311
     0.6712    0.03386
     0.6720    0.03619
     0.6728    0.03351
     0.6736    0.03581
     0.6745    0.03821
     0.6753    0.03942
     0.6761    0.04068
     0.6769    0.04185
     0.6778    0.04282
     0.6786    0.04379
     0.6794    0.03895
     0.6802    0.04420
     0.6811    0.04091
     0.6819    0.04648
     0.6827    0.04091
     0.6836    0.03719
     0.6844    0.04058
     0.6853    0.04343
     0.6861    0.04771
     0.6870    0.04583
     0.6878    0.04653
     0.6887    0.04896
     0.6895    0.05325
     0.6904    0.05146
     0.6912    0.04629
     0.6921    0.04644
     0.6929    0.04589
     0.6938    0.04810
     0.6946    0.04713
     0.6955    0.04587
     0.6964    0.04599
     0.6972    0.04295
     0.6981    0.04370
     0.6989    0.04090
     0.6998    0.04721
     0.7007    0.05091
     0.7016    0.04957
     0.7024    0.04938
     0.7033    0.04842
     0.7042    0.05486
     0.7051    0.06038
     0.7059    0.06450
     0.7068    0.06862
     0.7077    0.07120
     0.7086    0.06243
     0.7095    0.05635
     0.7104    0.05680
     0.7113    0.05668
     0.7121    0.05769
     0.7130    0.06311
     0.7139    0.07026
     0.7148    0.07228
     0.7157    0.06520
     0.7166    0.06048
     0.7175    0.05880
     0.7184    0.06336
     0.7193    0.06590
     0.7202    0.06849
     0.7212    0.06820
     0.7221    0.07192
     0.7230    0.07526
     0.7239    0.07163
     0.7248    0.06691
     0.7257    0.06944
     0.7266    0.07738
     0.7276    0.08051
     0.7285    0.07961
     0.7294    0.08200
     0.7303    0.08386
     0.7313    0.07853
     0.7322    0.08013
     0.7331    0.07651
     0.7341    0.07097
     0.7350    0.06769
     0.7359    0.07294
     0.7369    0.07816
     0.7378    0.07951
     0.7387    0.07957
     0.7397    0.08615
     0.7406    0.08990
     0.7416    0.09088
     0.7425    0.09463
     0.7435    0.10257
     0.7444    0.10598
     0.7454    0.10877
     0.7463    0.11184
     0.7473    0.11010
     0.7483    0.10181
     0.7492    0.10046
     0.7502    0.10617
     0.7512    0.10756
     0.7521    0.10706
     0.7531    0.10538
     0.7541    0.10402
     0.7550    0.11077
     0.7560    0.11533
     0.7570    0.11859
     0.7580    0.12143
     0.7589    0.12302
     0.7599    0.12789
     0.7609    0.11434
     0.7619    0.10278
     0.7629    0.09633
     0.7639    0.09447
     0.7649    0.09545
     0.7659    0.09703
     0.7669    0.09430
     0.7679    0.09307
     0.7689    0.09321
     0.7699    0.09657
     0.7709    0.09845
     0.7719    0.10206
     0.7729    0.10563
     0.7739    0.10593
     0.7749    0.10304
     0.7759    0.10150
     0.7769    0.10045
     0.7779    0.10098
     0.7790    0.10837
     0.7800    0.11716
     0.7810    0.11774
     0.7820    0.12217
     0.7831    0.12665
     0.7841    0.12812
     0.7851    0.13690
     0.7862    0.13581
     0.7872    0.13708
     0.7882    0.13786
     0.7893    0.13706
     0.7903    0.13586
     0.7914    0.12666
     0.7924    0.12715
     0.7935    0.13412
     0.7945    0.13395
     0.7956    0.13573
     0.7966    0.14480
     0.7977    0.15699
     0.7987    0.14912
     0.7998    0.14589
     0.8009    0.15890
     0.8019    0.16423
     0.8030    0.17245
     0.8041    0.17640
     0.8051    0.17681
     0.8062    0.15824
     0.8073    0.15641
     0.8084    0.15876
     0.8094    0.16610
     0.8105    0.17696
     0.8116    0.19129
     0.8127    0.17911
     0.8138    0.17273
     0.8149    0.15620
     0.8160    0.16471
     0.8171    0.16500
     0.8182    0.16771
     0.8193    0.16816
     0.8204    0.16931
     0.8215    0.16661
     0.8226    0.18042
     0.8237    0.19283
     0.8248    0.18451
     0.8259    0.18225
     0.8270    0.17506
     0.8281    0.17929
     0.8293    0.17809
     0.8304    0.18421
     0.8315    0.17665
     0.8326    0.18651
     0.8338    0.19570
     0.8349    0.21039
     0.8360    0.22128
     0.8372    0.22244
     0.8383    0.20895
     0.8394    0.19807
     0.8406    0.18505
     0.8417    0.18716
     0.8429    0.18567
     0.8440    0.19078
     0.8452    0.19980
     0.8463    0.20779
     0.8475    0.20608
     0.8487    0.21248
     0.8498    0.21055
     0.8510    0.20691
     0.8521    0.20526
     0.8533    0.21536
     0.8545    0.22404
     0.8557    0.21942
     0.8568    0.21155
     0.8580    0.20718
     0.8592    0.19531
     0.8604    0.19839
     0.8616    0.20218
     0.8628    0.19903
     0.8639    0.19922
     0.8651    0.20092
     0.8663    0.20351
     0.8675    0.19982
     0.8687    0.20697
     0.8699    0.21555
     0.8711    0.22363
     0.8724    0.22399
     0.8736    0.22578
     0.8748    0.23123
     0.8760    0.24199
     0.8772    0.25804
     0.8784    0.26533
     0.8797    0.25909
     0.8809    0.24785
     0.8821    0.24109
     0.8833    0.23301
     0.8846    0.22484
     0.8858    0.23599
     0.8871    0.25156
     0.8883    0.26051
     0.8895    0.26988
     0.8908    0.28092
     0.8920    0.28590
     0.8933    0.28516
     0.8945    0.28377
     0.8958    0.28887
     0.8971    0.29372
     0.8983    0.29062
     0.8996    0.29084
     0.9009    0.29881
     0.9021    0.29335
     0.9034    0.29202
     0.9047    0.29475
     0.9060    0.29417
     0.9072    0.29725
     0.9085    0.30042
     0.9098    0.30790
     0.9111    0.31877
     0.9124    0.34183
     0.9137    0.36265
     0.9150    0.36463
     0.9163    0.36492
     0.9176    0.35970
     0.9189    0.34690
     0.9202    0.33896
     0.9215    0.34796
     0.9228    0.35031
     0.9242    0.36467
     0.9255    0.38386
     0.9268    0.38280
     0.9281    0.38133
     0.9295    0.38983
     0.9308    0.38510
     0.9321    0.38252
     0.9335    0.38895
     0.9348    0.38758
     0.9361    0.39126
     0.9375    0.39796
     0.9388    0.40050
     0.9402    0.39938
     0.9416    0.40248
     0.9429    0.39516
     0.9443    0.38047
     0.9456    0.37801
     0.9470    0.38594
     0.9484    0.38939
     0.9497    0.39227
     0.9511    0.39649
     0.9525    0.39994
     0.9539    0.40049
     0.9553    0.40146
     0.9567    0.39705
     0.9580    0.39872
     0.9594    0.40217
     0.9608    0.40139
     0.9622    0.39319
     0.9636    0.39162
     0.9650    0.39707
     0.9665    0.40543
     0.9679    0.40240
     0.9693    0.39821
     0.9707    0.39586
     0.9721    0.40050
     0.9736    0.39142
     0.9750    0.39790
     0.9764    0.39046
     0.9778    0.38000
     0.9793    0.38950
     0.9807    0.39957
     0.9822    0.40562
     0.9836    0.39630
     0.9851    0.39637
     0.9865    0.39574
     0.9880    0.39386
     0.9894    0.38070
     0.9909    0.36304
     0.9924    0.37470
     0.9938    0.37804
     0.9953    0.37445
     0.9968    0.37161
     0.9983    0.37694
     0.9997    0.37958
     1.0012    0.37247
     1.0027    0.37910
     1.0042    0.37519
     1.0057    0.36427
     1.0072    0.36476
     1.0087    0.36378
     1.0102    0.38153
     1.0117    0.39040
     1.0132    0.38804
     1.0148    0.39310
     1.0163    0.39213
     1.0178    0.38216
     1.0193    0.38448
     1.0209    0.38003
     1.0224    0.37639
     1.0239    0.37423
     1.0255    0.37610
     1.0270    0.37491
     1.0286    0.37029
     1.0301    0.37792
     1.0317    0.39086
     1.0332    0.39099
     1.0348    0.39434
     1.0363    0.39033
     1.0379    0.38250
     1.0395    0.39891
     1.0411    0.39009
     1.0426    0.37744
     1.0442    0.37673
     1.0458    0.38253
     1.0474    0.39615
     1.0490    0.39068
     1.0506    0.37969
     1.0522    0.37998
     1.0538    0.39622
     1.0554    0.39927
     1.0570    0.39984
     1.0586    0.40904
     1.0603    0.41366
     1.0619    0.40678
     1.0635    0.40142
     1.0651    0.39440
     1.0668    0.40382
     1.0684    0.39449
     1.0701    0.40093
     1.0717    0.40791
     1.0733    0.41040
     1.0750    0.39458
     1.0767    0.40758
     1.0783    0.40368
     1.0800    0.40288
     1.0817    0.41640
     1.0833    0.43949
     1.0850    0.43766
     1.0867    0.42221
     1.0884    0.43267
     1.0901    0.43302
     1.0917    0.45444
     1.0934    0.45803
     1.0951    0.45736
     1.0968    0.46423
     1.0986    0.43586
     1.1003    0.44584
     1.1020    0.43276
     1.1037    0.44519
     1.1054    0.46384
     1.1072    0.49074
     1.1089    0.48988
     1.1106    0.48984
     1.1124    0.48535
     1.1141    0.48281
     1.1159    0.49373
     1.1176    0.48508
     1.1194    0.49854
     1.1211    0.49286
     1.1229    0.49584
     1.1247    0.50722
     1.1264    0.51215
     1.1282    0.51044
     1.1300    0.50637
     1.1318    0.51305
     1.1336    0.49610
     1.1354    0.49618
     1.1372    0.51342
     1.1390    0.50763
     1.1408    0.51894
     1.1426    0.55495
     1.1444    0.54823
     1.1462    0.55348
     1.1480    0.56458
     1.1499    0.55943
     1.1517    0.57224
     1.1536    0.57014
     1.1554    0.56524
     1.1572    0.55498
     1.1591    0.54634
     1.1609    0.52739
     1.1628    0.52014
     1.1647    0.53693
     1.1665    0.53737
     1.1684    0.54219
     1.1703    0.54331
     1.1722    0.55194
     1.1741    0.55515
     1.1760    0.56062
     1.1778    0.56903
     1.1798    0.58119
     1.1817    0.58003
     1.1836    0.56439
     1.1855    0.55025
     1.1874    0.53149
     1.1893    0.53410
     1.1913    0.53337
     1.1932    0.54515
     1.1951    0.56897
     1.1971    0.55804
     1.1990    0.55795
     1.2010    0.56020
     1.2029    0.56196
     1.2049    0.57537
     1.2069    0.57305
     1.2088    0.57348
     1.2108    0.56260
     1.2128    0.56224
     1.2148    0.56457
     1.2168    0.57738
     1.2188    0.58958
     1.2208    0.60325
     1.2228    0.61207
     1.2248    0.60659
     1.2268    0.61872
     1.2288    0.62269
     1.2308    0.61527
     1.2329    0.62969
     1.2349    0.63063
     1.2369    0.64345
     1.2390    0.62106
     1.2410    0.61102
     1.2431    0.64500
     1.2452    0.64570
     1.2472    0.65058
     1.2493    0.65010
     1.2514    0.66968
     1.2535    0.64540
     1.2555    0.64297
     1.2576    0.65402
     1.2597    0.67406
     1.2618    0.67309
     1.2639    0.68951
     1.2661    0.68024
     1.2682    0.67190
     1.2703    0.67012
     1.2724    0.68509
     1.2746    0.69634
     1.2767    0.70855
     1.2788    0.71689
     1.2810    0.70463
     1.2832    0.70497
     1.2853    0.69965
     1.2875    0.69631
     1.2897    0.71012
     1.2918    0.71865
     1.2940    0.72575
     1.2962    0.73014
     1.2984    0.72203
     1.3006    0.72059
     1.3028    0.71181
     1.3050    0.73724
     1.3072    0.72767
     1.3095    0.72077
     1.3117    0.71504
     1.3139    0.71783
     1.3162    0.71142
     1.3184    0.69920
     1.3207    0.70758
     1.3229    0.70929
     1.3252    0.71827
     1.3275    0.70270
     1.3297    0.69428
     1.3320    0.71747
     1.3343    0.71785
     1.3366    0.69714
     1.3389    0.68166
     1.3412    0.69206
     1.3435    0.70334
     1.3458    0.70270
     1.3481    0.69563
     1.3505    0.69337
     1.3528    0.67681
     1.3551    0.66932
     1.3575    0.68015
     1.3598    0.70057
     1.3622    0.69266
     1.3646    0.69268
     1.3669    0.69751
     1.3693    0.70199
     1.3717    0.69048
     1.3741    0.69890
     1.3765    0.69621
     1.3789    0.70194
     1.3813    0.71691
     1.3837    0.72109
     1.3861    0.70626
     1.3886    0.71439
     1.3910    0.69993
     1.3934    0.69488
     1.3959    0.69028
     1.3983    0.70035
     1.4008    0.69615
     1.4033    0.68584
     1.4057    0.69832
     1.4082    0.70030
     1.4107    0.71802
     1.4132    0.70847
     1.4157    0.73183
     1.4182    0.73687
     1.4207    0.72288
     1.4232    0.71995
     1.4257    0.72029
     1.4283    0.71482
     1.4308    0.72015
     1.4334    0.72258
     1.4359    0.70328
     1.4385    0.72003
     1.4410    0.71657
     1.4436    0.69251
     1.4462    0.70415
     1.4488    0.71155
     1.4514    0.73174
     1.4540    0.69937
     1.4566    0.69485
     1.4592    0.72462
     1.4618    0.70956
     1.4645    0.70059
     1.4671    0.69578
     1.4697    0.70589
     1.4724    0.70074
     1.4750    0.69499
     1.4777    0.68317
     1.4804    0.67281
     1.4831    0.67584
     1.4857    0.69061
     1.4884    0.68932
     1.4911    0.68219
     1.4938    0.67273
     1.4966    0.66392
     1.4993    0.64508
     1.5020    0.65585
     1.5048    0.66522
     1.5075    0.65229
     1.5103    0.64750
     1.5130    0.64454
     1.5158    0.65171
     1.5186    0.65671
     1.5213    0.65644
     1.5241    0.65456
     1.5269    0.65924
     1.5297    0.66494
     1.5326    0.66139
     1.5354    0.65872
     1.5382    0.65039
     1.5411    0.65322
     1.5439    0.65310
     1.5468    0.64349
     1.5496    0.64775
     1.5525    0.65301
     1.5554    0.66816
     1.5582    0.66608
     1.5611    0.64935
     1.5640    0.65609
     1.5670    0.66479
     1.5699    0.66887
     1.5728    0.65668
     1.5757    0.64629
     1.5787    0.65390
     1.5816    0.66607
     1.5846    0.67230
     1.5876    0.67942
     1.5905    0.68834
     1.5935    0.68107
     1.5965    0.67930
     1.5995    0.67906
     1.6025    0.68306
     1.6055    0.67444
     1.6086    0.68219
     1.6116    0.68320
     1.6146    0.67739
     1.6177    0.68117
     1.6208    0.69149
     1.6238    0.68724
     1.6269    0.68041
     1.6300    0.69477
     1.6331    0.70821
     1.6362    0.71177
     1.6393    0.71536
     1.6424    0.71477
     1.6456    0.70667
     1.6487    0.72114
     1.6519    0.71689
     1.6550    0.72046
     1.6582    0.73647
     1.6614    0.72632
     1.6645    0.73733
     1.6677    0.74343
     1.6709    0.70390
     1.6742    0.70281
     1.6774    0.72965
     1.6806    0.72183
     1.6839    0.73614
     1.6871    0.73890
     1.6904    0.74752
     1.6936    0.74796
     1.6969    0.75053
     1.7002    0.76784
     1.7035    0.76219
     1.7068    0.77112
     1.7101    0.75262
     1.7135    0.75121
     1.7168    0.74988
     1.7201    0.75005
     1.7235    0.74711
     1.7269    0.72939
     1.7302    0.74101
     1.7336    0.74475
     1.7370    0.74052
     1.7404    0.74473
     1.7439    0.73694
     1.7473    0.74044
     1.7507    0.76386
     1.7542    0.75818
     1.7576    0.73637
     1.7611    0.73886
     1.7646    0.75420
     1.7681    0.76963
     1.7716    0.77555
     1.7751    0.77167
     1.7786    0.76440
     1.7821    0.74737
     1.7857    0.75332
     1.7892    0.74836
     1.7928    0.76042
     1.7963    0.76611
     1.7999    0.76269
     1.8035    0.77026
     1.8071    0.75821
     1.8107    0.75044
     1.8144    0.75740
     1.8180    0.76147
     1.8216    0.75340
     1.8253    0.77445
     1.8290    0.77324
     1.8327    0.76513
     1.8364    0.75971
     1.8401    0.74182
     1.8438    0.74484
     1.8475    0.75071
     1.8512    0.76441
     1.8550    0.74545
     1.8587    0.72593
     1.8625    0.72139
     1.8663    0.74216
     1.8701    0.78789
     1.8739    0.75943
     1.8777    0.76175
     1.8815    0.80489
     1.8854    0.78257
     1.8892    0.77154
     1.8931    0.77109
     1.8970    0.76812
     1.9009    0.77240
     1.9048    0.80944
     1.9087    0.79872
     1.9126    0.80158
     1.9165    0.78519
     1.9205    0.77562
     1.9245    0.78697
     1.9284    0.78517
     1.9324    0.78310
     1.9364    0.77700
     1.9404    0.77674
     1.9445    0.77465
     1.9485    0.76488
     1.9525    0.79226
     1.9566    0.79254
     1.9607    0.79155
     1.9648    0.79129
     1.9689    0.79542
     1.9730    0.80466
     1.9771    0.77326
     1.9812    0.78312
     1.9854    0.79058
     1.9895    0.80330
     1.9937    0.80500
     1.9979    0.81267
     2.0021    0.82943
     2.0063    0.82261
     2.0106    0.78945
     2.0148    0.78270
     2.0191    0.79284
     2.0233    0.77478
     2.0276    0.80974
     2.0319    0.83928
     2.0362    0.80742
     2.0406    0.79013
     2.0449    0.80207
     2.0492    0.82302
     2.0536    0.81318
     2.0580    0.80145
     2.0624    0.80540
     2.0668    0.80606
     2.0712    0.81595
     2.0757    0.81511
     2.0801    0.82605
     2.0846    0.82688
     2.0891    0.83146
     2.0936    0.84453
     2.0981    0.82394
     2.1026    0.81267
     2.1071    0.81920
     2.1117    0.82558
     2.1163    0.81557
     2.1208    0.82344
     2.1254    0.84453
     2.1300    0.85302
     2.1347    0.84800
     2.1393    0.82426
     2.1440    0.80171
     2.1487    0.81887
     2.1533    0.85479
     2.1580    0.85114
     2.1628    0.84594
     2.1675    0.82516
     2.1723    0.85009
     2.1770    0.83040
     2.1818    0.79325
     2.1866    0.79920
     2.1914    0.83571
     2.1962    0.83840
     2.2011    0.81945
     2.2060    0.84063
     2.2108    0.87957
     2.2157    0.86210
     2.2206    0.83163
     2.2256    0.81715
     2.2305    0.81713
     2.2355    0.82868
     2.2404    0.85134
     2.2454    0.88036
     2.2504    0.87905
     2.2555    0.84407
     2.2605    0.82799
     2.2656    0.84552
     2.2707    0.85038
     2.2758    0.86206
     2.2809    0.86806
     2.2860    0.85203
     2.2911    0.85733
     2.2963    0.86930
     2.3015    0.84514
     2.3067    0.84826
     2.3119    0.84653
     2.3171    0.85199
     2.3224    0.87681
     2.3277    0.88091
     2.3329    0.85918
     2.3383    0.85850
     2.3436    0.84163
     2.3489    0.83695
     2.3543    0.84853
     2.3597    0.84017
     2.3651    0.82678
     2.3705    0.82901
     2.3759    0.83637
     2.3814    0.84097
     2.3868    0.84288
     2.3923    0.84578
     2.3978    0.84992
     2.4034    0.85502
     2.4089    0.86197
     2.4145    0.87157
     2.4201    0.86343
     2.4257    0.85812
     2.4313    0.87197
     2.4370    0.85584
     2.4426    0.82640
     2.4483    0.85541
     2.4540    0.84432
     2.4597    0.86346
     2.4655    0.86877
     2.4713    0.88231
     2.4770    0.88146
     2.4828    0.84622
     2.4887    0.84241
     2.4945    0.82909
     2.5004    0.83900
     2.5063    0.85214
     2.5122    0.83376
     2.5181    0.84031
     2.5241    0.83667
     2.5300    0.82868
     2.5360    0.83722
     2.5421    0.83481
     2.5481    0.83514
     2.5541    0.84072
     2.5602    0.83811
     2.5663    0.83615
     2.5725    0.83208
     2.5786    0.86374
     2.5848    0.82650
     2.5910    0.85565
     2.5972    0.82778
     2.6034    0.82311
     2.6097    0.83172
     2.6159    0.80286
     2.6222    0.80217
     2.6286    0.81122
     2.6349    0.78760
     2.6413    0.80517
     2.6477    0.81369
     2.6541    0.82819
     2.6605    0.83313
     2.6670    0.78935
     2.6735    0.79361
     2.6800    0.81902
     2.6865    0.82380
     2.6931    0.81010
     2.6997    0.82650
     2.7063    0.83337
     2.7129    0.84105
     2.7196    0.83555
     2.7263    0.83062
     2.7330    0.83025
     2.7397    0.84955
     2.7465    0.82630
     2.7532    0.81343
     2.7601    0.79992
     2.7669    0.81284
     2.7737    0.80753
     2.7806    0.78085
     2.7875    0.80975
     2.7945    0.81380
     2.8014    0.80630
     2.8084    0.81562
     2.8154    0.80596
     2.8225    0.77469
     2.8295    0.79091
     2.8366    0.77859
     2.8437    0.78957
     2.8509    0.79264
     2.8581    0.79333
     2.8653    0.80555
     2.8725    0.79290
     2.8797    0.81622
     2.8870    0.81769
     2.8943    0.80824
     2.9017    0.82547
     2.9090    0.80438
     2.9164    0.82009
     2.9238    0.82888
     2.9313    0.84858
     2.9388    0.84010
     2.9463    0.81674
     2.9538    0.77104
     2.9614    0.79178
     2.9690    0.82066
     2.9766    0.84004
     2.9843    0.85924
     2.9919    0.82696
     2.9997    0.80171
     3.0074    0.82585
     3.0152    0.83335
     3.0230    0.83231
     3.0308    0.79821
     3.0387    0.80559
     3.0466    0.78408
     3.0545    0.78441
     3.0624    0.78897
     3.0704    0.79366
     3.0785    0.81284
     3.0865    0.84089
     3.0946    0.81229
     3.1027    0.79417
     3.1108    0.79845
     3.1190    0.83071
     3.1272    0.82193
     3.1355    0.81139
     3.1438    0.80955
     3.1521    0.80468
     3.1604    0.80336
     3.1688    0.80381
     3.1772    0.83241
     3.1856    0.79974
     3.1941    0.78744
     3.2026    0.74284
     3.2112    0.77864
     3.2197    0.79331
     3.2283    0.81502
     3.2370    0.78158
     3.2457    0.78128
     3.2544    0.79122
     3.2631    0.79290
     3.2719    0.75703
     3.2808    0.74411
     3.2896    0.78732
     3.2985    0.81145
     3.3074    0.81411
     3.3164    0.82351
     3.3254    0.85226
     3.3344    0.83915
     3.3435    0.79710
     3.3526    0.79598
     3.3618    0.79043
     3.3710    0.77816
     3.3802    0.74312
     3.3895    0.74166
     3.3988    0.77802
     3.4081    0.79152
     3.4175    0.79352
     3.4269    0.76697
     3.4364    0.79959
     3.4459    0.81583
     3.4554    0.83822
     3.4650    0.82337
     3.4746    0.80200
     3.4843    0.77838
     3.4940    0.79755
     3.5037    0.80467
     3.5135    0.79133
     3.5233    0.78668
     3.5332    0.78998
     3.5431    0.77845
     3.5530    0.79080
     3.5630    0.81579
     3.5730    0.80966
     3.5831    0.79305
     3.5932    0.81666
     3.6034    0.82143
     3.6136    0.79021
     3.6238    0.77545
     3.6341    0.79960
     3.6444    0.83983
     3.6548    0.85068
     3.6652    0.85747
     3.6757    0.79723
     3.6862    0.80174
     3.6968    0.77960
     3.7074    0.79599
     3.7180    0.81106
     3.7287    0.81078
     3.7394    0.79703
     3.7502    0.78478
     3.7611    0.76992
     3.7719    0.82448
     3.7829    0.83950
     3.7938    0.82430
     3.8049    0.80572
     3.8159    0.76800
     3.8271    0.81711
     3.8382    0.86450
     3.8494    0.86035
     3.8607    0.77839
     3.8720    0.78784
     3.8834    0.81011
     3.8948    0.80471
     3.9063    0.84556
     3.9178    0.84139
     3.9294    0.86315
     3.9410    0.82845
     3.9526    0.77878
     3.9644    0.80982
     3.9761    0.82255
     3.9880    0.79587
     3.9999    0.81945
     4.0118    0.83196
     4.0238    0.82778
     4.0358    0.81922
     4.0479    0.83415
     4.0601    0.78451
     4.0723    0.79197
     4.0845    0.83246
     4.0969    0.83701
     4.1092    0.82179
     4.1217    0.81289
     4.1341    0.82335
     4.1467    0.84603
     4.1593    0.82240
     4.1719    0.79496
     4.1847    0.85200
     4.1974    0.82079
     4.2103    0.83757
     4.2232    0.85120
     4.2361    0.81676
     4.2491    0.83081
     4.2622    0.80419
     4.2753    0.81555
     4.2885    0.83821
     4.3018    0.84123
     4.3151    0.83498
     4.3285    0.80945
     4.3419    0.82012
     4.3554    0.81667
     4.3690    0.80951
     4.3826    0.78027
     4.3963    0.82961
     4.4101    0.86360
     4.4239    0.81843
     4.4378    0.77645
     4.4517    0.76957
     4.4657    0.83751
     4.4798    0.82546
     4.4940    0.82199
     4.5082    0.81587
     4.5225    0.79284
     4.5369    0.79756
     4.5513    0.82389
     4.5658    0.82868
     4.5803    0.82350
     4.5950    0.81927
     4.6097    0.83883
     4.6245    0.81294
     4.6393    0.81941
     4.6542    0.77074
     4.6692    0.80008
     4.6843    0.77635
     4.6994    0.78306
     4.7146    0.82129
     4.7299    0.77920
     4.7453    0.78975
     4.7607    0.83171
     4.7762    0.81359
     4.7918    0.80154
     4.8075    0.77750
     4.8232    0.79033
     4.8390    0.76781
     4.8549    0.78965
     4.8709    0.74325
     4.8869    0.76774
     4.9031    0.80705
     4.9193    0.81993
     4.9356    0.77101
     4.9520    0.81169
     4.9684    0.79651
     4.9850    0.76889
     5.0016    0.80195
     5.0183    0.78578
     5.0351    0.81492
     5.0519    0.78784
     5.0689    0.75002
     5.0860    0.75405
     5.1031    0.79330
     5.1203    0.78787
     5.1376    0.78742
     5.1550    0.79108
     5.1725    0.78818
     5.1901    0.77071
     5.2077    0.80306
     5.2255    0.82326
     5.2433    0.81723
     5.2613    0.78899
     5.2793    0.80025
     5.2974    0.79837
     5.3156    0.75948
     5.3339    0.74885
     5.3523    0.75857
     5.3708    0.76614
     5.3894    0.81181
     5.4081    0.81421
     5.4269    0.81228
     5.4458    0.80910
     5.4648    0.77379
     5.4839    0.76408
     5.5031    0.80155
     5.5224    0.81381
     5.5418    0.79275
     5.5613    0.79908
     5.5809    0.82261
     5.6006    0.78897
     5.6204    0.75215
     5.6403    0.77354
     5.6603    0.79317
     5.6804    0.86224
     5.7007    0.85029
     5.7210    0.84165
     5.7415    0.83642
     5.7620    0.79030
     5.7827    0.83084
     5.8035    0.87266
     5.8244    0.87577
     5.8454    0.89918
     5.8665    0.86451
     5.8878    0.82736
     5.9091    0.82315
     5.9306    0.87750
     5.9522    0.93293
     5.9739    0.85908
     5.9957    0.86301
     6.0177    0.86203
     6.0397    0.89317
     6.0619    0.86878
     6.0843    0.92629
     6.1067    0.94035
     6.1293    0.89641
     6.1519    0.90589
     6.1748    0.92819
     6.1977    0.87649
     6.2208    0.92805
     6.2440    0.95816
     6.2673    0.92631
     6.2908    0.94779
     6.3144    0.98013
     6.3381    1.03660
     6.3620    1.06235
     6.3860    0.96722
     6.4101    1.04552
     6.4344    1.03928
     6.4588    1.06591
     6.4833    1.08979
     6.5080    1.13376
     6.5329    1.07101
     6.5579    1.08957
     6.5830    1.19546
     6.6082    1.22233
     6.6337    1.22213
     6.6592    1.20368
     6.6849    1.23781
     6.7108    1.24096
     6.7368    1.25409
     6.7630    1.23319
     6.7893    1.26296
     6.8157    1.32723
     6.8424    1.27323
     6.8692    1.24275
     6.8961    1.28814
     6.9232    1.34479
     6.9505    1.36271
     6.9779    1.40029
     7.0055    1.40887
     7.0332    1.39318
     7.0611    1.35069
     7.0892    1.31655
     7.1175    1.33052
     7.1459    1.32092
     7.1745    1.28255
     7.2032    1.27445
     7.2322    1.30508
     7.2613    1.38136
     7.2906    1.32357
     7.3201    1.25642
     7.3497    1.26282
     7.3795    1.28378
     7.4096    1.31947
     7.4398    1.39120
     7.4701    1.44243
     7.5007    1.39671
     7.5315    1.35405
     7.5624    1.31499
     7.5936    1.26882
     7.6249    1.23425
     7.6564    1.24381
     7.6882    1.28646
     7.7201    1.28934
     7.7522    1.28088
     7.7845    1.23284
     7.8171    1.20571
     7.8498    1.26145
     7.8827    1.23294
     7.9159    1.19407
     7.9493    1.23710
     7.9828    1.19547
     8.0166    1.28797
     8.0506    1.33024
     8.0849    1.30556
     8.1193    1.30414
     8.1540    1.29913
     8.1888    1.32922
     8.2240    1.25093
     8.2593    1.25929
     8.2949    1.30547
     8.3307    1.31899
     8.3667    1.31838
     8.4030    1.17850
     8.4395    1.27185
     8.4762    1.32920
     8.5132    1.27714
     8.5504    1.26971
     8.5879    1.32084
     8.6256    1.20414
     8.6636    1.22554
     8.7018    1.30024
     8.7403    1.25016
     8.7791    1.17263
     8.8181    1.20071
     8.8573    1.24733
     8.8969    1.12393
     8.9366    1.10862
     8.9767    1.15625
     9.0170    1.16158
     9.0576    1.09308
     9.0985    1.02602
     9.1397    1.03411
     9.1811    1.00608
     9.2229    1.03924
     9.2649    1.07249
     9.3072    1.06927
     9.3498    1.04913
     9.3926    1.03656
     9.4358    1.03126
     9.4793    1.01599
     9.5231    1.01947
ENDDATA           1485
ENDSUBENT         1495
ENDENTRY             2
