ENTRY            12029   20140225   20140701   20140612       1398
SUBENT        12029001   20140225   20140701   20140612       1398
BIB                  7         12
TITLE      Slow Neutron Resonances in Cesium, Palladium, and Gold
AUTHOR     (H.H.Landon,V.L.Sailor)
REFERENCE  (J,PR,93,1030,1954)
           #doi:10.1103/PhysRev.93.1030
REL-REF    (I,,L.B.Borst+,J,RSI,24,141,1953)
INSTITUTE  (1USABNL)
FACILITY   (SPECC,1USABNL) Crystal spectrometer
HISTORY    (19760802T) Translated from SCISRS
           (19830802A) converted to reaction formalism
           (20140225A) BP: Added doi, digitized Figs. 2-4.
           Updated to new date  formats, lower case. Corrections
           according last EXFOR rules and Dict.
ENDBIB              12
NOCOMMON             0          0
ENDSUBENT           15
SUBENT        12029002   20140225   20140701   20140612       1398
BIB                  3          3
REACTION   (46-PD-0(N,0),,EN)
METHOD     (TRN,TOF)
STATUS     (TABLE) page 1032.
ENDBIB               3
NOCOMMON             0          0
DATA                 1          3
DATA
EV
       13.3
        26.
       34.1
ENDDATA              5
ENDSUBENT           13
SUBENT        12029003   20140225   20140701   20140612       1398
BIB                  4          8
REACTION  1(55-CS-133(N,0),,EN)
          2(55-CS-133(N,TOT),,SIG,,RES)
          3(55-CS-133(N,TOT),,WID)
          4(55-CS-133(N,EL),,WID,,G)
ANALYSIS   (SHAPE) Shape analysis
ERR-ANALYS (DATA-ERR) No information on nature of uncertainty is
           given.
STATUS     (TABLE) Table II, page 1031.
ENDBIB               8
NOCOMMON             0          0
DATA                 8          1
DATA      1DATA-ERR  1DATA      2DATA-ERR  2DATA      3DATA-ERR  3
DATA      4DATA-ERR  4
EV         EV         B          B          EV         EV
EV         EV
       5.90       0.04    9.5E+03  2.000E+03       0.12       0.02
    2.6E-03    0.2E-03
ENDDATA              6
ENDSUBENT           19
SUBENT        12029004   20140225   20140701   20140612       1398
BIB                  5         10
REACTION   (55-CS-133(N,TOT),,SIG)
SAMPLE     CsI and CsCl; thicknesses 0.031, 0.198, 2.75, and 11.5
           g/cm2.
PART-DET   (N)
METHOD     (TRN,TOF) The initial cesium measurements consisted
           of a search from 0.6 ev to 20 eV for resonances,
           using a thick CsI sample. A single, strong resonance
           at 5.90 eV was found and the transmission data for
           four different sample thicknesses.
STATUS     (CURVE) Fig.2, page 1031.
ENDBIB              10
NOCOMMON             0          0
DATA                 2         46
EN         DATA
EV         B
      0.902  1.309E+01
      0.987  1.355E+01
      1.061  1.332E+01
      1.171  1.321E+01
      1.281  1.255E+01
      1.427  1.357E+01
      1.574  1.334E+01
      1.769  1.358E+01
      1.989  1.268E+01
      2.111  1.269E+01
      2.245  1.348E+01
      2.587  1.349E+01
      3.185  1.448E+01
      3.502  1.649E+01
      3.636  1.621E+01
      4.013  1.996E+01
      4.136  1.863E+01
      4.682  3.654E+01
      4.924  5.115E+01
      5.021  5.975E+01
      5.226  9.684E+01
      5.262  1.201E+02
      5.334  1.355E+02
      5.417  2.312E+02
      5.490  2.273E+02
      5.547  5.065E+02
      5.618  7.028E+02
      5.700  1.400E+03
      5.712  1.487E+03
      5.796  1.926E+03
      5.880  2.538E+03
      5.955  2.100E+03
      6.054  1.541E+03
      6.130  8.433E+02
      6.132  6.569E+02
      6.231  4.459E+02
      6.319  3.215E+02
      6.321  1.951E+02
      6.407  1.822E+02
      6.508  1.059E+02
      6.570  8.110E+01
      6.705  6.829E+01
      6.977  4.076E+01
      7.492  2.434E+01
      7.957  1.915E+01
      8.973  1.420E+01
ENDDATA             48
ENDSUBENT           63
SUBENT        12029005   20140225   20140701   20140612       1398
BIB                  6         18
REACTION   (79-AU-197(N,TOT),,SIG)
REL-REF    (O,12241001,R.E.Wood+,J,PR,98,639,1955)
PART-DET   (N)
METHOD     (TRN,TOF) Runs were made with several sample
           thicknesses. The peak of the low-energy resonance was
           run with three very thin gold foils. The resolution
           that can be achieved using the 2461 planes of a Be
           monochromator is higher than any previously used.
           These planes give a Bragg angle of ten degrees for
           the 4.91-eV neutrons at the center of the resonance.
           The resolution of the instrument at this angle is 2.5
           percent, which corresponds to a resolution width of
           0.125 ev.
FLAG       (1.) 11.0 g/cm2
           (2.) 0.764 g/cm2
           (3.) 9.92 mg/cm2
           (4.) 48.5 mg/cm2
STATUS     (CURVE) Fig.4, page 1032.
ENDBIB              18
COMMON               1          3
EN-RSL
EV
0.125
ENDCOMMON            3
DATA                 3        104
EN         DATA       FLAG
EV         B          NO-DIM
   3.764E-1   3.634E+1         1.
   4.043E-1   3.507E+1         1.
   4.228E-1   3.538E+1         1.
   4.502E-1   3.538E+1         1.
   4.750E-1   3.445E+1         1.
   5.012E-1   3.414E+1         1.
   5.289E-1   3.354E+1         1.
   5.681E-1   3.354E+1         1.
   6.049E-1   3.236E+1         1.
   6.440E-1   3.179E+1         1.
   6.980E-1   3.151E+1         1.
   7.498E-1   3.151E+1         1.
   8.127E-1   3.123E+1         1.
   8.809E-1   3.067E+1         1.
   9.634E-1   3.040E+1         1.
   1.054E+0   3.013E+1         1.
   1.152E+0   3.095E+1         1.
   1.260E+0   2.934E+1         1.
   1.590E+0   3.151E+1         1.
   1.972E+0   3.414E+1         1.
   2.235E+0   3.800E+1         1.
   2.556E+0   4.345E+1         1.
   3.197E+0   7.292E+1         2.
   3.496E+0   8.953E+1         1.
   3.790E+0   1.450E+2         2.
   4.107E+0   2.961E+2         2.
   4.490E+0   9.366E+2         4.
   4.492E+0   1.080E+3         2.
   4.656E+0   2.036E+3         4.
   4.698E+0   5.584E+3         3.
   4.783E+0   6.160E+3         3.
   4.783E+0   1.062E+4         3.
   4.826E+0   1.545E+4         3.
   4.826E+0   7.497E+3         3.
   4.869E+0   1.735E+4         3.
   4.957E+0   2.169E+4         3.
   5.001E+0   2.288E+4         3.
   5.092E+0   1.880E+4         3.
   5.138E+0   5.062E+3         3.
   5.138E+0   1.281E+4         3.
   5.138E+0   1.120E+4         3.
   5.138E+0   9.799E+3         3.
   5.184E+0   6.499E+3         3.
   5.230E+0   3.448E+3         4.
   5.421E+0   1.292E+3         4.
   5.569E+0   5.105E+2         2.
   6.145E+0   1.463E+2         2.
   6.903E+0   6.378E+1         2.
   7.617E+0   4.155E+1         1.
   7.825E+0   3.767E+1         1.
   8.110E+0   3.538E+1         1.
   8.331E+0   2.986E+1         1.
   8.790E+0   2.636E+1         1.
   9.193E+0   2.454E+1         1.
   9.700E+0   2.185E+1         1.
   9.964E+0   2.071E+1         1.
   1.014E+1   1.946E+1         1.
   1.061E+1   1.828E+1         1.
   1.119E+1   1.877E+1         1.
   1.150E+1   1.687E+1         1.
   1.192E+1   1.717E+1         1.
   1.257E+1   1.556E+1         1.
   1.315E+1   1.515E+1         1.
   1.363E+1   1.475E+1         1.
   1.388E+1   1.436E+1         1.
   1.464E+1   1.556E+1         1.
   1.504E+1   1.411E+1         1.
   1.601E+1   1.424E+1         1.
   1.690E+1   1.374E+1         1.
   1.767E+1   1.325E+1         1.
   1.831E+1   1.424E+1         1.
   1.915E+1   1.475E+1         1.
   2.021E+1   1.475E+1         1.
   2.113E+1   1.256E+1         1.
   2.230E+1   1.256E+1         1.
   2.332E+1   1.149E+1         1.
   2.505E+1   1.005E+1         1.
   2.596E+1   1.180E+1         1.
   2.840E+1   1.256E+1         1.
   2.943E+1   1.109E+1         1.
   3.190E+1   1.089E+1         1.
   3.396E+1   1.234E+1         1.
   3.681E+1   1.256E+1         1.
   3.850E+1   1.201E+1         1.
   4.099E+1   1.290E+1         1.
   4.286E+1   1.212E+1         1.
   4.523E+1   1.180E+1         1.
   4.646E+1   1.032E+1         1.
   4.858E+1   1.279E+1         1.
   5.081E+1   1.449E+1         1.
   5.313E+1   1.585E+1         1.
   5.458E+1   1.245E+1         1.
   5.657E+1   1.325E+1         1.
   5.916E+1   1.928E+1         1.
   6.077E+1   2.166E+1         1.
   6.470E+1   3.570E+1         1.
   6.766E+1   3.384E+1         1.
   7.139E+1   2.326E+1         1.
   7.466E+1   2.566E+1         1.
   7.878E+1   2.636E+1         1.
   8.165E+1   2.520E+1         1.
   8.616E+1   1.861E+1         1.
   9.010E+1   2.090E+1         1.
   9.592E+1   1.337E+1         1.
ENDDATA            106
ENDSUBENT          133
SUBENT        12029006   20140225   20140701   20140612       1398
BIB                  3          6
REACTION  1(79-AU-197(N,0),,EN)
          2(79-AU-197(N,TOT),,SIG,,RES)
          3(79-AU-197(N,TOT),,WID)
ERR-ANALYS (DATA-ERR) No information on nature of uncertainty is
           given.
STATUS     (TABLE) p.1033.
ENDBIB               6
NOCOMMON             0          0
DATA                 5          1
DATA      1DATA      2DATA-ERR  2DATA      3DATA-ERR  3
EV         B          B          EV         EV
       4.91    3.1E+04    1.0E+03      0.175       0.01
ENDDATA              3
ENDSUBENT           14
SUBENT        12029007   20140226   20140701   20140612       1398
BIB                  5          6
REACTION   (46-PD-0(N,TOT),,TRN)
SAMPLE     0.88 g/cm2 of Pd.
PART-DET   (N)
METHOD     (TRN,TOF) Transmission measurements were taken in the
           usual manner with a thick Pd sample up to 50 ev.
STATUS     (CURVE) Fig.3, page 1031.
ENDBIB               6
COMMON               1          3
THICKNESS
G/CM-SQ
  0.88
ENDCOMMON            3
DATA                 2         11
EN         DATA
EV         NO-DIM
  2.664E+01      0.872
  2.827E+01      0.840
  2.900E+01      0.870
  3.039E+01      0.829
  3.111E+01      0.836
  3.226E+01      0.647
  3.337E+01      0.538
  3.475E+01      0.539
  3.580E+01      0.677
  3.704E+01      0.827
  3.990E+01      0.895
ENDDATA             13
ENDSUBENT           28
SUBENT        12029008   20140226   20140701   20140612       1398
BIB                  5         11
REACTION   (46-PD-0(N,TOT),,TRN)
SAMPLE     4.6 g/cm2 of Pd.
PART-DET   (N)
METHOD     (TRN,TOF) Transmission measurements were taken in the
           usual manner with a thick Pd sample up to 50 ev.
           Three resonances were found at 13.3, 26, and 34.1 eV.
           No attempt has been made to assign the last two
           resonances, since activation at these energies is not
           practical with this instrument and separated isotopes
           were not available.
STATUS     (CURVE) Fig.3, page 1031.
ENDBIB              11
COMMON               1          3
THICKNESS
G/CM-SQ
  4.6
ENDCOMMON            3
DATA                 2         36
EN         DATA
EV         NO-DIM
  1.019E+01      0.891
  1.093E+01      0.878
  1.203E+01      0.690
  1.247E+01      0.679
  1.285E+01      0.648
  1.299E+01      0.502
  1.332E+01      0.429
  1.364E+01      0.462
  1.387E+01      0.568
  1.460E+01      0.818
  1.520E+01      0.876
  1.600E+01      0.887
  1.683E+01      0.840
  1.756E+01      0.872
  1.837E+01      0.929
  1.949E+01      0.870
  2.060E+01      0.850
  2.182E+01      0.910
  2.286E+01      0.857
  2.411E+01      0.741
  2.569E+01      0.690
  2.727E+01      0.750
  2.852E+01      0.767
  2.913E+01      0.684
  3.026E+01      0.609
  3.111E+01      0.523
  3.226E+01      0.383
  3.344E+01      0.235
  3.460E+01      0.211
  3.475E+01      0.267
  3.572E+01      0.336
  3.711E+01      0.536
  3.856E+01      0.586
  3.990E+01      0.722
  4.163E+01      0.780
  4.484E+01      0.814
ENDDATA             38
ENDSUBENT           58
ENDENTRY             8
