ENTRY            23424   20181106   20190405   20190405       2272
SUBENT        23424001   20181106   20190405   20190405       2272
BIB                  9         21
TITLE      Investigation of hydrogen and deuterium vibrations in
           metal hydrides, hydro-deuterides and deuterides with
           total neutron cross section
AUTHOR     (U.Schmidt)
INSTITUTE  (2GERKIL)
REFERENCE  (J,AKE,12,385,1967) In German
           (C,67JUELICH,,229,1967)
FACILITY   (REAC,2GERKIL)
                   Pb(111) and Cu(200) crystal as monochromators
METHOD     (TRN)
DETECTOR    Crystal spectrometer
SAMPLE      Sample          Concentration (n)
            ZrH(n)          1.84 , 1.63, 1.38, 0.56
            TiH(n)          1.92, 1.56, 0.58
            ZrH(1.18)D(0.68)
            ZrH(0.60)D(1.17)
            TiD(1.76)
            TiD(1.15)
            Powder in Al container.
HISTORY    (20181106C) M.M.
           C,67JULICH,,229,1967 is not available for checking yet.
ENDBIB              21
NOCOMMON             0          0
ENDSUBENT           24
SUBENT        23424002   20181106   20190405   20190405       2272
BIB                  5         12
REACTION   (40-ZR-HYD(N,TOT),,SIG,,MSC)
            Total  CS per hydrogen in barns (title of Y scale).
COMMENT    Of compiler M.M. Coded as Zr-HYD according to opinion
           of N.Otsuka ( NDS, IAEA) .
SAMPLE      Zirconium hydride, H concentration 1.84
ERR-ANALYS (DATA-ERR) Type of error is not explained in the
           article. Probably, statistical only. Digitized, if
           there are error bars on the plot.
           . Quantization errors ( 1/2 pixel ):
           axis X - 0.00037 eV, axis Y - 0.019 barn .
STATUS     (CURVE) Fig.4 top of J.Atomkernenergie,12,385,1967
            Also see Fig.11 of J.Atomkernenergie,12,385,1967
ENDBIB              12
COMMON               2          3
EN-ERR-DIG ERR-DIG
EV         B
0.00039     0.0180
ENDCOMMON            3
DATA                 3         86
EN         DATA       DATA-ERR
EV         B          B
0.08486     33.021
0.08704     32.241
0.08922     31.425
0.09142     31.053
0.09287     30.608
0.09507     30.274
0.09726     29.680
0.09945     29.086
0.10165     28.788
0.10311     28.343
0.10604     27.823
0.10823     27.229
0.11116     26.746
0.11336     26.301
0.11629     25.818
0.11922     25.298
0.12142     24.890
0.12582     24.370
0.12877     24.184
0.13171     23.849
0.13613     23.663
0.13836     23.849
0.14208     24.442
0.14580     25.035
0.15100     25.814
0.15471     26.222
0.15918     26.926
0.16288     27.111
0.16880     27.371
0.17398     27.667
0.17989     27.703
0.18506     27.628
0.19095     27.182
0.19758     26.848
0.20347     26.439
0.20935     25.956
0.21599     25.732
0.22336     25.286
0.23145     24.506
0.24028     23.948
0.24912     23.465
0.25723     23.093
0.26239     22.832
0.26830     22.795
0.27347     22.868
0.27865     22.979
0.28383     23.275
0.28975     23.497
0.29567     23.682
0.30157     23.681
0.30749     23.866
0.31267     23.977
0.32005     23.939
0.32743     23.901    0.260
0.33334     23.826
0.33998     23.751
0.34736     23.565
0.35474     23.378
0.36285     23.081
0.37023     22.931
0.37835     22.782
0.38868     22.669
0.39828     22.594
0.40788     22.630
0.41601     22.629
0.42488     22.777
0.43596     22.812
0.44630     22.885
0.45812     22.995
0.46846     22.957
0.48027     22.844
0.49282     22.583
0.50611     22.545
0.51940     22.395    0.223
0.53269     22.319
0.54746     22.391
0.56224     22.427
0.57775     22.462
0.59474     22.460
0.61246     22.421
0.62945     22.382
0.64717     22.417
0.66711     22.378
0.68779     22.264
0.70772     22.113
0.72988     22.148    0.223
ENDDATA             88
ENDSUBENT          109
SUBENT        23424003   20181106   20190405   20190405       2272
BIB                  5         11
REACTION   (40-ZR-HYD(N,TOT),,SIG,,MSC)
            Total  CS per hydrogen in barns (title of Y scale).
COMMENT    Of compiler M.M. Coded as Zr-HYD according to opinion
           of N.Otsuka ( NDS, IAEA) .
SAMPLE      Zirconium hydride, H concentration 1.63
ERR-ANALYS (DATA-ERR) Type of error is not explained in the
           article. Probably, statistical only. Digitized, if
           there are error bars on the plot.
           . Quantization errors ( 1/2 pixel ):
           axis X - 0.00037 eV, axis Y - 0.019 barn .
STATUS     (CURVE) Fig.4 bottom of J.Atomkernenergie,12,385,1967
ENDBIB              11
COMMON               2          3
EN-ERR-DIG ERR-DIG
EV         B
0.00039     0.0180
ENDCOMMON            3
DATA                 3         63
EN         DATA       DATA-ERR
EV         B          B
0.08299     32.403
0.08737     31.395
0.09102     30.611
0.09321     30.014
0.09466     29.379
0.09759     29.006
0.09905     28.558
0.10124     28.110
0.10417     27.774
0.10636     27.177
0.10930     26.878
0.11076     26.505
0.11368     25.945
0.11661     25.459
0.11954     24.974
0.12174     24.675
0.12541     24.115
0.12909     23.853
0.13203     23.629
0.13646     23.554    0.187
0.13943     23.889
0.14240     24.299
0.14612     24.709
0.15132     25.380
0.15430     25.939
0.16024     26.461
0.16395     26.721
0.16913     27.057
0.17431     27.131    0.187
0.17947     26.981
0.18537     26.793
0.19127     26.606
0.19568     26.195
0.20379     26.007
0.21042     25.633
0.21779     25.222
0.22441     24.699
0.23250     24.176
0.24134     23.727
0.25019     23.390
0.25830     23.016
0.26862     22.716    0.149
0.27896     22.752
0.29006     23.086
0.30042     23.458
0.31299     23.717
0.32629     23.977    0.187
0.34033     23.975
0.35507     23.451
0.37056     23.038
0.38827     22.663
0.40820     22.474    0.224
0.42667     22.583
0.44735     22.618
0.47026     22.727
0.49315     22.649
0.52046     22.385    0.187
0.54778     22.195
0.57880     22.228
0.61204     22.298
0.64823     22.256
0.68811     22.139
0.73094     22.022    0.224
ENDDATA             65
ENDSUBENT           85
SUBENT        23424004   20181106   20190405   20190405       2272
BIB                  5         17
REACTION   (40-ZR-HYD(N,TOT),,SIG,,MSC)
            Total CS per hydrogen in barns (title of Y scale).
COMMENT    Of compiler M.M. Coded as Zr-HYD according to opinion
           of N.Otsuka ( NDS, IAEA) .
SAMPLE      Zirconium hydride, H concentration 1.38
ERR-ANALYS (DATA-ERR) Type of error is not explained in the
           article. Probably, statistical only. Digitized, if
           there are error bars on the plot.
           . Quantization errors ( 1/2 pixel ):
           axis X - 0.00037 eV, axis Y - 0.019 barn .
           . Energy resolution and total error were digitized
            from triangles on plot to be
            En,eV    EN-RSL,eV   ERR-T, barn
            0.13386  0.00440     1.083
            0.26772  0.01183     1.008
            0.53840  0.0244      1.009
STATUS     (CURVE) Fig.5 top of J.Atomkernenergie,12,385,1967
ENDBIB              17
COMMON               2          3
EN-ERR-DIG ERR-DIG
EV         B
0.00045     0.020
ENDCOMMON            3
DATA                 3         62
EN         DATA       DATA-ERR
EV         B          B
 0.0806     33.131     0.187
 0.0858     32.198
 0.0895     31.339
 0.0910     30.518
 0.0939     29.996
 0.0962     29.436
 0.0984     29.175
 0.1006     28.428
 0.1043     27.868
 0.1058     27.383
 0.1088     27.122
 0.1125     26.599
 0.1155     26.077
 0.1177     25.517
 0.1207     25.218
 0.1236     24.659
 0.1273     24.509
 0.1303     24.136
 0.1340     24.062     0.262
 0.1377     24.398
 0.1414     24.809
 0.1451     25.294
 0.1487     25.929
 0.1532     26.564
 0.1576     27.423
 0.1628     27.647
 0.1672     27.871
 0.1716     27.871
 0.1776     27.797     0.262
 0.1827     27.760
 0.1879     27.536
 0.1953     27.051
 0.2012     26.641
 0.2086     26.305
 0.2153     25.895
 0.2220     25.522
 0.2301     24.888
 0.2390     24.328
 0.2471     23.843
 0.2560     23.321
 0.2671     23.060     0.261
 0.2775     23.322
 0.2878     23.770
 0.2997     23.995
 0.3122     24.257
 0.3248     24.257
 0.3389     23.997     0.224
 0.3536     23.773
 0.3684     23.438
 0.3862     23.066
 0.4062     22.992     0.187
 0.4239     23.142
 0.4454     23.255
 0.4683     23.219
 0.4920     23.070
 0.5178     22.661     0.187
 0.5452     22.662
 0.5763     22.738
 0.6103     22.665
 0.6473     22.667
 0.6865     22.520
 0.7301     22.522     0.224
ENDDATA             64
ENDSUBENT           90
SUBENT        23424005   20181106   20190405   20190405       2272
BIB                  5         11
REACTION   (40-ZR-HYD(N,TOT),,SIG,,MSC)
            Total  CS per hydrogen in barns (title of Y scale).
COMMENT    Of compiler M.M. Coded as Zr-HYD according to opinion
           of N.Otsuka ( NDS, IAEA) .
SAMPLE      Zirconium hydride, H concentration 0.56
ERR-ANALYS (DATA-ERR) Type of error is not explained in the
           article. Probably, statistical only. Digitized, if
           there are error bars on the plot.
           . Quantization errors ( 1/2 pixel ):
           axis X - 0.00037 eV, axis Y - 0.019 barn .
STATUS     (CURVE) Fig.5 bottom of J.Atomkernenergie,12,385,1967
ENDBIB              11
COMMON               2          3
EN-ERR-DIG ERR-DIG
EV         B
0.00045     0.020
ENDCOMMON            3
DATA                 3         61
EN         DATA       DATA-ERR
EV         B          B
0.08129     32.942    0.222
0.08573     32.571
0.08869     31.794
0.09239     31.090
0.09535     30.127
0.09683     29.534
0.10127     28.831
0.10423     28.127
0.10719     27.831
0.10867     27.349
0.11237     26.720
0.11459     26.497
0.11681     26.053
0.12051     25.386
0.12347     25.090
0.12569     24.905
0.13013     24.423
0.13383     24.275    0.148
0.13753     24.535
0.14123     25.090
0.14418     25.683
0.14862     26.201
0.15232     26.794
0.15824     27.460
0.16194     27.720
0.16712     28.053
0.17230     27.942
0.17748     27.979    0.185
0.18266     27.683
0.18858     27.905
0.19450     27.201
0.20190     27.016
0.20782     26.757
0.21596     26.127
0.22262     25.757
0.23002     25.201
0.23890     24.609
0.24704     24.238
0.25666     23.831
0.26628     23.461    0.259
0.27664     23.794
0.28774     23.757
0.29958     24.386
0.31142     24.386
0.32399     24.794
0.33879     24.424    0.222
0.35359     23.905
0.36839     23.646
0.38615     23.498
0.40613     23.238    0.185
0.42463     23.275
0.44535     23.350
0.46829     23.498
0.49123     23.350
0.51712     23.201    0.222
0.54598     22.794
0.57632     22.942
0.61110     22.868
0.64662     22.905
0.68583     22.646
0.72949     22.646    0.185
ENDDATA             63
ENDSUBENT           83
SUBENT        23424006   20181106   20190405   20190405       2272
BIB                  5         19
REACTION   (22-TI-HYD(N,TOT),,SIG,,MSC)
           Total hydrogen CS per H in barns (title of Y scale).
COMMENT    Of compiler M.M. Coded as Ti-HYD according to opinion
           of N.Otsuka ( NDS, IAEA) .
SAMPLE      Titanium hydride, H concentration 1.92
ERR-ANALYS (DATA-ERR) Type of error is not explained in the
           article. Probably, statistical only. Digitized, if
           there are error bars on the plot.
           . Quantization errors ( 1/2 pixel ):
           axis X - 0.00037 eV, axis Y - 0.019 barn .
           . Energy resolution and total error were digitized
            from triangles on plot to be
            En,eV    EN-RSL,eV   ERR-T, barn
            0.14085    0.0037      1.009
            0.28044    0.0096      0.971
            0.54042    0.0229      0.973
STATUS     (CURVE) Fig.6 top of J.Atomkernenergie,12,385,1967
            See also Fig.11 of J.Atomkernenergie,12,385,1967
           (DEP,23424009) Data for energy range 0.10-0.18 eV
ENDBIB              19
COMMON               2          3
EN-ERR-DIG ERR-DIG
EV         B
0.00036     0.012
ENDCOMMON            3
DATA                 3         56
EN         DATA       DATA-ERR
EV         B          B
0.09360     30.815
0.09577     30.217
0.09870     29.731
0.10087     29.095
0.10306     28.759
0.10597     28.049
0.10743     27.750
0.10961     27.189
0.11327     26.628
0.11619     26.217
0.11912     25.731
0.12131     25.319
0.12790     24.496
0.13524     23.748
0.14040     23.673
0.14560     24.120
0.14932     24.530
0.15304     25.015
0.15900     25.687
0.16272     26.097
0.16792     26.582
0.17310     26.805
0.17976     26.953
0.18421     27.177    0.224
0.19083     26.877
0.19599     26.614
0.20262     26.389
0.20924     26.052
0.21733     25.453
0.22396     25.153
0.23132     24.741
0.24014     24.142
0.24899     23.879
0.25782     23.429
0.26813     22.867
0.27845     22.641    0.187
0.28881     22.864
0.29916     23.123
0.31247     23.271
0.32578     23.605
0.33907     23.490    0.187
0.35532     23.488
0.36933     23.186
0.38777     22.735
0.40547     22.396
0.42539     22.094    0.224
0.44609     22.315
0.46752     22.498
0.49264     22.643
0.51923     22.601
0.54652     22.111    0.187
0.57828     22.106
0.61226     22.138
0.64846     22.281
0.68758     21.976
0.73117     22.043    0.262
ENDDATA             58
ENDSUBENT           86
SUBENT        23424007   20181106   20190405   20190405       2272
BIB                  5         12
REACTION   (22-TI-HYD(N,TOT),,SIG,,MSC)
            Total hydrogen CS per H in barns (title of Y scale).
COMMENT    Of compiler M.M. Coded as Ti-HYD according to opinion
           of N.Otsuka ( NDS, IAEA) .
SAMPLE      Titanium hydride, H concentration 1.56
ERR-ANALYS (DATA-ERR) Type of error is not explained in the
           article. Probably, statistical only. Digitized, if
           there are error bars on the plot.
           . Quantization errors ( 1/2 pixel ):
           axis X - 0.00037 eV, axis Y - 0.019 barn .
STATUS     (CURVE) Fig.6 middle of J.Atomkernenergie,12,385,1967
           (DEP,23424010) Data for energy range 0.10-0.18 eV
ENDBIB              12
COMMON               2          3
EN-ERR-DIG ERR-DIG
EV         B
0.00031    0.0093
ENDCOMMON            3
DATA                 3         57
EN         DATA       DATA-ERR
EV         B          B
0.09536     30.758
0.09903     30.386
0.09975     29.902
0.10268     29.455
0.10560     28.674
0.10779     28.227
0.11072     27.818
0.11291     27.260
0.11584     26.776
0.11878     26.329
0.12171     25.883
0.12464     25.362
0.12757     24.989
0.12977     24.617
0.13418     24.245
0.13787     24.133    0.149
0.14157     24.318
0.14528     24.652
0.15343     25.395
0.15788     25.841
0.16307     26.324
0.16826     26.807
0.17270     27.067
0.17787     27.215
0.18379     27.400    0.223
0.18969     27.288
0.19558     27.027
0.20221     26.692
0.20957     26.282
0.21620     26.021
0.22357     25.611
0.23093     25.201
0.23976     24.604
0.24786     24.194
0.25743     23.561
0.26701     23.188
0.27734     23.075    0.186
0.28842     23.111
0.29950     23.407
0.31281     23.741
0.32462     23.851
0.33939     23.924    0.223
0.35415     23.922
0.36889     23.437
0.38733     23.063
0.40577     22.651
0.42496     22.500    0.149
0.44490     22.870
0.46705     22.905
0.49141     22.902
0.51872     22.713
0.54601     22.338    0.186
0.57702     22.371
0.61098     22.479
0.64716     22.661
0.68775     22.433
0.72983     22.428    0.261
ENDDATA             59
ENDSUBENT           80
SUBENT        23424008   20181106   20190405   20190405       2272
BIB                  5         12
REACTION   (22-TI-HYD(N,TOT),,SIG,,MSC)
            Total hydrogen CS per H in barns (title of Y scale).
COMMENT    Of compiler M.M. Coded as Ti-HYD according to opinion
           of N.Otsuka ( NDS, IAEA) .
SAMPLE      Titanium hydride, H concentration 0.58
ERR-ANALYS (DATA-ERR) Type of error is not explained in the
           article. Probably, statistical only. Digitized, if
           there are error bars on the plot.
           . Quantization errors ( 1/2 pixel ):
           axis X - 0.00037 eV, axis Y - 0.019 barn .
STATUS     (CURVE) Fig.6 bottom of J.Atomkernenergie,12,385,1967
           (DEP,23424011) Data for energy range 0.10-0.18 eV
ENDBIB              12
COMMON               2          3
EN-ERR-DIG ERR-DIG
EV         B
0.00043     0.0093
ENDCOMMON            3
DATA                 3         53
EN         DATA       DATA-ERR
EV         B          B
0.09520     30.863
0.09813     30.416
0.10466     28.587
0.10757     27.990
0.10978     27.878
0.11123     27.542
0.11562     26.908
0.11853     26.348
0.12146     25.937
0.12437     25.340
0.12730     25.041
0.12949     24.668
0.13389     24.332
0.13832     24.406
0.14201     24.555
0.14497     24.853
0.14940     25.039
0.15236     25.374
0.15828     25.932
0.16272     26.305
0.16790     26.751
0.17382     27.273
0.17823     27.235
0.18340     27.383    0.261
0.19001     27.159
0.19516     27.009
0.20913     26.597
0.21645     25.738
0.22381     25.663
0.24068     24.392
0.24803     24.130
0.25832     23.644
0.26712     23.009
0.27743     22.933    0.149
0.28774     23.006
0.29953     23.042
0.31207     23.488
0.32534     23.747
0.33934     23.857    0.261
0.35406     23.780
0.36951     23.443
0.40409     22.767
0.42396     22.503    0.224
0.44385     22.650
0.46670     22.908
0.49174     22.904    0.261
0.51824     22.789
0.54547     22.412    0.224
0.57714     22.408
0.61102     22.478
0.64858     22.585
0.68687     22.356
0.73031     22.201    0.224
ENDDATA             55
ENDSUBENT           76
SUBENT        23424009   20181106   20190405   20190405       2272
BIB                  5         18
REACTION   (22-TI-HYD(N,TOT),,SIG,,MSC)
            Total hydrogen CS per H in barns (title of Y scale).
COMMENT    Of compiler M.M. Coded as Ti-HYD according to opinion
           of N.Otsuka ( NDS, IAEA) .
SAMPLE      Titanium hydride, H concentration 1.92 .
ERR-ANALYS (DATA-ERR) Type of error is not explained in the
           article. Probably, statistical only. Digitized, if
           there are error bars on the plot.
           . Quantization errors ( 1/2 pixel ):
           axis X - 0.00005 eV, axis Y - 0.002 barn .
           . Energy resolution and total error were digitized
            from triangle on plot to be
            EN,eV    EN-RSL eV, ERR-T barn
            0.14020  0.00209    0.335
STATUS     (CURVE) Fig.7 of J.Atomkernenergie,12,385,1967 (filled
           circles) .
           (DEP,23424006) Data for TiH (H concentration 1.92 in
           energy range 0.1-0.7 eV
ENDBIB              18
COMMON               2          3
EN-ERR-DIG ERR-DIG
EV         B
0.000049    0.00447
ENDCOMMON            3
DATA                 3         31
EN         DATA       DATA-ERR
EV         B          B
0.10261     28.619
0.10364     28.394
0.10533     28.024
0.10675     27.871
0.10777     27.554
0.10936     27.223
0.11057     26.887
0.11283     26.513
0.11499     26.119
0.11838     25.663
0.12111     25.279
0.12432     24.847
0.12752     24.371
0.13035     24.026
0.13252     23.833
0.13461     23.732
0.13622     23.655
0.13907     23.549
0.14164     23.539    0.082
0.14317     23.601
0.14489     23.659
0.14710     23.975
0.14999     24.396
0.15316     24.779
0.15431     24.903
0.15499     25.090
0.15874     25.569
0.16191     25.990
0.16392     26.081
0.16739     26.651    0.077
0.16921     26.885
ENDDATA             33
ENDSUBENT           60
SUBENT        23424010   20181106   20190405   20190405       2272
BIB                  5         17
REACTION   (22-TI-HYD(N,TOT),,SIG,,MSC)
            Total hydrogen CS per H in barns (title of Y scale).
COMMENT    Of compiler M.M. Coded as Ti-HYD according to opinion
           of N.Otsuka ( NDS, IAEA) .
SAMPLE      Titanium hydride, H concentration 1.56 .
ERR-ANALYS (DATA-ERR) Type of error is not explained in the
           article. Probably, statistical only. Digitized, if
           there are error bars on the plot.
           . Quantization errors ( 1/2 pixel ):
           axis X - 0.00005 eV, axis Y - 0.002 barn .
           . Energy resolution and total error were digitized
            from triangle on plot to be
            EN,eV    EN-RSL eV, ERR-T barn
            0.14020  0.00209    0.335
STATUS     (CURVE)Fig.7 of J.Atomkernenergie,12,385,1967,triangles
           (DEP,23424007) Data for TiH (H concentration 1.56 in
           energy range 0.1-0.7 eV
ENDBIB              17
COMMON               2          3
EN-ERR-DIG ERR-DIG
EV         B
0.000049    0.00447
ENDCOMMON            3
DATA                 3         31
EN         DATA       DATA-ERR
EV         B          B
 0.10233     28.835
 0.10381     28.288
 0.10532     28.135
 0.10654     27.765
 0.10776     27.611
 0.10935     27.266
 0.11038     27.021
 0.11274     26.704    0.087
 0.11499     26.195
 0.11829     25.720
 0.12102     25.307
 0.12432     24.865
 0.12582     24.548
 0.12752     24.462
 0.13025     24.058
 0.13300     23.875
 0.13622     23.702
 0.13908     23.668
 0.14137     23.706    0.067
 0.14309     23.835
 0.14480     23.859
 0.14692     24.132
 0.15008     24.443
 0.15161     24.567
 0.15411     24.859
 0.15488     25.008
 0.15891     25.386
 0.16199     25.836
 0.16370     25.894
 0.16774     26.353    0.082
 0.16938     26.660
ENDDATA             33
ENDSUBENT           59
SUBENT        23424011   20181106   20190405   20190405       2272
BIB                  5         18
REACTION   (22-TI-HYD(N,TOT),,SIG,,MSC)
            Total hydrogen CS per H in barns (title of Y scale).
COMMENT    Of compiler M.M. Coded as Ti-HYD according to opinion
           of N.Otsuka ( NDS, IAEA) .
SAMPLE      Titanium hydride, H concentration 0.58
ERR-ANALYS (DATA-ERR) Type of error is not explained in the
           article. Probably, statistical only. Digitized, if
           there are error bars on the plot.
           . Quantization errors ( 1/2 pixel ):
           axis X - 0.00005 eV, axis Y - 0.002 barn .
           . Energy resolution and total error were digitized
            from triangle on plot to be
            EN,eV    EN-RSL eV, ERR-T barn
            0.14020  0.00209    0.335
STATUS     (CURVE) Fig.7 of J.Atomkernenergie,12,385,1967 (open
           circles)
           (DEP,23424008) Data for TiH (H concentration 0.58 in
           energy range 0.1-0.7 eV
ENDBIB              18
COMMON               2          3
EN-ERR-DIG ERR-DIG
EV         B
0.000049    0.00447
ENDCOMMON            3
DATA                 3         31
EN         DATA       DATA-ERR
EV         B          B
0.10252     28.797
0.10372     28.351
0.10542     28.091
0.10673     27.837
0.10775     27.468
0.11048     26.973
0.11283     26.575
0.11500     26.301
0.11847     25.609
0.12120     25.225
0.12421     24.793
0.12572     24.611
0.12762     24.428
0.13035     24.125
0.13272     23.943
0.13471     23.817
0.13633     23.788
0.13880     23.769
0.14138     23.840    0.072
0.14272     23.960
0.14453     24.022
0.14664     24.295
0.14999     24.505
0.15152     24.649
0.15430     24.821
0.15890     25.295
0.16206     25.573
0.16388     25.745
0.16791     26.128    0.067
0.16945     26.295
0.17394     26.568
ENDDATA             33
ENDSUBENT           60
SUBENT        23424012   20181106   20190405   20190405       2272
BIB                  5         18
REACTION   (40-ZR-HYD(N,TOT),,SIG,,MSC)
            Total CS per deuteron in barns (title of Y scale).
COMMENT    Of compiler M.M. Coded as Zr-HYD according to opinion
           of N.Otsuka ( NDS, IAEA) .
SAMPLE      Zirconium deuteride, D concentration 1.76
ERR-ANALYS (DATA-ERR) Type of error is not explained in the
           article. Probably, statistical only. Digitized, if
           there are error bars on the plot.
           . Quantization errors ( 1/2 pixel ):
           axis X - 0.00022 eV, axis Y - 0.0028 barn .
           . Energy resolution and total error were digitized
            from triangle on plot to be
            EN,eV    EN-RSL eV, ERR-T barn
            0.10021  0.00238    0.2403
            0.19987  0.00354    0.2236
            0.29985  0.01061    0.2395
            0.39982  0.01813    0.2277
STATUS     (CURVE) Fig.8 of J.Atomkernenergie,12,385,1967
ENDBIB              18
COMMON               2          3
EN-ERR-DIG ERR-DIG
EV         B
0.00039     0.0026
ENDCOMMON            3
DATA                 3         63
EN         DATA       DATA-ERR
EV         B          B
0.05183     5.6559
0.05319     5.7504
0.05536     5.6168
0.05970     5.3550    0.0723
0.06320     5.2380
0.06669     5.1043
0.06974     4.9372
0.07370     4.8758
0.07677     4.7866
0.07805     4.6419
0.08246     4.5972
0.08464     4.4969
0.08727     4.4356
0.08903     4.3854
0.09121     4.2851
0.09386     4.2906    0.0612
0.09563     4.2738
0.09874     4.3348
0.10052     4.3626
0.10319     4.4125
0.10764     4.4846
0.11385     4.5511
0.11918     4.6120    0.0612
0.12313     4.5005
0.12711     4.5226
0.13111     4.5558
0.13553     4.5556
0.13951     4.5442
0.14170     4.4829
0.14525     4.5217
0.14922     4.4937
0.15498     4.5156
0.15894     4.4542
0.16599     4.3649
0.17396     4.3700
0.17924     4.2919
0.18456     4.3138
0.18985     4.2635
0.19602     4.1964    0.0723
0.20310     4.2072
0.20930     4.2180
0.21639     4.2733
0.22348     4.3008
0.23145     4.3171
0.23988     4.4112    0.0612
0.24915     4.3384
0.25800     4.3436
0.26770     4.2374
0.27740     4.1534    0.0723
0.28847     4.1862
0.29998     4.2024
0.31371     4.2462
0.32610     4.2623
0.34070     4.2560    0.0890
0.35483     4.1829
0.37160     4.0708
0.38754     4.1201
0.40478     4.0691
0.42514     4.0904
0.44596     4.1951    0.0946
0.46893     4.0826
0.49282     4.1093
0.51892     4.1079
ENDDATA             65
ENDSUBENT           92
SUBENT        23424013   20181106   20190405   20190405       2272
BIB                  5         17
REACTION   (40-ZR-HYD(N,TOT),,SIG,,MSC)
            Total CS per deuteron in barns (title of Y scale).
COMMENT    Of compiler M.M. Coded as Zr-HYD according to opinion
           of N.Otsuka ( NDS, IAEA) .
SAMPLE      Zirconium deuteride, D concentration 1.15
ERR-ANALYS (DATA-ERR) Type of error is not explained in the
           article. Probably, statistical only. Digitized, if
           there are error bars on the plot.
           . Quantization errors ( 1/2 pixel ):
           axis X - 0.00020 eV, axis Y - 0.0026 barn .
           . Energy resolution and total error were digitized
            from triangle on plot to be
            EN,eV    EN-RSL eV, ERR-T barn
            0.10016  0.00162    0.2333
            0.19941  0.00488    0.2355
            0.29988  0.00976    0.2304
STATUS     (CURVE) Fig.9 of J.Atomkernenergie,12,385,1967
ENDBIB              17
COMMON               2          3
EN-ERR-DIG ERR-DIG
EV         B
0.00020     0.0024
ENDCOMMON            3
DATA                 3         56
EN         DATA       DATA-ERR
EV         B          B
0.05218     7.7743    0.0614
0.05418     7.5184
0.05661     7.4160
0.06025     7.2931
0.06266     7.0884
0.06508     6.9297
0.06871     6.6993    0.0665
0.07357     6.5764
0.07761     6.3051
0.08286     6.0900
0.08772     5.8903
0.09378     5.6446
0.09784     5.5370
0.10026     5.4448
0.10269     5.3424
0.10472     5.2861    0.0614
0.10797     5.2605
0.11001     5.3065
0.11326     5.3320
0.11733     5.3472
0.12141     5.3830
0.12467     5.4801    0.0512
0.12834     5.5005
0.13199     5.4800
0.13483     5.4185
0.13808     5.3877
0.14174     5.3774
0.14622     5.4336
0.15029     5.4540
0.15558     5.4795
0.15923     5.3975
0.16331     5.4691
0.16778     5.4127    0.0563
0.17388     5.3972
0.17753     5.3152
0.18363     5.3407
0.18972     5.2843
0.19540     5.1613
0.20272     5.1765
0.20963     5.1150
0.21572     5.0688    0.0716
0.22386     5.0737
0.23159     5.0787
0.24013     5.0887
0.24908     5.0629
0.25802     5.0576
0.26778     5.0011    0.0768
0.27793     4.9190
0.28891     4.8676
0.29989     4.8981
0.31331     4.8517
0.32632     4.8003    0.0972
0.34056     4.8460
0.35520     4.8355
0.37065     4.8095
0.38855     4.8347    0.0870
ENDDATA             58
ENDSUBENT           84
SUBENT        23424014   20181106   20190405   20190405       2272
BIB                  5         17
REACTION   (40-ZR-HYD(N,TOT),,SIG,,MSC)
            Total CS per HD(0.58) in barns (title of Y scale).
COMMENT    Of compiler M.M. Coded as Zr-HYD according to opinion
           of N.Otsuka ( NDS, IAEA) .
SAMPLE       ZrH(1.18)D(0.68)
ERR-ANALYS (DATA-ERR) Type of error is not explained in the
           article. Probably, statistical only. Digitized, if
           there are error bars on the plot.
           . Quantization errors ( 1/2 pixel ):
           axis X - 0.00037 eV, axis Y - 0.019 barn .
           . Energy resolution and total error were digitized
            from triangle on plot to be
            EN,eV    EN-RSL eV, ERR-T barn
            0.13489  0.00443    1.047
            0.28032  0.00521    1.061
            0.54016  0.02805    1.008
STATUS     (CURVE) Fig.10 top of J.Atomkernenergie,12,385,1967
ENDBIB              17
COMMON               2          3
EN-ERR-DIG ERR-DIG
EV         B
0.00041     0.0195
ENDCOMMON            3
DATA                 3         85
EN         DATA       DATA-ERR
EV         B          B
0.08248     35.948
0.08394     35.425
0.08688     34.901
0.08834     34.564
0.08836     34.041
0.09052     33.630
0.09198     33.256
0.09563     32.022
0.09783     31.648    0.262
0.10148     30.675
0.10589     30.077
0.10809     29.740
0.10955     29.217
0.11248     28.618
0.11615     28.132
0.11836     27.945
0.12130     27.459
0.12424     27.047
0.12717     26.598
0.13085     26.299
0.13454     26.149    0.187
0.13823     26.261
0.14120     26.746
0.14566     27.419
0.14938     28.204
0.15382     28.727
0.15828     29.511
0.16346     29.735
0.16716     29.922
0.17306     29.996    0.224
0.17896     29.808
0.18413     29.770
0.19002     29.321
0.19591     29.059
0.20181     28.834
0.20844     28.385
0.21727     27.749
0.22317     27.412
0.23201     26.887
0.23937     26.289
0.24895     25.839
0.25705     25.427
0.26295     25.352
0.26812     25.239
0.27771     25.238    0.187
0.28437     25.425
0.28880     25.649
0.29545     25.835
0.29989     26.059
0.30654     26.133
0.31318     26.095
0.31983     26.244
0.32574     26.318    0.224
0.33460     26.354
0.34050     26.317
0.34714     26.279
0.35673     26.016
0.36262     25.529
0.37000     25.491
0.37884     25.117
0.38770     24.966
0.39803     24.816
0.40615     24.852
0.41575     25.001
0.42535     25.038    0.187
0.43569     25.149
0.44602     25.036
0.45636     25.334
0.46891     25.295
0.48072     25.145
0.49178     24.919
0.50580     24.619
0.51908     24.618
0.53311     24.616    0.224
0.54639     24.428
0.56337     24.464
0.57666     24.575
0.59365     24.910
0.61062     24.646
0.63202     24.495
0.64753     24.531
0.66819     24.342
0.68812     24.415
0.70953     24.375
0.73093     24.224    0.224
ENDDATA             87
ENDSUBENT          113
SUBENT        23424015   20181106   20190405   20190405       2272
BIB                  5         19
REACTION   (40-ZR-HYD(N,TOT),,SIG,,MSC)
            Total CS per HD(1.95) in barns (title of Y scale).
COMMENT    Of compiler M.M. Coded as Zr-HYD according to opinion
           of N.Otsuka ( NDS, IAEA) .
           .Of compiler M.M. At energy > 0.4 eV the quality of
           plot is low, digitization of visible points was done.
SAMPLE       ZrH(0.60)D(1.17)
ERR-ANALYS (DATA-ERR) Type of error is not explained in the
           article. Probably, statistical only. Digitized, if
           there are error bars on the plot.
           . Quantization errors ( 1/2 pixel ):
           axis X - 0.00037 eV, axis Y - 0.019 barn .
           . Energy resolution and total error were digitized
            from triangle on plot to be
            EN,eV    EN-RSL eV, ERR-T barn
            0.13489  0.00443    1.047
            0.28032  0.00521    1.061
            0.54016  0.02805    1.008
STATUS     (CURVE) Fig.10 bottom of J.Atomkernenergie,12,385,1967
ENDBIB              19
NOCOMMON             0          0
DATA                 3         67
EN         DATA       DATA-ERR
EV         B          B
0.10189     38.393
0.10776     37.869
0.10995     37.345
0.11287     36.784
0.11578     36.111
0.11944     35.662
0.12163     35.138
0.12382     34.802
0.12749     34.465
0.13041     33.866
0.13556     33.567
0.13998     33.529
0.14148     34.052
0.14671     35.359
0.14970     36.032
0.15490     36.704
0.15860     37.114
0.16379     37.637
0.16970     37.823
0.17486     37.785
0.18001     37.522
0.18957     37.035
0.19545     36.698
0.20942     35.799
0.21604     35.611
0.22338     34.900
0.23147     34.488
0.24029     33.889
0.24764     33.552
0.25573     33.065
0.26749     32.390
0.27708     32.389    0.299
0.28446     32.500
0.28964     32.873
0.29629     33.022
0.30588     33.058
0.31179     33.356
0.31844     33.579
0.32582     33.616    0.262
0.33319     33.577
0.33981     33.352
0.34718     33.314
0.35455     33.089
0.36190     32.714
0.37000     32.526
0.37884     32.226
0.38694     32.000
0.39578     31.924
0.40537     31.923
0.41569     31.959
0.42381     31.958
0.43413     32.031
0.44521     32.254
0.45701     32.365
0.46733     32.251
0.48060     32.212
0.50639     31.797
0.53292     31.495
0.55578     31.529
0.57644     31.676
0.59488     31.748
0.61036     31.671
0.63174     31.631
0.64795     31.404
0.66860     31.364
0.68777     31.250
0.70915     31.172
ENDDATA             69
ENDSUBENT           93
SUBENT        23424016   20181106   20190405   20190405       2272
BIB                  5         21
REACTION   (40-ZR-HYD(N,TOT),,SIG,,MSC)
            Total CS per proton in barns (title of Y scale).
COMMENT    .Of compiler M.M. Coded as Zr-HYD according to opinion
           of N.Otsuka ( NDS, IAEA) .
           .Of compiler M.M.
           . On Fig.11 the axis X is given for E/(h*v0), h*v0
           value is given on plot, energy E (eV) was calculated
           by compiler
            E= (E/h*V0digitized)*0.140 eV .
           . Data for open and filled circles -see Subents 005,002
SAMPLE      Zirconium hydro-deuteride ZrH(0.60)D(1.17),
            H concentration 0.60, D concentration 1.17
ERR-ANALYS (DATA-ERR) Type of error is not explained in the
           article. Probably, statistical only. Digitized, if
           there are error bars on the plot.
           . Quantization errors ( 1/2 pixel ):
           axis X - 0.0010  eV, axis Y - 0.010 barn .
STATUS     (CURVE) Fig.11 of J.Atomkernenergie,12,385,1967
                   (triangles)
           (DEP,23424014) CS for HD (D concentration 1.95) in
            ZrH(0.60)D(1.17)
ENDBIB              21
COMMON               2          3
EN-ERR-DIG ERR-DIG
EV         B
0.00118     0.00743
ENDCOMMON            3
DATA                 3         50
EN         DATA       DATA-ERR
EV         B          B
0.09469     29.395
0.09692     28.976
0.09944     28.378
0.10224     27.740
0.10559     27.102
0.10894     26.623
0.11564     25.387
0.11871     24.829
0.12122     24.430
0.12484     23.912
0.12791     23.553
0.13069     23.274
0.13485     23.215    0.160
0.13899     23.815
0.14063     24.574
0.14172     24.993
0.14585     25.812
0.14970     26.551
0.15330     27.011
0.15992     27.651
0.16380     27.831
0.16934     27.972    0.140
0.17490     27.794
0.18129     27.695
0.18684     27.397
0.19240     27.118
0.19963     26.581
0.20658     26.103
0.22021     25.108
0.22854     24.590
0.23577     24.033
0.24438     23.595
0.25383     23.178
0.26300     22.581
0.27465     22.663    0.140
0.28020     22.883
0.28545     23.144
0.29569     23.445
0.30236     23.526
0.30955     23.628
0.31620     23.788
0.32203     23.810
0.32952     23.871
0.33618     23.613
0.34311     23.774
0.35060     23.575
0.35811     23.257
0.36532     23.179
0.37531     22.882
0.39336     22.546
ENDDATA             52
ENDSUBENT           82
SUBENT        23424017   20181106   20190405   20190405       2272
BIB                  6         26
REACTION   (40-ZR-HYD(N,TOT),,SIG,,TMP/MSC)
            Total CS per proton in barns (title of Y scale).
           At various temperature of sample.
COMMENT    .Of compiler M.M. Coded as Zr-HYD according to opinion
           of N.Otsuka ( NDS, IAEA) .
           .Of compiler M.M.
            -On Fig.12 the data are given with shift ( value
           mentioned in brackets on plot for each temperature from
           120 to 890 deg C, see MISC2),
            after digitization the corresponding re-calculation
            of digitized values ( see MISC1) was done by compiler.
SAMPLE      Zirconium hydride, H concentration 1.63
MISC-COL   (MISC1) digitised values, shift is not taken into
            account
           (MISC2) shift value
ERR-ANALYS (DATA-ERR) Type of error is not explained in the
           article. Probably, statistical only. Digitized, if
           there are error bars on the plot.
           . Quantization errors ( 1/2 pixel ):
           axis X - 0.00022 eV, axis Y - 0.006 barn .
             Energy resolution and total error were digitized
            from triangles on plot to be
            En,eV     EN-RSL eV, ERR-T barn
            0.13487   0.00310    0.465
            0.32091   0.01017    0.466
STATUS     (CURVE) Fig.12 of J.Atomkernenergie,12,385,1967
ENDBIB              26
COMMON               2          3
EN-ERR-DIG ERR-DIG
EV         B
0.00015     0.0137
ENDCOMMON            3
DATA                 6        452
TEMP       EN         DATA       DATA-ERR   MISC1      MISC2
DEG-C      EV         B          B          B          B
 120.      0.09259     29.486                30.236    -0.75
 120.      0.09478     29.386                30.136
 120.      0.09731     28.511                29.261
 120.      0.09947     28.09                 28.840
 120.      0.10420     27.137                27.887
 120.      0.10766     26.605                27.355
 120.      0.10941     26.461                27.211
 120.      0.11198     25.907                26.657
 120.      0.11545     25.375                26.125
 120.      0.11808     25.208                25.958
 120.      0.12153     24.61                 25.360
 120.      0.12591     24.31                 25.060
 120.      0.12855     24.266                25.016
 120.      0.13162     24.088                24.838
 120.      0.13516     24.121    0.13296     24.871
 120.      0.13872     24.243                24.993
 120.      0.14142     24.619                25.369
 120.      0.14593     25.328                26.078
 120.      0.15044     25.959                26.709
 120.      0.15444     26.18                 26.930
 120.      0.15940     26.911                27.661
 120.      0.16386     27.198                27.948
 120.      0.17315     27.231    0.15508     27.981
 120.      0.17846     27.297                28.047
 120.      0.18417     27.03                 27.780
 120.      0.18987     26.709                27.459
 120.      0.19598     26.165                26.915
 120.      0.20257     25.866                26.616
 120.      0.20916     25.599                26.349
 120.      0.21661     25.133                25.883
 120.      0.22358     24.402                25.152
 120.      0.23238     24.113                24.863
 120.      0.23982     23.592                24.342
 120.      0.25040     23.425                24.175
 120.      0.25829     22.948                23.698
 120.      0.26801     22.869    0.18831     23.619
 120.      0.27863     23.001                23.751
 120.      0.28882     23.222                23.972
 120.      0.30080     23.598                24.348
 120.      0.31452     23.718                24.468
 120.      0.32645     23.728    0.21046     24.478
 120.      0.34099     23.395                24.145
 120.      0.35554     23.194                23.944
 120.      0.37008     22.861                23.611
 120.      0.38947     22.416                23.166
 160.      0.09235     30.298                31.798    -1.50
 160.      0.09446     29.500                31.000
 160.      0.09616     29.035                30.535
 160.      0.09834     28.791                30.291
 160.      0.10129     27.772                29.272
 160.      0.10651     27.118                28.618
 160.      0.10864     26.542                28.042
 160.      0.11125     26.242                27.742
 160.      0.11474     25.910                27.410
 160.      0.11819     25.322                26.822
 160.      0.12036     25.023                26.523
 160.      0.12430     24.724                26.224
 160.      0.12778     24.336                25.836
 160.      0.13132     24.324                25.824
 160.      0.13442     24.435    0.14400     25.935
 160.      0.13753     24.556                26.056
 160.      0.14113     25.032                26.532
 160.      0.14515     25.298                26.798
 160.      0.14966     26.006                27.506
 160.      0.15460     26.604                28.104
 160.      0.15816     26.792                28.292
 160.      0.16263     27.168                28.668
 160.      0.16709     27.456                28.956
 160.      0.17328     27.467    0.16619     28.967
 160.      0.17857     27.355                28.855
 160.      0.18299     27.377                28.877
 160.      0.18955     26.900                28.400
 160.      0.19436     26.534                28.034
 160.      0.20184     26.290                27.790
 160.      0.20795     25.725                27.225
 160.      0.21629     25.314                26.814
 160.      0.22330     24.815                26.315
 160.      0.23115     24.105                25.605
 160.      0.23908     23.872                25.372
 160.      0.24832     23.561                25.061
 160.      0.25710     23.162                24.662
 160.      0.26724     23.006    0.17723     24.506
 160.      0.27788     23.248                24.748
 160.      0.28852     23.536                25.036
 160.      0.29959     23.701                25.201
 160.      0.31289     23.954                25.454
 160.      0.32613     23.887    0.18830     25.387
 160.      0.33981     23.753                25.253
 160.      0.35523     23.375                24.875
 160.      0.36978     23.174                24.674
 160.      0.38827     22.663                24.163
 265.      0.09205     30.589                32.839    -2.25
 265.      0.09418     30.002                32.252
 265.      0.09588     29.514                31.764
 265.      0.09806     29.293                31.543
 265.      0.10103     28.362                30.612
 265.      0.10278     28.207                30.457
 265.      0.10534     27.542                29.792
 265.      0.10878     26.877                29.127
 265.      0.11139     26.556                28.806
 265.      0.11400     26.245                28.495
 265.      0.11702     25.68                 27.930
 265.      0.12008     25.458                27.708
 265.      0.12356     25.070                27.320
 265.      0.12749     24.715                26.965
 265.      0.13058     24.638                26.888
 265.      0.13367     24.637    0.16615     26.887
 265.      0.13771     25.080                27.330
 265.      0.13993     25.202                27.452
 265.      0.14488     25.855                28.105
 265.      0.14800     26.065                28.315
 265.      0.15383     26.685                28.935
 265.      0.15739     26.873                29.123
 265.      0.16186     27.216                29.466
 265.      0.16628     27.260                29.510
 265.      0.17249     27.426    0.13288     29.676
 265.      0.17736     27.503                29.753
 265.      0.18264     27.336                29.586
 265.      0.18921     26.892                29.142
 265.      0.20151     26.338                28.588
 265.      0.20720     25.949                28.199
 265.      0.21595     25.317                27.567
 265.      0.22252     24.885                27.135
 265.      0.23086     24.474                26.724
 265.      0.23876     24.008                26.258
 265.      0.24799     23.697                25.947
 265.      0.25680     23.453                25.703
 265.      0.26651     23.352    0.18827     25.602
 265.      0.27668     23.418                25.668
 265.      0.28820     23.661                25.911
 265.      0.29882     23.748                25.998
 265.      0.31210     23.947                26.197
 265.      0.32624     23.956    0.16615     26.206
 265.      0.33859     23.789                26.039
 265.      0.35488     23.334                25.584
 265.      0.37031     23.078                25.328
 265.      0.38796     22.844                25.094
 350.      0.09259     30.548                33.548    -3.00
 350.      0.09558     29.772                32.772
 350.      0.09773     29.351                32.351
 350.      0.09901     29.008                32.008
 350.      0.10203     28.454                31.454
 350.      0.10419     28.066                31.066
 350.      0.10765     27.545                30.545
 350.      0.11070     27.224                30.224
 350.      0.11413     26.459                29.459
 350.      0.11850     26.082                29.082
 350.      0.12108     25.539                28.539
 350.      0.12460     25.450                28.450
 350.      0.12722     25.195                28.195
 350.      0.13075     25.184                28.184
 350.      0.13384     25.139    0.15508     28.139
 350.      0.13740     25.305                28.305
 350.      0.14097     25.593                28.593
 350.      0.14591     26.213                29.213
 350.      0.15039     26.655                29.655
 350.      0.15396     26.910                29.910
 350.      0.15842     27.208                30.208
 350.      0.16732     27.651                30.651
 350.      0.17263     27.728    0.15507     30.728
 350.      0.17748     27.628                30.628
 350.      0.18360     27.162                30.162
 350.      0.19019     26.829                29.829
 350.      0.19460     26.762                29.762
 350.      0.20204     26.241                29.241
 350.      0.20949     25.753                28.753
 350.      0.21738     25.298                28.298
 350.      0.22394     24.821                27.821
 350.      0.23186     24.566                27.566
 350.      0.23978     24.266                27.266
 350.      0.24941     23.601                26.601
 350.      0.25778     23.434                26.434
 350.      0.26794     23.400    0.18830     26.400
 350.      0.27766     23.421                26.421
 350.      0.28965     23.819                26.819
 350.      0.30025     23.818                26.818
 350.      0.31307     23.850                26.850
 350.      0.32678     23.915    0.18830     26.915
 350.      0.34046     23.781                26.781
 350.      0.35587     23.348                26.348
 350.      0.37084     22.970                25.970
 350.      0.38852     22.991                25.991
 480.      0.09231     30.972                34.722    -3.75
 480.      0.09530     30.241                33.991
 480.      0.09871     29.332                33.082
 480.      0.10045     29.133                32.883
 480.      0.10343     28.280                32.030
 480.      0.10869     27.980                31.730
 480.      0.11168     27.171                30.921
 480.      0.11431     27.049                30.799
 480.      0.11692     26.706                30.456
 480.      0.11996     26.351                30.101
 480.      0.12347     26.129                29.879
 480.      0.12785     25.852                29.602
 480.      0.13050     25.840                29.590
 480.      0.13359     25.785    0.14400     29.535
 480.      0.13758     25.940    0.23235     29.690
 480.      0.14519     26.615                30.365
 480.      0.14921     26.980                30.730
 480.      0.15413     27.422                31.172
 480.      0.16168     27.677                31.427
 480.      0.16745     27.842                31.592
 480.      0.17274     27.775    0.16619     31.525
 480.      0.17845     27.509                31.259
 480.      0.18242     27.420                31.170
 480.      0.18900     27.065                30.815
 480.      0.19471     26.810                30.560
 480.      0.20215     26.322                30.072
 480.      0.20874     26.000                29.750
 480.      0.21575     25.578                29.328
 480.      0.22321     25.201                28.951
 480.      0.23068     24.901                28.651
 480.      0.23946     24.424                28.174
 480.      0.24780     24.025                27.775
 480.      0.25707     23.936                27.686
 480.      0.26764     23.691    0.18834     27.441
 480.      0.27648     23.723                27.473
 480.      0.28890     24.033                27.783
 480.      0.29952     24.142                27.892
 480.      0.31189     24.141                27.891
 480.      0.32468     23.996    0.16611     27.746
 480.      0.33969     23.829                27.579
 480.      0.35467     23.540                27.290
 480.      0.37011     23.306                27.056
 480.      0.38772     22.850                26.600
 560.      0.09249     31.563                36.063    -4.50
 560.      0.09460     30.82                 35.320
 560.      0.09632     30.466                34.966
 560.      0.09932     29.801                34.301
 560.      0.10277     29.147                33.647
 560.      0.10581     28.781                33.281
 560.      0.10841     28.426                32.926
 560.      0.11146     28.083                32.583
 560.      0.11448     27.54                 32.040
 560.      0.11755     27.329                31.829
 560.      0.12016     27.063                31.563
 560.      0.12365     26.753                31.253
 560.      0.12802     26.398                30.898
 560.      0.13023     26.331                30.831
 560.      0.13376     26.32     0.14396     30.820
 560.      0.13732     26.475                30.975
 560.      0.14133     26.729                31.229
 560.      0.14446     27.061                31.561
 560.      0.14892     27.338                31.838
 560.      0.15692     27.636                32.136
 560.      0.16270     27.901                32.401
 560.      0.16625     28.023                32.523
 560.      0.17242     27.889    0.15508     32.389
 560.      0.17814     27.767                32.267
 560.      0.18253     27.545                32.045
 560.      0.18825     27.334                31.834
 560.      0.19440     27.068                31.568
 560.      0.20141     26.591                31.091
 560.      0.20752     26.092                30.592
 560.      0.21589     25.87                 30.370
 560.      0.22331     25.215                29.715
 560.      0.23167     24.882                29.382
 560.      0.23913     24.505                29.005
 560.      0.24836     24.172                28.672
 560.      0.25717     23.972                28.472
 560.      0.26687     23.827    0.17723     28.327
 560.      0.27704     23.815                28.315
 560.      0.28856     24.091                28.591
 560.      0.29963     24.234                28.734
 560.      0.31244     24.222                28.722
 560.      0.32568     24.099                28.599
 560.      0.32571     24.265                28.765
 560.      0.33979     23.843                28.343
 560.      0.35476     23.465                27.965
 560.      0.36975     23.198                27.698
 560.      0.38785     23.086                27.586
 640.      0.09215     31.544                36.794    -5.25
 640.      0.09386     31.178                36.428
 640.      0.09641     30.436                35.686
 640.      0.09898     29.771                35.021
 640.      0.10114     29.427                34.677
 640.      0.10330     29.062                34.312
 640.      0.10590     28.663                33.913
 640.      0.11112     28.086                33.336
 640.      0.11375     27.898                33.148
 640.      0.11764     27.277                32.527
 640.      0.12025     27.000                32.250
 640.      0.12335     26.988                32.238
 640.      0.12596     26.745                31.995
 640.      0.13038     26.744                31.994
 640.      0.13392     26.755    0.12185     32.005
 640.      0.13703     26.888                32.138
 640.      0.14015     27.087                32.337
 640.      0.14414     27.197                32.447
 640.      0.14859     27.407                32.657
 640.      0.15215     27.606                32.856
 640.      0.15748     27.761                33.011
 640.      0.16235     27.827                33.077
 640.      0.16722     27.926                33.176
 640.      0.17251     27.837    0.14400     33.087
 640.      0.17736     27.737                32.987
 640.      0.18262     27.460                32.710
 640.      0.18880     27.404                32.654
 640.      0.19490     26.717                31.967
 640.      0.20151     26.616                31.866
 640.      0.20766     26.306                31.556
 640.      0.21554     25.806                31.056
 640.      0.22341     25.152                30.402
 640.      0.23178     24.985                30.235
 640.      0.23923     24.542                29.792
 640.      0.24805     24.419                29.669
 640.      0.25686     24.164                29.414
 640.      0.26701     24.063    0.17719     29.313
 640.      0.27717     24.051                29.301
 640.      0.28824     24.183                29.433
 640.      0.29885     24.249                29.499
 640.      0.31208     24.059                29.309
 640.      0.32533     24.025    0.17719     29.275
 640.      0.33946     23.902                29.152
 640.      0.35445     23.646                28.896
 640.      0.36943     23.368                28.618
 640.      0.38708     23.111                28.361
 710.      0.09274     31.935                37.935    -6.00
 710.      0.09488     31.392                37.392
 710.      0.09703     30.971                36.971
 710.      0.09914     30.239                36.239
 710.      0.10132     29.984                35.984
 710.      0.10392     29.619                35.619
 710.      0.10693     29.053                35.053
 710.      0.10909     28.688                34.688
 710.      0.11167     28.100                34.100
 710.      0.11431     28.056                34.056
 710.      0.11824     27.69                 33.690
 710.      0.12083     27.269                33.269
 710.      0.12434     27.025                33.025
 710.      0.12787     27.025                33.025
 710.      0.13097     27.057                33.057
 710.      0.13406     27.035    0.15511     33.035
 710.      0.13760     27.101                33.101
 710.      0.14071     27.167                33.167
 710.      0.14518     27.566                33.566
 710.      0.14915     27.532                33.532
 710.      0.15272     27.820                33.820
 710.      0.15716     27.919                33.919
 710.      0.16291     27.952                33.952
 710.      0.16690     28.096                34.096
 710.      0.17217     27.84     0.17723     33.840
 710.      0.17748     27.884                33.884
 710.      0.18318     27.552                33.552
 710.      0.18930     27.097                33.097
 710.      0.19504     27.019                33.019
 710.      0.20252     26.774                32.774
 710.      0.20865     26.375                32.375
 710.      0.21653     25.810                31.810
 710.      0.22313     25.632                31.632
 710.      0.23147     25.232                31.232
 710.      0.23981     24.789                30.789
 710.      0.24814     24.300                30.300
 710.      0.25739     24.067                30.067
 710.      0.26711     24.066    0.17723     30.066
 710.      0.27727     24.054                30.054
 710.      0.28833     24.131                30.131
 710.      0.29938     24.130                30.130
 710.      0.31220     24.195                30.195
 710.      0.32630     23.884    0.21046     29.884
 710.      0.34042     23.761                29.761
 710.      0.35544     23.671                29.671
 710.      0.37044     23.504                29.504
 710.      0.38809     23.303                29.303
 790.      0.09153     32.027                38.777    -6.75
 790.      0.09411     31.528                38.278
 790.      0.09756     30.896                37.646
 790.      0.09838     30.431                37.181
 790.      0.10142     29.976                36.726
 790.      0.10534     29.577                36.327
 790.      0.10839     29.289                36.039
 790.      0.11054     28.857                35.607
 790.      0.11838     27.992                34.742
 790.      0.12319     27.615                34.365
 790.      0.12669     27.382                34.132
 790.      0.12980     27.460                34.210
 790.      0.13288     27.404    0.15504     34.154
 790.      0.13688     27.559                34.309
 790.      0.14089     27.791                34.541
 790.      0.14401     27.957                34.707
 790.      0.14800     28.101                34.851
 790.      0.15243     28.189                34.939
 790.      0.15732     28.399                35.149
 790.      0.16218     28.376                35.126
 790.      0.16704     28.376                35.126
 790.      0.17232     28.209    0.15508     34.959
 790.      0.17718     28.153                34.903
 790.      0.18244     27.854                34.604
 790.      0.18856     28.388                34.138
 790.      0.19431     27.410                34.160
 790.      0.20175     26.866                33.616
 790.      0.20790     26.644                33.394
 790.      0.21534     26.101                32.851
 790.      0.22283     25.890                32.640
 790.      0.23028     25.468                32.218
 790.      0.23904     24.892                31.642
 790.      0.24784     24.603                31.353
 790.      0.25708     24.314                31.064
 790.      0.26679     24.247    0.17723     30.997
 790.      0.27607     24.202                30.952
 790.      0.28800     24.212                30.962
 790.      0.29949     24.222                30.972
 790.      0.31187     24.276                31.026
 790.      0.32599     24.131    0.16615     30.881
 790.      0.33924     24.041                30.791
 790.      0.35424     23.852                30.602
 790.      0.37054     23.507                30.257
 790.      0.38774     23.295                30.045
 890.      0.09381     31.819                39.319    -7.50
 890.      0.09682     31.154                38.654
 890.      0.10116     30.611                38.111
 890.      0.10333     30.301                37.801
 890.      0.10591     29.769                37.269
 890.      0.10850     29.348                36.848
 890.      0.11025     29.170                36.670
 890.      0.11414     28.561                36.061
 890.      0.11721     28.361                35.861
 890.      0.11983     28.139                35.639
 890.      0.12334     27.995                35.495
 890.      0.12642     27.884                35.384
 890.      0.12996     27.906                35.406
 890.      0.13349     27.861    0.15508     35.361
 890.      0.13703     27.927                35.427
 890.      0.14412     28.015                35.515
 890.      0.14855     28.126                35.626
 890.      0.15256     28.336                35.836
 890.      0.15786     28.358                35.858
 890.      0.16229     28.457                35.957
 890.      0.16670     28.335                35.835
 890.      0.17244     28.334    0.15508     35.834
 890.      0.17771     28.079                35.579
 890.      0.18212     28.001                35.501
 890.      0.18868     27.491                34.991
 890.      0.19440     27.358                34.858
 890.      0.20185     26.870                34.370
 890.      0.20847     26.825                34.325
 890.      0.21547     26.292                33.792
 890.      0.22250     26.004                33.504
 890.      0.23042     25.704                33.204
 890.      0.23828     25.017                32.517
 890.      0.24798     24.894                32.394
 890.      0.25678     24.572                32.072
 890.      0.26690     24.272    0.17723     31.772
 890.      0.27705     24.183                31.683
 890.      0.28766     24.226                31.726
 890.      0.29916     24.269                31.769
 890.      0.31150     24.047                31.547
 890.      0.32520     24.023    0.16615     31.523
 890.      0.33931     23.834                31.334
 890.      0.35475     23.611                31.111
 890.      0.37020     23.532                31.032
 890.      0.38739     23.210                30.710
ENDDATA            454
ENDSUBENT          489
SUBENT        23424018   20181106   20190405   20190405       2272
BIB                  5         17
REACTION   (40-ZR-HYD(N,TOT),,SIG,,MSC)
            Total CS per proton in barns (title of Y scale).
            At 25 deg temperature of sample.
COMMENT    .Of compiler M.M. Coded as Zr-HYD according to opinion
           of N.Otsuka ( NDS, IAEA) .
SAMPLE      Zirconium hydride, H concentration 1.63
ERR-ANALYS (DATA-ERR) Type of error is not explained in the
           article. Probably, statistical only. Digitized, if
           there are error bars on the plot.
           . Quantization errors ( 1/2 pixel ):
           axis X - 0.00022 eV, axis Y - 0.006 barn .
             Energy resolution and total error were digitized
            from triangles on plot to be
            En,eV     EN-RSL eV, ERR-T barn
            0.13487   0.00310    0.465
            0.32091   0.01017    0.466
STATUS     (CURVE) Fig.12 of J.Atomkernenergie,12,385,1967
ENDBIB              17
COMMON               2          3
EN-ERR-DIG ERR-DIG
EV         B
0.00015     0.0137
ENDCOMMON            3
DATA                 3         47
EN         DATA       DATA-ERR
EV         B          B
0.09120     29.793
0.09242     29.029
0.09417     28.851
0.09633     28.541
0.09803     28.054
0.10106     27.555
0.10324     27.344
0.10797     26.347
0.11099     25.859
0.11315     25.449
0.11751     25.006
0.12054     24.551
0.12311     23.953
0.12662     23.764
0.12969     23.598
0.13410     23.520    0.15511
0.13811     23.819
0.14080     24.073
0.14486     24.682
0.14890     25.180
0.15429     25.800
0.15789     26.276
0.16240     26.918
0.16596     27.128
0.17217     27.316    0.13285
0.17878     27.194
0.18318     27.027
0.18888     26.683
0.19414     26.351
0.20157     25.752
0.20819     25.729
0.21560     24.942
0.22265     24.808
0.23054     24.298
0.23930     23.722
0.24720     23.333
0.25686     22.867
0.26743     22.667    0.18827
0.27716     22.710
0.28826     23.064
0.29934     23.340
0.31175     23.571
0.32590     23.637    0.15508
0.33954     23.215
0.35498     23.003
0.36997     22.802
0.38760     22.435
ENDDATA             49
ENDSUBENT           75
ENDENTRY            18
