ENTRY            11103     800814              20050926       0000
SUBENT        11103001     800814              20050926       0000
BIB                  6          7
INSTITUTE  (1USALAS)
REFERENCE  (J,PR,114,1580,59)
AUTHOR     (S.J.BAME JR,R.L.CUBITT)
TITLE      LI6(N,T)HE4 REACTION AT INTERMEDIATE ENERGIES.
STATUS     (SCSRS)
HISTORY    (760628T) TRANSLATED FROM SCISRS
           (800814A) CONVERTED TO REACTION FORMALISM
ENDBIB               7
NOCOMMON             0          0
ENDSUBENT           10
SUBENT        11103002     800814              20050926       0000
BIB                  3          4
REACTION   (3-LI-6(N,T)2-HE-4,,SIG)
DETECTOR   (SCIN)     SCINTILLATING CRYSTAL
MONITOR    (92-U-235(N,F),,SIG)     RENORMALIZED BY
            AUTHORS IN PRIV.COMM. TO L.STEWART,AUG.1965.
ENDBIB               4
NOCOMMON             0          0
DATA                 4         29
EN         DATA       DATA-ERR   MONIT
MEV        B          B          B
 9.     -03 1.51   +00 2.3    -01 3.32
 1.4    -02 1.34   +00 2.0    -01 2.91
 1.9    -02 1.18   +00 1.7    -01 2.65
 2.4    -02 1.07   +00 1.4    -01 2.47
 3.0    -02 1.01   +00 1.3    -01 2.31
 4.5    -02 8.68   -01 1.00   -01 2.06
 5.5    -02 7.94   -01 8.3    -02 1.95
 6.5    -02 7.40   -01 7.3    -02 1.85
 7.8    -02 7.12   -01 6.6    -02 1.77
 9.0    -02 6.98   -01 6.2    -02 1.71
 1.06   -01 6.70   -01 5.6    -02 1.64
 1.20   -01 6.70   -01 5.5    -02 1.58
 1.35   -01 7.01   -01 5.7    -02 1.55
 1.43   -01 7.23   -01 5.8    -02 1.52
 1.53   -01 7.96   -01 6.4    -02 1.50
 1.64   -01 8.68   -01 6.9    -02 1.47
 1.72   -01 9.55   -01 7.6    -02 1.46
 1.88   -01 1.13   +00 9.     -02 1.44
 2.02   -01 1.42   +00 1.1    -01 1.42
 2.16   -01 1.81   +00 1.4    -01 1.39
 2.31   -01 2.13   +00 1.7    -01 1.37
 2.45   -01 2.46   +00 2.0    -01 1.36
 2.60   -01 2.54   +00 2.0    -01 1.35
 2.73   -01 2.44   +00 2.0    -01 1.33
 2.88   -01 2.16   +00 1.7    -01 1.32
 3.00   -01 1.95   +00 1.6    -01 1.31
 3.14   -01 1.69   +00 1.4    -01 1.30
 3.28   -01 1.49   +00 1.2    -01 1.29
 3.42   -01 1.32   +00 1.0    -01 1.28
ENDDATA             31
ENDSUBENT           40
SUBENT        11103003     840207              20050926       0000
BIB                  5          5
REACTION   (3-LI-6(N,T)2-HE-4,,SIG)
STATUS     (SPSDD,11103002)
DETECTOR   (SCIN)     SCINTILLATING CRYSTAL
MONITOR    (92-U-235(N,F),,SIG)
HISTORY    (840207A) BIB UPDATE.
ENDBIB               5
NOCOMMON             0          0
NODATA               0          0
ENDSUBENT            9
SUBENT        11103004     800814              20050926       0000
BIB                  4          4
REACTION   (3-LI-6(N,T)2-HE-4,,DA)
DETECTOR   (TELES)    COUNTER TELESCOPE
MONITOR    (3-LI-6(N,T)2-HE-4,,SIG)   CORRECTED(AUG.65) LI-6(N,T).
ERR-ANALYS  DATA-ERR GIVEN IS STATISTICAL ERROR ONLY
ENDBIB               4
COMMON               2          3
EN-RSL     ANG-RSL
KEV        ADEG
 25.        3.5
ENDCOMMON            3
DATA                 4         41
EN         COS-CM     DATA       DATA-ERR
MEV        NO-DIM     MB/SR      MB/SR
 1.50   -01 1.         1.21   +02 6.     +00
 1.50   -01 0.848      1.11   +02 6.     +00
 1.50   -01 0.454      7.37   +01 6.     +00
 1.50   -01-0.070      5.46   +01 4.     +00
 1.50   -01-0.537      4.61   +01 4.     +00
 1.50   -01-0.743      4.54   +01 4.     +00
 2.00   -01 1.         2.29   +02 7.     +00
 2.00   -01 0.848      1.98   +02 7.     +00
 2.00   -01 0.454      1.28   +02 6.     +00
 2.00   -01-0.070      6.57   +01 4.     +00
 2.00   -01-0.559      9.05   +01 5.     +00
 2.00   -01-0.743      1.12   +02 6.     +00
 2.58   -01 1.         4.27   +02 7.     +00
 2.58   -01 0.982      4.09   +02 1.0    +01
 2.58   -01 0.927      4.02   +02 1.0    +01
 2.58   -01 0.848      3.52   +02 1.0    +01
 2.58   -01 0.669      2.92   +02 6.     +00
 2.58   -01 0.438      2.12   +02 7.     +00
 2.58   -01 0.208      1.71   +02 6.     +00
 2.58   -01-0.087      1.45   +02 5.     +00
 2.58   -01-0.326      1.42   +02 4.     +00
 2.58   -01-0.574      1.68   +02 3.     +00
 2.58   -01-0.755      2.47   +02 3.5    +01
 3.00   -01 1.         3.26   +02 1.4    +01
 3.00   -01 0.839      2.75   +02 3.0    +01
 3.00   -01 0.438      1.65   +02 1.0    +01
 3.00   -01-0.105      9.39   +01 8.     +00
 3.00   -01-0.574      1.49   +02 1.0    +01
 3.00   -01-0.755      1.82   +02 1.0    +01
 3.50   -01 1.         1.97   +02 1.3    +01
 3.50   -01 0.843      1.72   +02 1.3    +01
 3.50   -01 0.431      9.79   +01 1.1    +01
 3.50   -01-0.105      5.72   +01 8.     +00
 3.50   -01-0.588      1.06   +02 1.3    +01
 3.50   -01-0.766      1.33   +02 1.3    +01
 5.65   -01 1.         5.96   +01 2.6    +00
 5.65   -01 0.839      5.33   +01 4.4    +00
 5.65   -01 0.423      3.28   +01 2.6    +00
 5.65   -01-0.122      2.17   +01 2.6    +00
 5.65   -01-0.581      3.41   +01 2.6    +00
 5.65   -01-0.766      4.49   +01 6.2    +00
ENDDATA             43
ENDSUBENT           56
ENDENTRY             4
