ENTRY            11122   20050427   20050707                  1333
SUBENT        11122001   20050427   20050707                  1333
BIB                  9         13
INSTITUTE  (1USAANL)
REFERENCE  (J,PR,B133,353,1964)
AUTHOR     (C.T.Hibdon)
TITLE      Nuclear Levels in F20.
FACILITY   (VDG,1USAANL)
INC-SOURCE (P-LI7)
DETECTOR   (PROPC) BF3 proportional counters
STATUS     Tabulated data received from C. Hibdon, June 1964.
HISTORY    (19760628T) Translated from SCISRS
           (19800814A) Converted to REACTION formalism
           (19820107U) BIB update
           (20050427A) Converted to new date formats, lower case.
                       Reference corrected.
ENDBIB              13
NOCOMMON             0          0
ENDSUBENT           16
SUBENT        11122002   20050427   20050707                  1333
BIB                  1          1
REACTION   (3-LI-0(N,TOT),,SIG)
ENDBIB               1
COMMON               1          3
EN-RSL
MEV
 4.0    -04
ENDCOMMON            3
DATA                 3        423
EN         DATA       DATA-ERR
MEV        B          B
 1.00   -03 1.40   +00
 1.00   -03 1.45   +00
 1.50   -03 1.38   +00 1.0    -01
 2.00   -03 1.31   +00
 2.50   -03 1.25   +00
 3.00   -03 1.24   +00
 3.50   -03 1.23   +00
 4.00   -03 1.28   +00
 4.50   -03 1.18   +00
 5.00   -03 1.23   +00
 5.50   -03 1.15   +00
 6.00   -03 1.21   +00
 6.50   -03 1.15   +00
 7.00   -03 1.17   +00
 7.50   -03 1.19   +00
 8.00   -03 1.20   +00
 8.50   -03 1.16   +00
 9.00   -03 1.15   +00
 9.50   -03 1.15   +00
 1.000  -02 1.12   +00 8.     -02
 1.050  -02 1.10   +00
 1.100  -02 1.16   +00
 1.150  -02 1.16   +00
 1.200  -02 1.14   +00
 1.250  -02 1.08   +00
 1.300  -02 1.11   +00
 1.350  -02 1.05   +00
 1.400  -02 1.05   +00
 1.450  -02 1.08   +00
 1.500  -02 1.09   +00
 1.550  -02 1.09   +00
 1.600  -02 1.05   +00
 1.650  -02 1.08   +00
 1.700  -02 1.04   +00
 1.750  -02 1.06   +00
 1.800  -02 1.07   +00
 1.850  -02 1.11   +00
 1.900  -02 1.08   +00
 1.950  -02 1.02   +00
 2.000  -02 1.06   +00 6.     -02
 2.050  -02 1.04   +00
 2.100  -02 1.10   +00
 2.150  -02 1.08   +00
 2.200  -02 1.10   +00
 2.250  -02 1.06   +00
 2.300  -02 1.09   +00
 2.350  -02 1.02   +00
 2.400  -02 1.02   +00
 2.450  -02 1.06   +00
 2.500  -02 1.03   +00 5.     -02
 2.550  -02 1.10   +00
 2.600  -02 1.10   +00
 2.650  -02 1.06   +00
 2.700  -02 1.08   +00
 2.750  -02 1.05   +00
 2.800  -02 1.07   +00
 2.900  -02 1.08   +00
 3.000  -02 1.07   +00 5.     -02
 3.100  -02 1.03   +00
 3.200  -02 1.08   +00
 3.300  -02 1.08   +00
 3.400  -02 1.09   +00
 3.500  -02 1.05   +00
 3.600  -02 1.06   +00
 3.700  -02 1.06   +00
 3.800  -02 1.04   +00
 3.900  -02 1.08   +00
 4.000  -02 1.06   +00 5.     -02
 4.100  -02 1.04   +00
 4.200  -02 1.06   +00
 4.300  -02 1.03   +00
 4.400  -02 1.04   +00
 4.500  -02 1.08   +00
 4.600  -02 1.03   +00
 4.700  -02 1.04   +00
 4.800  -02 1.06   +00
 4.900  -02 1.03   +00
 5.000  -02 1.02   +00 5.     -02
 5.100  -02 1.04   +00
 5.200  -02 1.02   +00
 5.300  -02 1.03   +00
 5.400  -02 1.01   +00
 5.500  -02 1.00   +00
 5.600  -02 9.5    -01
 5.700  -02 1.00   +00
 5.800  -02 8.0    -01
 5.900  -02 8.0    -01
 6.000  -02 8.0    -01 5.     -02
 6.100  -02 9.9    -01
 6.200  -02 8.8    -01
 6.300  -02 1.02   +00
 6.400  -02 8.0    -01
 6.500  -02 1.00   +00
 6.600  -02 1.01   +00
 6.700  -02 9.7    -01
 6.800  -02 9.7    -01
 6.900  -02 9.7    -01
 7.000  -02 9.8    -01 5.     -02
 7.100  -02 9.8    -01
 7.200  -02 9.9    -01
 7.300  -02 1.01   +00
 7.400  -02 1.00   +00
 7.500  -02 9.5    -01
 7.600  -02 9.7    -01
 7.700  -02 9.7    -01
 7.800  -02 9.4    -01
 7.900  -02 9.6    -01
 8.000  -02 9.6    -01 5.     -02
 8.100  -02 9.5    -01
 8.100  -02 9.6    -01
 8.200  -02 9.4    -01
 8.200  -02 9.5    -01
 8.300  -02 9.7    -01
 8.300  -02 9.9    -01
 8.400  -02 9.4    -01
 8.500  -02 9.7    -01
 8.600  -02 9.7    -01
 8.700  -02 9.7    -01
 8.800  -02 9.7    -01
 8.900  -02 9.6    -01
 9.000  -02 9.6    -01 5.     -02
 9.100  -02 9.5    -01
 9.200  -02 9.6    -01
 9.300  -02 9.5    -01
 9.400  -02 9.6    -01
 9.500  -02 9.6    -01
 9.600  -02 9.6    -01
 9.700  -02 9.5    -01
 9.800  -02 9.5    -01
 9.900  -02 9.5    -01
 1.000  -01 9.7    -01
 1.010  -01 9.4    -01
 1.020  -01 9.6    -01 1.0    -01
 1.030  -01 9.8    -01
 1.040  -01 9.9    -01
 1.050  -01 1.03   +00
 1.060  -01 1.03   +00
 1.070  -01 9.6    -01
 1.080  -01 9.9    -01
 1.090  -01 9.9    -01
 1.100  -01 9.7    -01
 1.110  -01 9.7    -01
 1.120  -01 9.6    -01
 1.130  -01 1.00   +00
 1.140  -01 1.00   +00
 1.150  -01 9.5    -01
 1.160  -01 9.5    -01
 1.170  -01 1.00   +00
 1.180  -01 1.00   +00
 1.190  -01 9.8    -01
 1.200  -01 1.00   +00
 1.210  -01 1.10   +00
 1.220  -01 1.06   +00
 1.230  -01 1.03   +00
 1.240  -01 1.05   +00
 1.250  -01 1.00   +00
 1.260  -01 1.03   +00
 1.270  -01 9.7    -01
 1.280  -01 9.9    -01
 1.290  -01 1.00   +00
 1.300  -01 9.8    -01
 1.310  -01 1.02   +00
 1.320  -01 1.01   +00
 1.330  -01 1.00   +00
 1.340  -01 1.01   +00
 1.350  -01 1.00   +00 1.0    -01
 1.360  -01 1.04   +00
 1.370  -01 1.02   +00
 1.380  -01 1.00   +00
 1.390  -01 9.8    -01
 1.400  -01 1.03   +00
 1.410  -01 1.05   +00
 1.420  -01 1.08   +00
 1.430  -01 1.05   +00
 1.440  -01 1.04   +00
 1.450  -01 1.21   +00
 1.460  -01 1.16   +00
 1.470  -01 1.16   +00
 1.480  -01 1.19   +00
 1.490  -01 1.12   +00
 1.500  -01 1.10   +00
 1.510  -01 1.13   +00
 1.520  -01 1.15   +00
 1.530  -01 1.10   +00
 1.540  -01 1.10   +00
 1.550  -01 1.10   +00
 1.560  -01 1.10   +00
 1.570  -01 1.10   +00
 1.580  -01 1.11   +00
 1.590  -01 1.15   +00
 1.600  -01 1.15   +00
 1.610  -01 1.25   +00
 1.620  -01 1.24   +00
 1.630  -01 1.26   +00
 1.640  -01 1.26   +00
 1.650  -01 1.26   +00 1.0    -01
 1.660  -01 1.30   +00
 1.670  -01 1.23   +00
 1.680  -01 1.19   +00
 1.690  -01 1.20   +00
 1.700  -01 1.25   +00
 1.710  -01 1.25   +00
 1.720  -01 1.21   +00
 1.730  -01 1.21   +00
 1.740  -01 1.22   +00
 1.750  -01 1.26   +00 1.0    -01
 1.760  -01 1.27   +00
 1.770  -01 1.35   +00
 1.780  -01 1.40   +00
 1.790  -01 1.38   +00
 1.800  -01 1.35   +00
 1.810  -01 1.27   +00
 1.820  -01 1.32   +00
 1.830  -01 1.30   +00
 1.840  -01 1.51   +00
 1.850  -01 1.50   +00
 1.860  -01 1.50   +00
 1.870  -01 1.46   +00
 1.880  -01 1.47   +00
 1.890  -01 1.56   +00
 1.900  -01 1.59   +00
 1.910  -01 1.60   +00
 1.920  -01 1.62   +00
 1.930  -01 1.57   +00
 1.940  -01 1.58   +00
 1.950  -01 1.61   +00
 1.960  -01 1.60   +00
 1.970  -01 1.75   +00
 1.980  -01 1.80   +00
 1.990  -01 1.95   +00
 2.000  -01 1.75   +00 1.7    -01
 2.010  -01 1.80   +00
 2.020  -01 1.90   +00
 2.030  -01 1.78   +00
 2.040  -01 1.82   +00
 2.050  -01 1.90   +00
 2.060  -01 1.87   +00
 2.070  -01 1.90   +00
 2.080  -01 1.95   +00
 2.090  -01 2.07   +00
 2.100  -01 2.02   +00
 2.110  -01 2.12   +00
 2.120  -01 2.10   +00
 2.130  -01 2.12   +00
 2.140  -01 2.20   +00
 2.150  -01 2.37   +00
 2.160  -01 2.75   +00
 2.170  -01 2.37   +00
 2.180  -01 2.37   +00
 2.190  -01 2.50   +00
 2.200  -01 2.58   +00
 2.210  -01 2.67   +00
 2.220  -01 2.80   +00
 2.230  -01 2.97   +00
 2.240  -01 3.04   +00
 2.250  -01 3.15   +00 2.0    -01
 2.260  -01 3.17   +00
 2.270  -01 3.35   +00
 2.280  -01 3.75   +00
 2.290  -01 3.53   +00
 2.300  -01 3.65   +00
 2.310  -01 3.55   +00
 2.320  -01 3.90   +00
 2.330  -01 3.78   +00
 2.340  -01 3.98   +00
 2.350  -01 4.30   +00
 2.360  -01 4.90   +00
 2.370  -01 4.80   +00
 2.380  -01 4.80   +00
 2.390  -01 5.36   +00
 2.400  -01 5.65   +00
 2.410  -01 6.03   +00
 2.420  -01 6.52   +00
 2.430  -01 6.95   +00
 2.440  -01 7.22   +00
 2.450  -01 7.02   +00
 2.460  -01 7.55   +00
 2.470  -01 7.92   +00
 2.480  -01 8.24   +00
 2.490  -01 8.68   +00
 2.500  -01 9.14   +00 3.5    -01
 2.510  -01 9.41   +00
 2.520  -01 9.75   +00
 2.530  -01 1.044  +01
 2.540  -01 1.060  +01
 2.550  -01 1.050  +01
 2.560  -01 1.026  +01 2.0    -01
 2.570  -01 9.94   +00
 2.580  -01 9.88   +00
 2.590  -01 1.015  +01
 2.600  -01 9.68   +00
 2.610  -01 9.25   +00
 2.620  -01 1.060  +01
 2.630  -01 1.020  +01
 2.640  -01 9.80   +00 2.0    -01
 2.650  -01 9.45   +00
 2.660  -01 8.78   +00
 2.670  -01 8.30   +00
 2.680  -01 7.82   +00
 2.690  -01 7.85   +00
 2.700  -01 7.16   +00 2.0    -01
 2.710  -01 6.85   +00
 2.720  -01 6.60   +00
 2.730  -01 6.35   +00
 2.740  -01 5.95   +00
 2.760  -01 5.0    +00
 2.770  -01 5.55   +00
 2.780  -01 5.32   +00
 2.790  -01 5.25   +00
 2.800  -01 5.14   +00
 2.810  -01 4.95   +00 2.0    -01
 2.820  -01 5.15   +00
 2.830  -01 5.02   +00
 2.840  -01 4.90   +00
 2.850  -01 4.65   +00
 2.860  -01 4.48   +00
 2.870  -01 4.35   +00
 2.880  -01 4.05   +00
 2.890  -01 4.18   +00
 2.900  -01 4.16   +00
 2.910  -01 3.86   +00
 2.920  -01 3.65   +00
 2.930  -01 3.56   +00
 2.940  -01 3.50   +00
 2.950  -01 3.50   +00
 2.960  -01 3.18   +00
 2.970  -01 3.28   +00
 2.980  -01 3.22   +00
 2.990  -01 3.15   +00
 3.000  -01 3.12   +00
 3.010  -01 2.95   +00
 3.020  -01 2.90   +00
 3.030  -01 2.70   +00
 3.040  -01 2.67   +00
 3.050  -01 2.77   +00
 3.060  -01 2.57   +00
 3.070  -01 2.53   +00
 3.080  -01 2.58   +00
 3.090  -01 2.65   +00
 3.100  -01 2.50   +00
 3.110  -01 2.65   +00 1.5    -01
 3.120  -01 2.60   +00
 3.130  -01 2.48   +00
 3.140  -01 2.59   +00
 3.150  -01 2.40   +00
 3.160  -01 2.27   +00
 3.170  -01 2.50   +00
 3.180  -01 2.30   +00
 3.190  -01 2.27   +00
 3.200  -01 2.20   +00
 3.210  -01 2.27   +00
 3.220  -01 2.30   +00
 3.230  -01 2.07   +00
 3.240  -01 2.10   +00
 3.250  -01 2.12   +00
 3.260  -01 2.09   +00
 3.270  -01 2.06   +00
 3.280  -01 2.20   +00
 3.290  -01 2.17   +00
 3.300  -01 2.00   +00
 3.310  -01 2.03   +00
 3.320  -01 1.95   +00
 3.330  -01 1.88   +00
 3.340  -01 1.80   +00
 3.350  -01 1.85   +00
 3.360  -01 1.82   +00
 3.370  -01 1.76   +00
 3.380  -01 1.86   +00
 3.390  -01 1.86   +00
 3.400  -01 1.86   +00 1.0    -01
 3.410  -01 1.81   +00
 3.420  -01 1.77   +00
 3.430  -01 1.80   +00
 3.440  -01 1.60   +00
 3.450  -01 1.68   +00
 3.460  -01 1.65   +00
 3.470  -01 1.62   +00
 3.480  -01 1.62   +00
 3.480  -01 1.71   +00
 3.490  -01 1.55   +00
 3.490  -01 1.70   +00
 3.500  -01 1.70   +00
 3.510  -01 1.61   +00
 3.530  -01 1.64   +00
 3.540  -01 1.61   +00
 3.550  -01 1.63   +00
 3.560  -01 1.50   +00
 3.570  -01 1.64   +00
 3.580  -01 1.61   +00
 3.590  -01 1.60   +00
 3.600  -01 1.65   +00
 3.610  -01 1.57   +00
 3.620  -01 1.60   +00
 3.630  -01 1.55   +00
 3.640  -01 1.65   +00
 3.650  -01 1.68   +00
 3.660  -01 1.58   +00
 3.670  -01 1.56   +00
 3.680  -01 1.52   +00
 3.690  -01 1.45   +00
 3.700  -01 1.54   +00
 3.710  -01 1.45   +00
 3.720  -01 1.45   +00
 3.730  -01 1.40   +00
 3.740  -01 1.55   +00
 3.750  -01 1.50   +00
 3.760  -01 1.49   +00
 3.770  -01 1.45   +00
 3.780  -01 1.47   +00
 3.790  -01 1.46   +00
 3.800  -01 1.41   +00 1.0    -01
 3.810  -01 1.46   +00
 3.820  -01 1.43   +00
 3.830  -01 1.48   +00
 3.840  -01 1.35   +00
 3.850  -01 1.25   +00
 3.860  -01 1.42   +00
 3.870  -01 1.32   +00
 3.880  -01 1.33   +00
 3.890  -01 1.25   +00
 3.900  -01 1.37   +00
 3.910  -01 1.31   +00
 3.920  -01 1.32   +00
ENDDATA            425
ENDSUBENT          435
SUBENT        11122003   20050427   20050707                  1333
BIB                  1          2
REACTION  1(9-F-19(N,0),,J)
          2(9-F-19(N,0),,L)
ENDBIB               2
NOCOMMON             0          0
DATA                 4         12
EN-RES     EN-RSL     DATA      1DATA      2
MEV        MEV        NO-DIM     NO-DIM
 2.735  -02 2.0    -04 2.     +00 1.
 4.97   -02 2.0    -03 1.     +00 1.
 8.78   -02 2.0    -03 0.     +00 1.
 9.60   -02 2.0    -03 1.     +00 1.
 1.000  -01 2.0    -03 2.     +00 1.
 1.024  -01 2.0    -03 1.     +00 0.
 1.132  -01 2.0    -03 0.     +00 1.
 1.217  -01 2.0    -03 0.         1.
 2.002  -01 2.0    -03 0.     +00 0.
 2.460  -01 2.0    -03 1.     +00 0.
 2.478  -01 2.0    -03 1.     +00 0.
 2.677  -01 2.0    -03 1.     +00 0.
ENDDATA             14
ENDSUBENT           21
SUBENT        11122004   20050427   20050707                  1333
BIB                  1          1
REACTION   (9-F-19(N,0),,EN)
ENDBIB               1
NOCOMMON             0          0
DATA                 2          5
DATA       EN-RSL
MEV        MEV
 1.525  -02 2.0    -04
 3.19   -02 2.0    -03
 3.40   -02 2.0    -03
 3.80   -02 2.0    -03
 7.05   -02 2.0    -03
ENDDATA              7
ENDSUBENT           13
SUBENT        11122005   20050427   20050707                  1333
BIB                  1          1
REACTION   (9-F-19(N,TOT),,WID)
ENDBIB               1
NOCOMMON             0          0
DATA                 3         12
EN-RES     EN-RSL     DATA
MEV        MEV        MILLI-EV
 2.735  -02 2.0    -04 3.0    +05
 4.97   -02 2.0    -03 1.70   +06
 8.78   -02 2.0    -03 4.00   +06
 9.60   -02 2.0    -03 5.50   +06
 1.000  -01 2.0    -03 1.10   +06
 1.024  -01 2.0    -03 3.00   +06
 1.132  -01 2.0    -03 1.20   +06
 1.217  -01 2.0    -03 1.00   +06
 2.002  -01 2.0    -03 2.0    +06
 2.460  -01 2.0    -03 1.8    +06
 2.478  -01 2.0    -03 4.     +05
 2.677  -01 2.0    -03 1.4    +06
ENDDATA             14
ENDSUBENT           20
SUBENT        11122006   20050427   20050707                  1333
BIB                  2          2
REACTION   (9-F-19(N,TOT),,SIG)
METHOD     Flat detection
ENDBIB               2
COMMON               1          3
EN-RSL
KEV
 0.8
ENDCOMMON            3
DATA                 3        829
EN         DATA       DATA-ERR
MEV        B          B
 1.0    -03 3.47   +00
 1.5    -03 3.46   +00 2.0    -01
 2.0    -03 3.46   +00
 2.5    -03 3.51   +00
 3.0    -03 3.54   +00
 3.5    -03 3.40   +00
 4.0    -03 3.38   +00
 4.5    -03 3.45   +00 1.6    -01
 5.0    -03 3.52   +00
 5.5    -03 3.41   +00
 6.0    -03 3.45   +00
 6.5    -03 3.47   +00
 7.0    -03 3.37   +00
 7.5    -03 3.33   +00
 8.0    -03 3.36   +00
 8.5    -03 3.51   +00
 9.0    -03 3.35   +00
 9.5    -03 3.43   +00
 1.00   -02 3.29   +00 1.6    -01
 1.05   -02 3.30   +00
 1.10   -02 3.30   +00
 1.10   -02 3.37   +00
 1.15   -02 3.51   +00
 1.20   -02 3.28   +00
 1.25   -02 3.35   +00
 1.30   -02 3.34   +00
 1.35   -02 3.26   +00
 1.40   -02 3.25   +00
 1.45   -02 3.35   +00
 1.45   -02 3.43   +00
 1.475  -02 3.80   +00
 1.50   -02 3.88   +00
 1.50   -02 4.00   +00
 1.52   -02 4.16   +00
 1.53   -02 4.08   +00
 1.55   -02 3.65   +00
 1.575  -02 3.50   +00
 1.60   -02 3.45   +00
 1.60   -02 3.50   +00
 1.65   -02 3.37   +00
 1.70   -02 3.40   +00
 1.75   -02 3.47   +00
 1.80   -02 3.48   +00
 1.85   -02 3.38   +00
 1.90   -02 3.48   +00
 1.95   -02 3.46   +00
 2.00   -02 3.48   +00 1.5    -01
 2.05   -02 3.39   +00
 2.10   -02 3.36   +00
 2.15   -02 3.40   +00
 2.20   -02 3.42   +00
 2.25   -02 3.38   +00
 2.30   -02 3.43   +00
 2.35   -02 3.37   +00
 2.40   -02 3.35   +00
 2.45   -02 3.40   +00
 2.50   -02 3.58   +00
 2.55   -02 3.90   +00
 2.60   -02 4.62   +00
 2.62   -02 5.42   +00
 2.625  -02 5.36   +00
 2.63   -02 5.44   +00
 2.64   -02 6.10   +00
 2.65   -02 6.62   +00
 2.65   -02 7.35   +00
 2.65   -02 6.95   +00
 2.66   -02 7.91   +00
 2.66   -02 8.09   +00
 2.665  -02 7.82   +00
 2.67   -02 9.55   +00
 2.67   -02 9.85   +00
 2.675  -02 1.025  +01
 2.675  -02 1.110  +01
 2.680  -02 1.160  +01
 2.680  -02 1.190  +01
 2.685  -02 1.530  +01
 2.685  -02 1.550  +01
 2.690  -02 1.690  +01
 2.700  -02 2.260  +01 1.5    -01
 2.700  -02 2.370  +01
 2.710  -02 2.900  +01
 2.710  -02 2.950  +01
 2.720  -02 4.280  +01
 2.720  -02 4.380  +01
 2.720  -02 4.330  +01
 2.725  -02 5.000  +01
 2.725  -02 5.150  +01
 2.730  -02 5.950  +01
 2.740  -02 6.400  +01
 2.750  -02 5.100  +01
 2.750  -02 5.300  +01
 2.755  -02 4.500  +01
 2.760  -02 3.450  +01
 2.765  -02 3.200  +01
 2.770  -02 2.630  +01
 2.770  -02 2.800  +01
 2.775  -02 2.270  +01
 2.775  -02 2.320  +01
 2.780  -02 2.080  +01
 2.785  -02 1.590  +01
 2.795  -02 1.500  +01
 2.805  -02 1.230  +01
 2.815  -02 9.50   +00 4.5    -01
 2.835  -02 7.50   +00
 2.865  -02 5.50   +00
 2.890  -02 5.10   +00
 2.915  -02 4.65   +00
 2.940  -02 4.20   +00
 2.965  -02 3.85   +00 1.5    -01
 3.005  -02 3.70   +00
 3.035  -02 3.61   +00
 3.065  -02 3.67   +00
 3.100  -02 3.58   +00
 3.125  -02 3.90   +00
 3.140  -02 4.20   +00
 3.180  -02 4.45   +00
 3.200  -02 4.20   +00
 3.225  -02 3.84   +00
 3.250  -02 3.38   +00
 3.300  -02 3.48   +00
 3.300  -02 3.50   +00
 3.325  -02 3.64   +00
 3.350  -02 3.80   +00
 3.375  -02 3.90   +00
 3.400  -02 4.20   +00
 3.400  -02 4.35   +00
 3.450  -02 3.82   +00
 3.500  -02 3.44   +00
 3.500  -02 3.48   +00
 3.600  -02 3.40   +00
 3.600  -02 3.46   +00
 3.700  -02 3.34   +00
 3.750  -02 3.70   +00
 3.800  -02 4.20   +00
 3.800  -02 4.25   +00
 3.850  -02 3.82   +00
 3.900  -02 3.40   +00
 4.000  -02 3.38   +00 1.5    -01
 4.100  -02 3.41   +00
 4.200  -02 3.50   +00
 4.300  -02 3.70   +00
 4.400  -02 4.20   +00
 4.500  -02 4.80   +00
 4.600  -02 5.60   +00
 4.600  -02 5.90   +00
 4.650  -02 6.70   +00
 4.650  -02 6.95   +00
 4.700  -02 7.70   +00
 4.700  -02 8.00   +00
 4.750  -02 9.40   +00
 4.750  -02 9.80   +00
 4.770  -02 1.060  +01
 4.770  -02 1.070  +01
 4.780  -02 1.180  +01
 4.800  -02 1.290  +01
 4.800  -02 1.310  +01
 4.820  -02 1.430  +01
 4.840  -02 1.775  +01
 4.860  -02 1.990  +01
 4.860  -02 2.020  +01
 4.880  -02 2.490  +01
 4.900  -02 2.970  +01
 4.920  -02 3.550  +01
 4.940  -02 4.080  +01
 4.960  -02 4.290  +01
 4.970  -02 4.320  +01
 4.980  -02 4.285  +01
 4.990  -02 4.200  +01
 5.000  -02 4.010  +01
 5.025  -02 3.440  +01
 5.050  -02 2.840  +01
 5.050  -02 2.880  +01
 5.075  -02 2.260  +01
 5.100  -02 1.810  +01
 5.125  -02 1.390  +01
 5.150  -02 1.160  +01
 5.175  -02 1.050  +01
 5.200  -02 8.60   +00
 5.250  -02 6.61   +00
 5.300  -02 5.95   +00
 5.350  -02 5.20   +00
 5.350  -02 5.40   +00
 5.400  -02 4.30   +00
 5.400  -02 4.55   +00
 5.450  -02 4.20   +00
 5.450  -02 4.35   +00
 5.500  -02 3.90   +00
 5.550  -02 3.80   +00
 5.600  -02 3.65   +00
 5.700  -02 3.40   +00
 5.800  -02 3.33   +00
 5.900  -02 3.22   +00
 6.000  -02 3.32   +00 1.5    -01
 6.100  -02 3.27   +00
 6.200  -02 3.30   +00
 6.300  -02 3.26   +00
 6.400  -02 3.25   +00
 6.500  -02 3.29   +00
 6.600  -02 3.21   +00
 6.700  -02 3.22   +00
 6.800  -02 3.22   +00
 6.900  -02 3.30   +00
 7.000  -02 3.61   +00
 7.000  -02 3.75   +00 2.0    -01
 7.100  -02 3.98   +00
 7.200  -02 3.59   +00
 7.300  -02 3.30   +00
 7.400  -02 3.43   +00
 7.500  -02 3.35   +00
 7.600  -02 3.60   +00
 7.700  -02 3.56   +00
 7.800  -02 3.57   +00
 7.900  -02 3.76   +00
 8.000  -02 4.10   +00 2.0    -01
 8.100  -02 4.05   +00
 8.100  -02 4.25   +00
 8.200  -02 4.56   +00
 8.200  -02 4.77   +00
 8.300  -02 4.80   +00
 8.300  -02 4.98   +00
 8.400  -02 5.20   +00
 8.500  -02 5.70   +00
 8.600  -02 6.60   +00
 8.600  -02 6.70   +00
 8.700  -02 7.74   +00
 8.700  -02 7.88   +00
 8.750  -02 8.60   +00
 8.800  -02 8.90   +00
 8.800  -02 9.15   +00
 8.850  -02 8.60   +00
 8.900  -02 8.10   +00
 8.900  -02 8.30   +00
 8.950  -02 8.35   +00
 9.000  -02 8.65   +00
 9.000  -02 8.85   +00
 9.100  -02 1.000  +01
 9.200  -02 1.160  +01
 9.300  -02 1.330  +01
 9.400  -02 1.535  +01
 9.500  -02 1.896  +01
 9.550  -02 1.990  +01
 9.600  -02 2.210  +01
 9.600  -02 2.240  +01
 9.650  -02 2.345  +01
 9.700  -02 2.410  +01
 9.700  -02 2.445  +01
 9.750  -02 2.372  +01
 9.800  -02 2.240  +01
 9.800  -02 2.264  +01
 9.850  -02 2.215  +01
 9.900  -02 2.235  +01
 9.920  -02 2.460  +01
 9.940  -02 2.595  +01
 9.960  -02 2.750  +01
 9.980  -02 2.880  +01
 1.000  -01 2.935  +01
 1.000  -01 2.915  +01
 1.005  -01 2.500  +01
 1.005  -01 2.515  +01
 1.010  -01 2.275  +01
 1.010  -01 2.320  +01
 1.015  -01 2.105  +01
 1.015  -01 2.115  +01
 1.020  -01 2.080  +01
 1.020  -01 2.090  +01
 1.025  -01 2.250  +01
 1.025  -01 2.275  +01
 1.030  -01 2.255  +01
 1.030  -01 2.285  +01
 1.035  -01 2.035  +01
 1.035  -01 2.060  +01
 1.040  -01 1.840  +01
 1.040  -01 1.860  +01
 1.050  -01 1.640  +01
 1.060  -01 1.450  +01
 1.070  -01 1.305  +01
 1.080  -01 1.165  +01
 1.080  -01 1.135  +01
 1.090  -01 9.90   +00
 1.100  -01 9.10   +00
 1.110  -01 8.75   +00
 1.115  -01 8.73   +00
 1.120  -01 8.54   +00
 1.120  -01 8.40   +00
 1.125  -01 8.65   +00
 1.128  -01 9.10   +00
 1.130  -01 9.75   +00
 1.133  -01 9.23   +00
 1.135  -01 8.56   +00
 1.140  -01 8.05   +00
 1.140  -01 8.20   +00
 1.145  -01 7.50   +00 3.0    -01
 1.150  -01 7.05   +00
 1.150  -01 6.90   +00
 1.160  -01 6.40   +00
 1.170  -01 6.20   +00
 1.180  -01 6.00   +00
 1.180  -01 5.88   +00
 1.190  -01 5.95   +00
 1.190  -01 5.80   +00
 1.200  -01 5.78   +00
 1.200  -01 5.60   +00
 1.210  -01 6.10   +00
 1.215  -01 6.45   +00
 1.218  -01 6.60   +00
 1.220  -01 6.95   +00
 1.220  -01 7.10   +00
 1.223  -01 6.60   +00
 1.225  -01 6.15   +00
 1.230  -01 5.85   +00
 1.240  -01 5.70   +00
 1.250  -01 5.70   +00
 1.250  -01 5.85   +00
 1.260  -01 5.35   +00
 1.260  -01 5.48   +00
 1.270  -01 5.05   +00
 1.280  -01 4.98   +00
 1.290  -01 4.53   +00
 1.300  -01 4.88   +00
 1.310  -01 4.34   +00
 1.320  -01 4.20   +00 2.0    -01
 1.330  -01 4.53   +00
 1.335  -01 4.84   +00
 1.338  -01 5.10   +00
 1.338  -01 5.13   +00
 1.340  -01 5.21   +00
 1.340  -01 5.27   +00
 1.343  -01 4.98   +00
 1.345  -01 4.72   +00
 1.350  -01 4.31   +00
 1.350  -01 4.36   +00
 1.360  -01 4.20   +00
 1.360  -01 4.16   +00
 1.370  -01 4.44   +00
 1.370  -01 4.52   +00
 1.375  -01 4.77   +00
 1.378  -01 4.98   +00
 1.380  -01 5.21   +00
 1.383  -01 5.12   +00
 1.385  -01 4.80   +00
 1.390  -01 4.49   +00
 1.390  -01 4.44   +00
 1.400  -01 4.18   +00
 1.410  -01 4.16   +00
 1.420  -01 4.36   +00
 1.425  -01 4.80   +00
 1.428  -01 5.15   +00
 1.430  -01 5.68   +00
 1.430  -01 5.72   +00
 1.433  -01 5.48   +00
 1.435  -01 5.01   +00
 1.440  -01 4.60   +00
 1.440  -01 4.71   +00
 1.450  -01 4.16   +00
 1.450  -01 4.19   +00
 1.460  -01 4.19   +00
 1.460  -01 4.16   +00
 1.460  -01 4.12   +00
 1.465  -01 4.28   +00
 1.468  -01 4.35   +00
 1.470  -01 4.50   +00
 1.470  -01 4.44   +00
 1.473  -01 4.74   +00
 1.473  -01 4.66   +00
 1.475  -01 4.90   +00
 1.478  -01 4.93   +00
 1.480  -01 4.78   +00
 1.480  -01 4.73   +00
 1.483  -01 4.47   +00
 1.485  -01 4.24   +00
 1.490  -01 4.02   +00
 1.490  -01 4.07   +00
 1.500  -01 3.78   +00
 1.500  -01 3.87   +00
 1.510  -01 4.03   +00
 1.510  -01 4.11   +00
 1.515  -01 4.28   +00
 1.520  -01 4.61   +00
 1.520  -01 4.68   +00
 1.523  -01 4.97   +00
 1.525  -01 5.25   +00
 1.528  -01 4.89   +00
 1.530  -01 4.60   +00
 1.530  -01 4.67   +00
 1.535  -01 4.13   +00
 1.540  -01 3.99   +00
 1.540  -01 3.94   +00
 1.550  -01 3.97   +00
 1.550  -01 3.94   +00
 1.555  -01 4.11   +00
 1.560  -01 4.50   +00
 1.560  -01 4.59   +00
 1.563  -01 4.76   +00
 1.565  -01 4.97   +00
 1.565  -01 4.99   +00
 1.568  -01 4.75   +00
 1.570  -01 4.35   +00
 1.570  -01 4.46   +00
 1.575  -01 4.12   +00
 1.580  -01 3.87   +00
 1.580  -01 3.76   +00
 1.590  -01 4.02   +00
 1.595  -01 4.25   +00
 1.600  -01 4.81   +00
 1.600  -01 4.78   +00
 1.603  -01 5.02   +00
 1.605  -01 5.33   +00
 1.608  -01 4.89   +00
 1.608  -01 4.93   +00
 1.610  -01 4.56   +00
 1.610  -01 4.71   +00
 1.615  -01 4.09   +00
 1.620  -01 3.97   +00
 1.620  -01 3.89   +00
 1.630  -01 3.64   +00
 1.630  -01 3.59   +00
 1.640  -01 3.77   +00
 1.640  -01 3.91   +00
 1.645  -01 4.09   +00
 1.648  -01 4.31   +00
 1.650  -01 4.38   +00
 1.650  -01 4.52   +00
 1.653  -01 4.28   +00
 1.655  -01 4.11   +00 1.5    -01
 1.660  -01 3.66   +00
 1.660  -01 3.59   +00
 1.665  -01 3.52   +00
 1.670  -01 3.53   +00
 1.670  -01 3.57   +00
 1.675  -01 3.61   +00
 1.680  -01 3.71   +00
 1.680  -01 3.80   +00
 1.685  -01 4.07   +00
 1.688  -01 4.19   +00
 1.693  -01 4.62   +00
 1.695  -01 4.86   +00
 1.698  -01 4.60   +00
 1.700  -01 4.43   +00
 1.700  -01 4.37   +00
 1.705  -01 3.87   +00
 1.710  -01 3.42   +00
 1.720  -01 3.52   +00
 1.725  -01 4.09   +00
 1.730  -01 4.39   +00
 1.730  -01 4.21   +00
 1.733  -01 4.62   +00
 1.733  -01 4.56   +00
 1.735  -01 4.87   +00
 1.740  -01 4.10   +00
 1.740  -01 4.17   +00
 1.745  -01 3.85   +00
 1.750  -01 3.60   +00 1.5    -01
 1.755  -01 3.53   +00
 1.760  -01 3.67   +00
 1.765  -01 3.99   +00
 1.770  -01 4.33   +00
 1.770  -01 4.38   +00
 1.773  -01 4.51   +00
 1.775  -01 4.66   +00
 1.778  -01 4.18   +00
 1.780  -01 4.12   +00
 1.780  -01 4.26   +00
 1.785  -01 3.75   +00
 1.790  -01 3.71   +00
 1.800  -01 3.48   +00
 1.805  -01 4.00   +00
 1.810  -01 4.27   +00
 1.810  -01 4.30   +00
 1.813  -01 4.47   +00
 1.815  -01 4.49   +00
 1.818  -01 4.20   +00
 1.820  -01 4.02   +00
 1.820  -01 4.11   +00
 1.825  -01 3.59   +00
 1.830  -01 3.69   +00
 1.835  -01 3.97   +00
 1.840  -01 4.13   +00
 1.843  -01 4.27   +00
 1.845  -01 4.45   +00
 1.848  -01 4.47   +00
 1.850  -01 4.00   +00
 1.850  -01 4.18   +00
 1.855  -01 3.76   +00
 1.860  -01 3.47   +00
 1.870  -01 3.45   +00
 1.870  -01 3.49   +00
 1.875  -01 3.54   +00
 1.875  -01 3.62   +00
 1.880  -01 4.02   +00
 1.885  -01 4.25   +00
 1.888  -01 4.42   +00
 1.890  -01 4.43   +00
 1.890  -01 4.44   +00
 1.893  -01 4.10   +00
 1.895  -01 3.97   +00
 1.900  -01 3.61   +00
 1.900  -01 3.71   +00
 1.910  -01 3.47   +00
 1.920  -01 3.78   +00
 1.920  -01 3.80   +00
 1.925  -01 4.06   +00
 1.930  -01 4.31   +00
 1.930  -01 4.43   +00 2.5    -01
 1.933  -01 4.52   +00
 1.935  -01 4.55   +00
 1.938  -01 4.45   +00
 1.940  -01 4.39   +00
 1.940  -01 4.56   +00
 1.945  -01 4.08   +00
 1.950  -01 3.77   +00
 1.960  -01 4.40   +00
 1.960  -01 3.66   +00 1.5    -01
 1.970  -01 3.92   +00
 1.970  -01 3.97   +00
 1.975  -01 4.29   +00
 1.978  -01 4.45   +00
 1.980  -01 4.50   +00
 1.980  -01 4.57   +00
 1.983  -01 4.28   +00
 1.985  -01 3.99   +00
 1.990  -01 3.22   +00
 1.990  -01 3.28   +00
 1.995  -01 3.76   +00
 2.000  -01 4.42   +00
 2.000  -01 4.64   +00
 2.003  -01 4.75   +00
 2.005  -01 4.88   +00
 2.005  -01 4.94   +00
 2.008  -01 4.73   +00
 2.010  -01 4.46   +00
 2.020  -01 4.06   +00
 2.020  -01 4.17   +00
 2.025  -01 4.05   +00
 2.030  -01 4.00   +00
 2.030  -01 4.05   +00 2.0    -01
 2.035  -01 4.28   +00
 2.035  -01 4.36   +00
 2.038  -01 4.60   +00
 2.040  -01 4.90   +00
 2.043  -01 4.55   +00
 2.045  -01 4.18   +00
 2.045  -01 4.30   +00
 2.050  -01 3.98   +00
 2.050  -01 4.08   +00
 2.060  -01 3.60   +00
 2.070  -01 3.45   +00
 2.080  -01 3.60   +00
 2.085  -01 4.08   +00
 2.090  -01 4.35   +00
 2.090  -01 4.42   +00
 2.093  -01 4.71   +00
 2.095  -01 4.89   +00
 2.098  -01 4.57   +00
 2.100  -01 4.44   +00
 2.105  -01 4.08   +00
 2.110  -01 3.88   +00
 2.110  -01 3.72   +00
 2.115  -01 4.00   +00
 2.120  -01 4.77   +00
 2.120  -01 4.53   +00
 2.120  -01 4.66   +00
 2.123  -01 4.90   +00
 2.125  -01 4.95   +00
 2.128  -01 4.58   +00
 2.130  -01 4.26   +00
 2.130  -01 4.31   +00
 2.135  -01 3.90   +00
 2.140  -01 3.90   +00
 2.140  -01 3.86   +00
 2.145  -01 4.00   +00
 2.150  -01 5.02   +00
 2.150  -01 4.76   +00
 2.153  -01 5.31   +00
 2.155  -01 6.00   +00
 2.158  -01 5.70   +00
 2.160  -01 5.00   +00 2.0    -01
 2.165  -01 3.97   +00
 2.170  -01 3.75   +00
 2.170  -01 3.89   +00
 2.175  -01 3.86   +00
 2.180  -01 4.06   +00
 2.185  -01 5.15   +00
 2.188  -01 5.32   +00
 2.190  -01 5.45   +00
 2.193  -01 5.12   +00
 2.195  -01 5.05   +00
 2.200  -01 4.50   +00
 2.200  -01 4.42   +00
 2.210  -01 3.60   +00
 2.220  -01 3.55   +00
 2.220  -01 3.44   +00
 2.230  -01 3.67   +00
 2.235  -01 4.16   +00
 2.240  -01 4.74   +00
 2.240  -01 4.81   +00
 2.245  -01 5.08   +00
 2.245  -01 5.20   +00
 2.248  -01 5.25   +00
 2.248  -01 5.07   +00
 2.250  -01 5.28   +00
 2.250  -01 5.34   +00
 2.253  -01 5.14   +00 2.5    -01
 2.255  -01 5.00   +00
 2.260  -01 4.58   +00
 2.265  -01 4.32   +00
 2.270  -01 4.17   +00
 2.275  -01 4.61   +00
 2.278  -01 5.37   +00
 2.280  -01 5.66   +00
 2.283  -01 5.61   +00
 2.285  -01 5.04   +00
 2.290  -01 4.71   +00
 2.290  -01 4.66   +00
 2.298  -01 6.14   +00
 2.300  -01 6.42   +00
 2.300  -01 6.46   +00
 2.303  -01 6.17   +00
 2.305  -01 5.70   +00
 2.310  -01 4.97   +00
 2.310  -01 4.93   +00
 2.315  -01 5.68   +00
 2.318  -01 6.35   +00
 2.320  -01 6.87   +00
 2.320  -01 7.16   +00
 2.323  -01 6.70   +00
 2.325  -01 6.01   +00
 2.330  -01 4.34   +00
 2.330  -01 4.74   +00
 2.340  -01 3.75   +00
 2.340  -01 3.78   +00
 2.345  -01 3.71   +00
 2.350  -01 3.78   +00
 2.350  -01 3.88   +00
 2.360  -01 5.60   +00
 2.360  -01 4.90   +00
 2.363  -01 6.60   +00
 2.365  -01 7.58   +00
 2.365  -01 7.20   +00
 2.368  -01 7.59   +00
 2.370  -01 6.75   +00 2.5    -01
 2.370  -01 6.79   +00
 2.373  -01 6.12   +00
 2.375  -01 5.55   +00
 2.380  -01 4.94   +00
 2.380  -01 5.06   +00
 2.385  -01 4.90   +00
 2.390  -01 5.02   +00
 2.390  -01 5.25   +00
 2.395  -01 5.25   +00
 2.400  -01 6.24   +00
 2.403  -01 7.30   +00
 2.405  -01 7.67   +00
 2.408  -01 7.59   +00
 2.410  -01 7.36   +00
 2.413  -01 6.86   +00
 2.415  -01 6.50   +00
 2.420  -01 6.08   +00
 2.425  -01 6.00   +00
 2.430  -01 6.36   +00
 2.433  -01 6.71   +00
 2.435  -01 7.44   +00
 2.438  -01 7.36   +00
 2.440  -01 7.26   +00
 2.440  -01 6.97   +00 2.5    -01
 2.445  -01 6.06   +00
 2.450  -01 5.30   +00
 2.450  -01 5.19   +00
 2.455  -01 7.28   +00
 2.458  -01 7.85   +00
 2.460  -01 8.19   +00
 2.460  -01 8.05   +00
 2.463  -01 8.36   +00
 2.465  -01 7.30   +00
 2.470  -01 6.74   +00
 2.475  -01 6.78   +00
 2.478  -01 7.90   +00
 2.480  -01 9.10   +00
 2.480  -01 9.14   +00
 2.483  -01 8.87   +00
 2.485  -01 7.90   +00
 2.490  -01 7.12   +00
 2.495  -01 6.87   +00
 2.500  -01 6.50   +00
 2.505  -01 6.01   +00
 2.510  -01 5.95   +00
 2.515  -01 6.39   +00
 2.520  -01 7.12   +00
 2.520  -01 6.89   +00
 2.525  -01 7.27   +00
 2.530  -01 8.08   +00 2.5    -01
 2.530  -01 8.00   +00
 2.535  -01 8.71   +00
 2.535  -01 8.66   +00
 2.540  -01 8.25   +00
 2.545  -01 7.41   +00
 2.550  -01 7.04   +00
 2.555  -01 6.71   +00
 2.560  -01 6.67   +00
 2.565  -01 6.39   +00
 2.570  -01 6.53   +00
 2.575  -01 6.67   +00
 2.580  -01 7.30   +00
 2.580  -01 7.15   +00
 2.585  -01 7.52   +00
 2.590  -01 8.44   +00
 2.590  -01 8.34   +00
 2.595  -01 8.41   +00
 2.600  -01 7.56   +00 2.0    -01
 2.605  -01 6.16   +00
 2.610  -01 5.80   +00
 2.620  -01 5.59   +00
 2.625  -01 5.70   +00
 2.630  -01 6.13   +00
 2.635  -01 6.67   +00
 2.640  -01 7.19   +00
 2.645  -01 7.66   +00
 2.650  -01 8.07   +00
 2.655  -01 8.11   +00
 2.660  -01 7.70   +00
 2.665  -01 7.33   +00
 2.668  -01 7.02   +00
 2.670  -01 6.75   +00
 2.673  -01 7.11   +00
 2.673  -01 7.14   +00
 2.675  -01 7.80   +00
 2.678  -01 8.75   +00
 2.680  -01 9.74   +00
 2.683  -01 1.036  +01
 2.685  -01 1.060  +01
 2.688  -01 9.60   +00
 2.690  -01 8.36   +00
 2.690  -01 8.53   +00
 2.695  -01 6.56   +00
 2.695  -01 9.52   +00
 2.698  -01 1.066  +01 3.0    -01
 2.700  -01 1.239  +01
 2.703  -01 1.436  +01
 2.705  -01 1.470  +01
 2.708  -01 1.444  +01
 2.710  -01 1.325  +01
 2.710  -01 1.315  +01
 2.715  -01 1.027  +01
 2.718  -01 1.025  +01
 2.720  -01 1.035  +01
 2.723  -01 1.165  +01
 2.725  -01 1.244  +01
 2.725  -01 1.233  +01
 2.728  -01 1.345  +01
 2.730  -01 1.386  +01 2.5    -01
 2.733  -01 1.474  +01
 2.735  -01 1.500  +01
 2.738  -01 1.405  +01
 2.740  -01 1.388  +01
 2.743  -01 1.312  +01
 2.745  -01 1.050  +01
 2.745  -01 1.076  +01
 2.750  -01 9.64   +00
 2.755  -01 1.050  +01
 2.758  -01 1.186  +01
 2.760  -01 1.200  +01
 2.760  -01 1.250  +01
 2.763  -01 1.230  +01
 2.765  -01 1.176  +01
 2.768  -01 1.271  +01
 2.770  -01 1.040  +01
 2.770  -01 1.056  +01
 2.773  -01 9.88   +00
 2.775  -01 9.70   +00
 2.775  -01 9.76   +00
 2.778  -01 9.88   +00
 2.780  -01 1.019  +01
 2.780  -01 1.027  +01
 2.783  -01 1.066  +01
 2.785  -01 1.087  +01
 2.785  -01 1.090  +01
 2.788  -01 1.065  +01
 2.790  -01 1.032  +01
 2.790  -01 1.018  +01
 2.793  -01 9.71   +00 2.0    -01
 2.795  -01 9.06   +00 2.0    -01
 2.795  -01 9.12   +00
 2.800  -01 8.86   +00
 2.805  -01 9.00   +00
 2.810  -01 9.47   +00
 2.815  -01 9.87   +00
 2.820  -01 1.044  +01
 2.823  -01 1.118  +01
 2.825  -01 1.075  +01
 2.825  -01 1.082  +01
 2.828  -01 1.020  +01
 2.830  -01 1.001  +01
 2.830  -01 9.94   +00
 2.833  -01 9.53   +00
 2.835  -01 9.33   +00
 2.840  -01 9.16   +00
 2.845  -01 8.98   +00
 2.850  -01 9.62   +00
 2.855  -01 1.048  +01
 2.860  -01 1.012  +01 2.0    -01
 2.865  -01 9.25   +00
 2.870  -01 8.67   +00
 2.875  -01 8.58   +00
 2.880  -01 8.66   +00
 2.885  -01 8.76   +00
 2.890  -01 9.16   +00
 2.890  -01 9.00   +00
 2.895  -01 9.86   +00
 2.900  -01 9.66   +00
 2.905  -01 9.47   +00
 2.910  -01 8.70   +00 3.0    -01
 2.915  -01 8.50   +00
 2.920  -01 8.25   +00
 2.925  -01 8.24   +00
 2.930  -01 8.02   +00
 2.935  -01 7.98   +00
 2.940  -01 7.87   +00
 2.945  -01 8.03   +00
 2.950  -01 8.50   +00
 2.955  -01 8.87   +00
 2.960  -01 9.00   +00
 2.965  -01 8.54   +00 2.5    -01
 2.970  -01 8.37   +00
 2.975  -01 7.78   +00
 2.980  -01 7.75   +00
 2.985  -01 7.66   +00
 2.990  -01 7.39   +00
 2.995  -01 7.27   +00
 3.000  -01 7.20   +00
 3.005  -01 7.30   +00
ENDDATA            831
ENDSUBENT          842
SUBENT        11122007   20050427   20050707                  1333
BIB                  2          2
REACTION   (9-F-19(N,TOT),,SIG)
METHOD     Self-indication
ENDBIB               2
COMMON               1          3
EN-RSL
KEV
 0.8
ENDCOMMON            3
DATA                 3         13
EN         DATA       DATA-ERR
MEV        B          B
 2.625  -02 5.50   +00
 2.650  -02 7.12   +00
 2.665  -02 8.43   +00
 2.675  -02 1.110  +01
 2.685  -02 1.620  +01
 2.700  -02 2.430  +01
 2.710  -02 4.100  +01
 2.720  -02 6.300  +01
 2.730  -02 8.300  +01
 2.740  -02 8.950  +01
 2.750  -02 7.700  +01 5.00   +00
 2.750  -02 7.450  +01
 2.760  -02 4.200  +01
ENDDATA             15
ENDSUBENT           26
ENDENTRY             7
