ENTRY            11194     800814
SUBENT        11194001     800814
BIB                  6          7
INSTITUTE  (1USARIC)
REFERENCE  (J,NP,23,122,61)
AUTHOR     (R.BASS,T.W.BONNER,H.P.HAENNI)
TITLE      CROSS SECTION FOR THE BE9(N,ALPHA)HE6 REACTION.
STATUS     (SCSRS)
HISTORY    (760628T) TRANSLATED FROM SCISRS
           (800814A) CONVERTED TO REACTION FORMALISM
ENDBIB               7
NOCOMMON             0          0
ENDSUBENT           10
SUBENT        11194002     800814
BIB                  3          3
REACTION   (4-BE-9(N,A)2-HE-6,,SIG)
DETECTOR   (SCIN)     PLASTIC SCINTILLATOR
COMMENT    COUNTED HE-6 BETAS.
ENDBIB               3
NOCOMMON             0          0
DATA                 4          5
EN         EN-RSL     DATA       DATA-ERR
MEV        MEV        B          B
 4.06   +00 8.     -02 9.3    -02 1.5    -02
 4.58   +00 2.0    -01 7.4    -02 1.0    -02
 4.58   +00 2.0    -01 7.2    -02 1.2    -02
 4.79   +00 2.0    -01 6.6    -02 1.2    -02
 5.82   +00 1.5    -01 5.3    -02 1.0    -02
ENDDATA              7
ENDSUBENT           15
SUBENT        11194003     800814
BIB                  4          4
REACTION   (4-BE-9(N,A)2-HE-6,,SIG)
DETECTOR   (SCIN)     SCINTILLATING CRYSTAL
MONITOR    (4-BE-9(N,A)2-HE-6,,SIG) TO ABSOLUTE MEASUREMENTS.
COMMENT    COUNTED HE-6 BETAS.
ENDBIB               4
COMMON               1          3
EN-RSL
MEV
 0.02
ENDCOMMON            3
DATA                 3         56
EN         DATA       DATA-ERR
MEV        B          PER-CENT
 3.91   +00 1.00   -01   15.
 4.00   +00 9.2    -02   16.
 4.03   +00 9.3    -02   16.
 4.15   +00 8.7    -02   17.
 4.23   +00 8.2    -02   18.
 4.30   +00 8.0    -02   19.
 4.45   +00 8.1    -02   19.
 4.50   +00 7.7    -02   19.
 4.67   +00 7.0    -02   14.
 4.71   +00 7.0    -02   14.
 4.85   +00 7.1    -02   14.
 4.89   +00 7.0    -02   14.
 4.99   +00 6.9    -02   14.
 5.00   +00 6.6    -02   15.
 5.11   +00 6.5    -02   15.
 5.15   +00 6.4    -02   16.
 5.17   +00 6.2    -02   16.
 5.20   +00 5.9    -02   17.
 5.25   +00 6.3    -02   16.
 5.29   +00 5.7    -02   18.
 5.32   +00 5.8    -02   17.
 5.37   +00 5.9    -02   17.
 5.45   +00 5.5    -02   18.
 5.49   +00 5.3    -02   19.
 5.50   +00 5.5    -02   18.
 5.55   +00 5.5    -02   18.
 5.59   +00 5.1    -02   20.
 5.65   +00 5.2    -02   19.
 5.72   +00 5.4    -02   19.
 5.75   +00 5.2    -02   19.
 5.79   +00 5.3    -02   19.
 5.84   +00 4.8    -02   21.
 5.89   +00 5.0    -02   20.
 5.90   +00 4.9    -02   20.
 5.92   +00 4.6    -02   22.
 6.02   +00 4.4    -02   23.
 6.15   +00 4.3    -02   23.
 6.25   +00 4.3    -02   23.
 6.39   +00 4.2    -02   24.
 6.45   +00 3.9    -02   26.
 6.51   +00 4.1    -02   24.
 6.60   +00 3.4    -02   29.
 6.75   +00 3.7    -02   27.
 6.83   +00 3.7    -02   27.
 6.89   +00 3.7    -02   27.
 7.05   +00 3.5    -02   29.
 7.20   +00 3.6    -02   28.
 7.25   +00 3.6    -02   28.
 7.42   +00 3.4    -02   29.
 7.48   +00 3.3    -02   30.
 7.65   +00 3.5    -02   29.
 7.71   +00 3.2    -02   31.
 7.89   +00 3.2    -02   31.
 8.10   +00 3.4    -02   29.
 8.30   +00 3.3    -02   30.
 8.58   +00 3.2    -02   31.
ENDDATA             58
ENDSUBENT           71
ENDENTRY             3
