ENTRY            E1915   20061121   20061122   20061121       E039
SUBENT        E1915001   20061121   20061122   20061121       E039
BIB                 12         41
TITLE      Coulomb and nuclear breakup of a halo nucleus 11Be
AUTHOR     (N.Fukuda, T.Nakamura, N.Aoi, N.Imai, M.Ishihara,
           T.Kobayashi, H.Iwasaki, T.Kubo, A.Mengoni, M.Notani,
           H.Otsu, H.Sakurai, S.Shimoura, T.Teranishi,
           Y.X.Watanabe, K.Yoneda)
INSTITUTE  (2JPNIPC)
           (2JPNTIT) Department of Physics
           (2JPNTOH) Department of Physics
           (2JPNTOK) Department of Physics
           (2ITYBOL) Applied Physics Division
           (2JPNTOK) Center for Nuclear Study (CNS)
REFERENCE  (J,PR/C,70,(5),054606,200411) Main reference
           Title and authors are coded under TITLE and AUTHOR.
           (J,EPJ/AS,25,(1),325,200509)
           T.Nakamura+, Proc. of the 4th International Conference
           on Exotic Nuclei and Atomic Masses (ENAM'04)
PART-DET   (N,4-BE-10)
SAMPLE     - Target is natural.
           - Chemical-form of target is element.
           - Physical-form of target is solid.
METHOD     (COINC) Detect neutron and 10Be in coincidence.
           (EDE)
           (TOF) To deduce momentum vector of 10Be and neutron
FACILITY   (CYCLO,2JPNIPC) Secondary radioactive 11Be beam is
                           produced by fragmentation of 18O
                           primary beam (100 MeV/A) in Be target.
                           at RIKEN Accelerator Research Facility
           (PRJFS,2JPNIPC) RIPS fragment separator
ANALYSIS   Invariant mass method to extract relative energy
           between 10Be and neutron
DETECTOR   (MAGSP,MWDC,SCIN) To detect 10Be
           (SCIN) Two layers of neutron hodoscope array which
                  consists of 30 plastic scintillator rods and
                  thin layer of plastic scintillator to reject
                  charged particle background.
COMMENT    In some data tables, excitation energy of 11Be is
           measured from 10Be-n threshold. Authors mention that
           the one-neutron separation energy is precisely known
           to be 504+-4 keV.
HISTORY    (20050421C) Sr + On
           (20061004A) On. Reference (ENAM'04) added
ENDBIB              41
NOCOMMON             0          0
ENDSUBENT           44
SUBENT        E1915002   20051025   20051109   20051025       E033
BIB                  7         21
REACTION   (82-PB-0(4-BE-11,INL)82-PB-0,,IPA/DE)
EN-SEC     ANG-CM is polar angle between beam and 11Be in center
           of mass system
           (E-EXC,4-BE-11) Relative energy between 10Be and
                           neutron (= Excitation energy of 11Be
                           measured from 10Be-n threshold)
SAMPLE     Target-thickness is 224 mg/cm**2.
DETECTOR   Detector resolution: Relatvie energy resolution (FWHM)
           was estimated to be 0.44 times square root of relative
           energy [MeV]
ERR-ANALYS (DATA-ERR) No information on source of uncertainties
ADD-RES    (COMP) 1. DWBA (Distorted wave Born approximation)
                  (ECIS code [ J. Raynal, coupled channel code
                  ECIS97, also notes on ECIS94 (unpublished) ])
                  2. Semi-classical model (Equivalent photon
                  method [ J.D. Jackson, Classical
                  Electrodynamics, 2nd ed. (Wiley, New York
                  1975), C. Bertulani and G. Baur, Phys. Rep.
                  163(1988)299 ])
STATUS     (CURVE) Data scanned from Fig.2(a), p054606-4 in
                   reference
ENDBIB              21
COMMON               3          3
EN         ANG-CM-MIN ANG-CM-MAX
MEV/A      ADEG       ADEG
 68.7       0.0        6.0
ENDCOMMON            3
DATA                 3         60
E-EXC      DATA       DATA-ERR
MEV        B/MEV      B/MEV
  5.576E-02  6.695E-01  3.474E-02
  1.504E-01  1.337E+00  2.963E-02
  2.516E-01  1.513E+00  2.842E-02
  3.451E-01  1.468E+00  2.459E-02
  4.562E-01  1.386E+00  3.158E-02
  5.538E-01  1.244E+00  3.704E-02
  6.496E-01  1.152E+00  3.704E-02
  7.550E-01  9.505E-01  3.474E-02
  8.445E-01  9.037E-01  3.333E-02
  9.563E-01  7.857E-01  3.221E-02
  1.051E+00  7.315E-01  3.900E-02
  1.149E+00  6.519E-01  3.704E-02
  1.257E+00  6.411E-01  4.105E-02
  1.352E+00  5.368E-01  3.789E-02
  1.457E+00  4.200E-01  4.105E-02
  1.550E+00  3.979E-01  3.789E-02
  1.655E+00  3.632E-01  3.789E-02
  1.755E+00  2.621E-01  3.474E-02
  1.853E+00  2.968E-01  3.474E-02
  1.949E+00  1.963E-01  3.704E-02
  2.058E+00  1.926E-01  3.704E-02
  2.158E+00  1.295E-01  2.842E-02
  2.256E+00  1.296E-01  2.963E-02
  2.362E+00  1.642E-01  3.158E-02
  2.456E+00  7.579E-02  2.842E-02
  2.549E+00  6.316E-02  3.158E-02
  2.654E+00  2.848E-02  2.532E-02
  2.762E+00  1.185E-01  2.963E-02
  2.856E+00  1.298E-01  2.812E-02
  2.956E+00  7.863E-02  3.190E-02
  3.056E+00  6.058E-02  3.100E-02
  3.152E+00  1.148E-01  2.963E-02
  3.255E+00  4.444E-02  2.963E-02
  3.357E+00  1.074E-01  2.963E-02
  3.459E+00  6.947E-02  2.842E-02
  3.552E+00  6.316E-02  2.842E-02
  3.657E+00  8.526E-02  2.526E-02
  3.754E+00  7.037E-02  2.963E-02
  3.856E+00  4.105E-02  2.526E-02
  3.961E+00  2.842E-02  2.211E-02
  4.060E+00  7.579E-02  2.791E-02
  4.153E+00  3.158E-02  2.842E-02
  4.258E+00  2.526E-02  2.211E-02
  4.451E+00  1.111E-02  2.593E-02
  4.556E+00  3.158E-02  2.768E-02
  4.663E+00  2.447E-02  2.606E-02
  4.766E+00 -3.158E-03  2.908E-02
  4.862E+00  5.926E-02  2.593E-02
  4.964E+00  2.593E-02  2.593E-02
  8.880E+00  3.793E+01  9.756E+00
  1.080E+01  3.360E+01  8.078E+00
  1.272E+01  1.084E+02  2.427E+01
  1.531E+01  1.518E+02  2.904E+01
  1.782E+01  7.337E+01  2.012E+01
  2.041E+01  6.327E+01  1.210E+01
  2.417E+01  4.168E+01  1.590E+01
  2.801E+01  4.518E+01  9.373E+00
  3.177E+01  2.637E+01  5.044E+00
  3.678E+01  7.046E+00  2.429E+00
  4.177E+01  1.478E+01  4.053E+00
ENDDATA             62
ENDSUBENT           92
SUBENT        E1915003   20051025   20051109   20051025       E033
BIB                  7         21
REACTION   (82-PB-0(4-BE-11,INL)82-PB-0,,IPA/DE)
EN-SEC     ANG-CM is polar angle between beam and 11Be in center
           of mass system
           (E-EXC,4-BE-11) Relative energy between 10Be and
                           neutron (= Excitation energy of 11Be
                           measured from 10Be-n threshold)
SAMPLE     Target-thickness is 224 mg/cm**2.
DETECTOR   Detector resolution: Relatvie energy resolution (FWHM)
           was estimated to be 0.44 times square root of relative
           energy [MeV]
ERR-ANALYS (DATA-ERR) No information on source of uncertainties
ADD-RES    (COMP) 1. DWBA (Distorted wave Born approximation)
                  (ECIS code [ J. Raynal, coupled channel code
                  ECIS97, also notes on ECIS94 (unpublished) ])
                  2. Semi-classical model (Equivalent photon
                  method [ J.D. Jackson, Classical
                  Electrodynamics, 2nd ed. (Wiley, New York
                  1975), C. Bertulani and G. Baur, Phys. Rep.
                  163(1988)299 ])
STATUS     (CURVE) Data scanned from Fig.2(a), p054606-4 in
                   reference
ENDBIB              21
COMMON               3          3
EN         ANG-CM-MIN ANG-CM-MAX
MEV/A      ADEG       ADEG
 68.7       0.0        1.3
ENDCOMMON            3
DATA                 3         36
E-EXC      DATA       DATA-ERR
MEV        B/MEV      B/MEV
  5.519E-02  3.436E-01  2.677E-02
  1.583E-01  7.537E-01  2.778E-02
  2.540E-01  8.054E-01  3.164E-02
  3.450E-01  7.306E-01  2.866E-02
  4.504E-01  6.767E-01  2.700E-02
  5.504E-01  5.500E-01  2.778E-02
  6.501E-01  4.898E-01  2.872E-02
  7.520E-01  3.768E-01  3.061E-02
  8.475E-01  3.362E-01  3.047E-02
  9.493E-01  2.616E-01  3.099E-02
  1.054E+00  2.481E-01  2.963E-02
  1.148E+00  1.917E-01  2.682E-02
  1.247E+00  1.663E-01  2.000E-02
  1.354E+00  1.778E-01  3.333E-02
  1.456E+00  1.182E-01  2.995E-02
  1.551E+00  1.034E-01  3.364E-02
  1.654E+00  1.034E-01  2.993E-02
  1.750E+00  6.129E-02  2.760E-02
  1.851E+00  7.389E-02  2.981E-02
  1.949E+00  4.840E-02  2.567E-02
  2.054E+00  2.613E-02  2.943E-02
  2.254E+00  3.695E-03  2.964E-02
  2.352E+00  1.481E-02  2.963E-02
  2.445E+00  1.108E-02  2.966E-02
  2.753E+00  1.478E-02  2.966E-02
  2.848E+00  2.956E-02  2.970E-02
  2.954E+00  0.000E+00  3.333E-02
  3.149E+00  3.695E-03  3.334E-02
  3.354E+00  2.217E-02  2.968E-02
  3.448E+00  1.188E-02  2.886E-02
  3.552E+00  2.217E-02  2.598E-02
  3.651E+00  4.815E-02  2.222E-02
  3.750E+00  3.695E-03  2.223E-02
  4.051E+00  1.847E-02  2.597E-02
  4.857E+00  2.217E-02  2.227E-02
  4.959E+00  1.478E-02  2.596E-02
ENDDATA             38
ENDSUBENT           68
SUBENT        E1915004   20051025   20051109   20051025       E033
BIB                  6         13
REACTION   (6-C-12(4-BE-11,INL)6-C-12,,IPA/DE)
EN-SEC     ANG-CM is polar angle between beam and 11Be in center
           of mass system
           (E-EXC,4-BE-11) Relative energy between 10Be and
                           neutron (= Excitation energy of 11Be
                           measured from 10Be-n threshold)
SAMPLE     Target-thickness is 376 mg/cm**2.
DETECTOR   Detector resolution: Relatvie energy resolution (FWHM)
           was estimated to be 0.45 times square root of relative
           energy [MeV]
ERR-ANALYS (DATA-ERR) No information on source of uncertainties
STATUS     (CURVE) Data scanned from Fig.2(b), p054606-4 in
                   reference
ENDBIB              13
COMMON               3          3
EN         ANG-CM-MIN ANG-CM-MAX
MEV/A      ADEG       ADEG
 67.0       0.0        12.0
ENDCOMMON            3
DATA                 3         50
E-EXC      DATA       DATA-ERR
MEV        B/MEV      B/MEV
  4.713E-02  9.831E-03  8.798E-04
  1.558E-01  1.776E-02  8.798E-04
  2.576E-01  2.495E-02  1.027E-03
  3.532E-01  2.437E-02  1.027E-03
  4.553E-01  2.658E-02  1.027E-03
  5.510E-01  2.394E-02  1.173E-03
  6.601E-01  2.468E-02  1.027E-03
  7.555E-01  2.586E-02  1.026E-03
  8.578E-01  2.616E-02  1.026E-03
  9.601E-01  2.675E-02  1.320E-03
  1.048E+00  3.189E-02  1.320E-03
  1.151E+00  3.395E-02  1.467E-03
  1.253E+00  3.571E-02  1.467E-03
  1.362E+00  3.572E-02  1.613E-03
  1.458E+00  3.367E-02  1.613E-03
  1.553E+00  3.074E-02  1.613E-03
  1.649E+00  2.664E-02  1.467E-03
  1.752E+00  2.136E-02  1.614E-03
  1.854E+00  2.020E-02  1.467E-03
  1.950E+00  1.785E-02  1.467E-03
  2.052E+00  2.006E-02  1.467E-03
  2.148E+00  1.874E-02  1.614E-03
  2.257E+00  1.816E-02  1.467E-03
  2.352E+00  1.743E-02  1.320E-03
  2.455E+00  1.803E-02  1.174E-03
  2.557E+00  1.480E-02  1.467E-03
  2.652E+00  1.833E-02  1.320E-03
  2.755E+00  1.760E-02  1.467E-03
  2.850E+00  1.849E-02  1.467E-03
  2.952E+00  2.025E-02  1.760E-03
  3.055E+00  1.850E-02  1.467E-03
  3.150E+00  1.777E-02  1.467E-03
  3.246E+00  1.953E-02  1.907E-03
  3.355E+00  1.558E-02  1.760E-03
  3.451E+00  1.456E-02  1.320E-03
  3.546E+00  1.251E-02  1.320E-03
  3.655E+00  1.354E-02  1.467E-03
  3.751E+00  1.208E-02  1.320E-03
  3.853E+00  1.179E-02  1.173E-03
  3.956E+00  1.106E-02  1.173E-03
  4.058E+00  1.048E-02  1.467E-03
  4.147E+00  1.034E-02  1.467E-03
  4.249E+00  7.998E-03  1.320E-03
  4.351E+00  8.444E-03  1.320E-03
  4.454E+00  8.596E-03  1.320E-03
  4.549E+00  9.335E-03  1.467E-03
  4.652E+00  6.406E-03  1.174E-03
  4.754E+00  8.465E-03  1.614E-03
  4.856E+00  7.297E-03  1.027E-03
  4.959E+00  7.596E-03  1.173E-03
ENDDATA             52
ENDSUBENT           74
SUBENT        E1915005   20051025   20051109   20051025       E033
BIB                  7         16
REACTION   (6-C-12(4-BE-11,INL)6-C-12,,IPA/DE)
EN-SEC     ANG-CM is polar angle between beam and 11Be in center
           of mass system
           (E-EXC,4-BE-11) Relative energy between 10Be and
                           neutron (= Excitation energy of 11Be
                           measured from 10Be-n threshold)
SAMPLE     Target-thickness is 376 mg/cm**2.
DETECTOR   Detector resolution: Relatvie energy resolution (FWHM)
           was estimated to be 0.45 times square root of relative
           energy [MeV]
ERR-ANALYS (DATA-ERR) No information on source of uncertainties
ADD-RES    (COMP) DWBA (Distorted wave Born approximation) (ECIS
                  code [ J. Raynal, coupled channel code ECIS97,
                  also notes on ECIS94 (unpublished) ])
STATUS     (CURVE) Data scanned from Fig.2(b), p054606-4 in
                   reference
ENDBIB              16
COMMON               3          3
EN         ANG-CM-MIN ANG-CM-MAX
MEV/A      ADEG       ADEG
 67.0       0.0        0.5
ENDCOMMON            3
DATA                 3         50
E-EXC      DATA       DATA-ERR
MEV        B/MEV      B/MEV
  5.528E-02  4.730E-03  1.255E-03
  1.536E-01  1.300E-02  1.161E-03
  2.518E-01  1.578E-02  1.154E-03
  3.494E-01  1.620E-02  1.022E-03
  4.518E-01  1.533E-02  1.314E-03
  5.467E-01  1.238E-02  1.197E-03
  6.511E-01  1.187E-02  1.269E-03
  7.555E-01  9.377E-03  1.134E-03
  8.477E-01  1.253E-02  1.193E-03
  9.521E-01  6.766E-03  1.117E-03
  1.052E+00  9.051E-03  1.168E-03
  1.155E+00  8.488E-03  1.182E-03
  1.250E+00  5.985E-03  1.168E-03
  1.357E+00  6.270E-03  1.175E-03
  1.450E+00  4.308E-03  1.093E-03
  1.554E+00  6.810E-03  1.073E-03
  1.652E+00  3.666E-03  1.006E-03
  1.749E+00  5.255E-03  1.168E-03
  1.851E+00  1.898E-03  1.168E-03
  1.947E+00  3.066E-03  1.168E-03
  2.049E+00  3.066E-03  1.460E-03
  2.150E+00  2.390E-03  1.260E-03
  2.247E+00  2.920E-03  1.168E-03
  2.350E+00  2.628E-03  1.314E-03
  2.452E+00  3.504E-03  1.168E-03
  2.548E+00  8.759E-04  1.022E-03
  2.650E+00  3.066E-03  1.314E-03
  2.752E+00  1.022E-03  1.168E-03
  2.850E+00  2.099E-04  1.104E-03
  2.951E+00  1.606E-03  1.022E-03
  3.053E+00  2.044E-03  1.168E-03
  3.145E+00  8.881E-04  8.637E-04
  3.251E+00  1.606E-03  1.460E-03
  3.347E+00  1.460E-04  1.168E-03
  3.450E+00  1.898E-03  1.314E-03
  3.545E+00  1.460E-04  1.168E-03
  3.648E+00  5.839E-04  1.022E-03
  3.750E+00  7.299E-04  1.314E-03
  3.846E+00  1.314E-03  8.759E-04
  3.948E+00  1.314E-03  1.168E-03
  4.051E+00  4.380E-04  1.022E-03
  4.146E+00  7.299E-04  1.022E-03
  4.249E+00  1.168E-03  1.168E-03
  4.344E+00  5.839E-04  1.314E-03
  4.447E+00  4.380E-04  1.022E-03
  4.549E+00  1.168E-03  1.168E-03
  4.659E+00  1.168E-03  1.168E-03
  4.761E+00  0.000E+00  1.168E-03
  4.850E+00  1.460E-04  1.022E-03
  4.951E+00  7.585E-04  1.444E-03
ENDDATA             52
ENDSUBENT           77
SUBENT        E1915006   20051025   20051109   20051025       E033
BIB                  7         21
REACTION   (82-PB-0(4-BE-11,INL)82-PB-0,PAR,DA)
EN-SEC     ANG-CM is polar angle between beam and 11Be in center
           of mass system
           (E-EXC,4-BE-11) Relative energy between 10Be and
                           neutron (= Excitation energy of 11Be
                           measured from 10Be-n threshold)
SAMPLE     Target-thickness is 224 mg/cm**2.
DETECTOR   Detector resolution: Relatvie energy resolution (FWHM)
           was estimated to be 0.44 times square root of relative
           energy [MeV]
ERR-ANALYS (DATA-ERR) No information on source of uncertainties
ADD-RES    (COMP) 1. DWBA (Distorted wave Born approximation)
                  (ECIS code [ J. Raynal, coupled channel code
                  ECIS97, also notes on ECIS94 (unpublished) ])
                  2. Semi-classical model (Equivalent photon
                  method [ J.D. Jackson, Classical
                  Electrodynamics, 2nd ed. (Wiley, New York
                  1975), C. Bertulani and G. Baur, Phys. Rep.
                  163(1988)299 ])
STATUS     (CURVE) Data scanned from Fig.3(a), p054606-6 in
                   reference
ENDBIB              21
COMMON               3          3
EN         E-EXC-MIN  E-EXC-MAX
MEV/A      MEV        MEV
 68.7       0.0        5.0
ENDCOMMON            3
DATA                 3         18
ANG-CM     DATA-CM    DATA-ERR
ADEG       B/SR       B/SR
  1.540E-01  5.687E+02
  4.465E-01  5.364E+02
  7.550E-01  4.135E+02
  1.055E+00  3.598E+02
  1.364E+00  2.718E+02
  1.656E+00  2.095E+02
  1.957E+00  1.648E+02
  2.258E+00  1.171E+02
  2.566E+00  7.999E+01
  2.859E+00  5.462E+01  1.222E+01
  3.159E+00  3.582E+01
  3.460E+00  2.302E+01  5.149E+00
  3.753E+00  1.572E+01
  4.053E+00  8.770E+00
  4.354E+00  5.636E+00  1.402E+00
  4.647E+00  4.257E+00  1.278E+00
  4.947E+00  1.790E+00  8.909E-01
  5.556E+00  1.440E+00  6.734E-01
ENDDATA             20
ENDSUBENT           50
SUBENT        E1915007   20051025   20051109   20051025       E033
BIB                  7         21
REACTION   (82-PB-0(4-BE-11,INL)82-PB-0,PAR,DA)
EN-SEC     ANG-CM is polar angle between beam and 11Be in center
           of mass system
           (E-EXC,4-BE-11) Relative energy between 10Be and
                           neutron (= Excitation energy of 11Be
                           measured from 10Be-n threshold)
SAMPLE     Target-thickness is 224 mg/cm**2.
DETECTOR   Detector resolution: Relatvie energy resolution (FWHM)
           was estimated to be 0.44 times square root of relative
           energy [MeV]
ERR-ANALYS (DATA-ERR) No information on source of uncertainties
ADD-RES    (COMP) 1. DWBA (Distorted wave Born approximation)
                  (ECIS code [ J. Raynal, coupled channel code
                  ECIS97, also notes on ECIS94 (unpublished) ])
                  2. Semi-classical model (Equivalent photon
                  method [ J.D. Jackson, Classical
                  Electrodynamics, 2nd ed. (Wiley, New York
                  1975), C. Bertulani and G. Baur, Phys. Rep.
                  163(1988)299 ])
STATUS     (CURVE) Data scanned from Fig.3(b), p054606-6 in
                   reference
ENDBIB              21
COMMON               3          3
EN         E-EXC-MIN  E-EXC-MAX
MEV/A      MEV        MEV
 68.7       0.0        1.0
ENDCOMMON            3
DATA                 3         19
ANG-CM     DATA-CM    DATA-ERR
ADEG       B/SR       B/SR
  1.555E-01  5.652E+02
  4.582E-01  4.802E+02
  7.609E-01  3.537E+02
  1.071E+00  2.553E+02
  1.374E+00  1.769E+02
  1.661E+00  1.303E+02
  1.963E+00  9.217E+01
  2.266E+00  6.258E+01
  2.569E+00  4.080E+01
  2.855E+00  2.502E+01
  3.158E+00  1.664E+01
  3.460E+00  1.085E+01
  3.763E+00  5.768E+00
  4.057E+00  4.426E+00
  4.360E+00  2.353E+00  5.913E-01
  4.655E+00  2.040E+00  5.127E-01
  4.949E+00  9.031E-01  4.002E-01
  5.259E+00  2.827E-01  3.963E-01
  5.546E+00  3.328E-01  2.441E-01
ENDDATA             21
ENDSUBENT           51
SUBENT        E1915008   20051025   20051109   20051025       E033
BIB                  6         11
REACTION   (6-C-12(4-BE-11,INL)6-C-12,,DA/DE)
EN-SEC     ANG-CM is polar angle between beam and 11Be in center
           of mass system
           (E-EXC,4-BE-11)
SAMPLE     Target-thickness is 376 mg/cm**2.
DETECTOR   Detector resolution: Relatvie energy resolution (FWHM)
           was estimated to be 0.45 times square root of relative
           energy [MeV]
ERR-ANALYS (DATA-ERR) No information on source of uncertainties
STATUS     (CURVE) Data scanned from Fig.5 (inset), p054606-8 in
                   reference
ENDBIB              11
COMMON               2          3
EN         ANG-CM
MEV/A      ADEG
 67.0       6.0
ENDCOMMON            3
DATA                 3         24
E-EXC      DATA-CM    DATA-ERR
MEV        MB/SR/MEV  MB/SR/MEV
  6.106E-01  5.787E+01  9.313E+00
  8.197E-01  1.024E+02  1.131E+01
  1.013E+00  1.098E+02  1.330E+01
  1.221E+00  1.044E+02  1.264E+01
  1.414E+00  1.377E+02  1.397E+01
  1.617E+00  2.169E+02  1.729E+01
  1.817E+00  2.302E+02  2.129E+01
  2.017E+00  1.922E+02  1.996E+01
  2.217E+00  1.543E+02  1.729E+01
  2.409E+00  9.180E+01  1.596E+01
  2.617E+00  6.186E+01  1.863E+01
  2.817E+00  6.186E+01  1.596E+01
  3.011E+00  8.581E+01  1.663E+01
  3.219E+00  8.381E+01  1.663E+01
  3.412E+00  1.098E+02  1.863E+01
  3.613E+00  9.978E+01  2.129E+01
  3.806E+00  9.446E+01  1.530E+01
  4.014E+00  8.647E+01  1.929E+01
  4.206E+00  5.455E+01  1.796E+01
  4.415E+00  5.854E+01  1.796E+01
  4.615E+00  2.661E+01  1.064E+01
  5.016E+00  2.528E+01  1.197E+01
  5.208E+00  4.656E+00  1.463E+01
  5.409E+00  2.993E+01  1.197E+01
ENDDATA             26
ENDSUBENT           46
SUBENT        E1915009   20051025   20051109   20051025       E033
BIB                  8         15
REACTION   (6-C-12(4-BE-11,INL)6-C-12,PAR,DA)
EN-SEC     ANG-CM is polar angle between beam and 11Be in center
           of mass system
           (E-LVL,4-BE-11)
LEVEL-PROP (4-BE-11,E-LVL=1.78,SPIN=2.5,PARITY=+1.)
SAMPLE     Target-thickness is 376 mg/cm**2.
DETECTOR   Detector resolution: Relatvie energy resolution (FWHM)
           was estimated to be 0.45 times square root of relative
           energy [MeV]
ERR-ANALYS (DATA-ERR) No information on source of uncertainties
ADD-RES    (COMP) DWBA (Distorted wave Born approximation) (ECIS
                  code [ J. Raynal, coupled channel code ECIS97,
                  also notes on ECIS94 (unpublished) ])
STATUS     (CURVE) Data scanned from Fig.5, p054606-8 in
                   reference
ENDBIB              15
COMMON               2          3
EN         E-LVL
MEV/A      MEV
 67.0       1.78
ENDCOMMON            3
DATA                 3         11
ANG-CM     DATA-CM    DATA-ERR
ADEG       MB/SR      MB/SR
  1.064E+00  3.024E+02  8.160E+01
  1.885E+00  6.070E+02
  2.706E+00  4.876E+02  1.074E+02
  3.552E+00  2.631E+02
  4.374E+00  7.657E+01
  5.195E+00  7.657E+01
  6.016E+00  9.160E+01  1.797E+01
  6.813E+00  6.530E+01
  7.643E+00  2.937E+01
  8.878E+00  2.099E+01  4.129E+00
  1.096E+01  2.014E+01  7.337E+00
ENDDATA             13
ENDSUBENT           37
SUBENT        E1915010   20051025   20051109   20051025       E033
BIB                  8         15
REACTION   (6-C-12(4-BE-11,INL)6-C-12,PAR,DA)
EN-SEC     ANG-CM is polar angle between beam and 11Be in center
           of mass system
           (E-LVL,4-BE-11)
LEVEL-PROP (4-BE-11,E-LVL=3.41,SPIN=1.5,PARITY=+1.)
SAMPLE     Target-thickness is 376 mg/cm**2.
DETECTOR   Detector resolution: Relatvie energy resolution (FWHM)
           was estimated to be 0.45 times square root of relative
           energy [MeV]
ERR-ANALYS (DATA-ERR) No information on source of uncertainties
ADD-RES    (COMP) DWBA (Distorted wave Born approximation) (ECIS
                  code [ J. Raynal, coupled channel code ECIS97,
                  also notes on ECIS94 (unpublished) ])
STATUS     (CURVE) Data scanned from Fig.5, p054606-8 in
                   reference
ENDBIB              15
COMMON               2          3
EN         E-LVL
MEV/A      MEV
 67.0       3.41
ENDCOMMON            3
DATA                 3          9
ANG-CM     DATA-CM    DATA-ERR
ADEG       MB/SR      MB/SR
  1.484E+00  4.797E+00  4.675E+00
  2.726E+00  2.552E+01
  3.545E+00  1.543E+01  2.997E+00
  4.350E+00  5.242E+00  9.170E-01
  5.181E+00  2.775E+00  8.465E-01
  6.018E+00  3.899E+00  8.268E-01
  7.251E+00  2.393E+00  3.594E-01
  8.895E+00  1.267E+00  9.231E-01
  1.095E+01  1.946E+00  8.706E-01
ENDDATA             11
ENDSUBENT           35
SUBENT        E1915011   20051025   20051109   20051025       E033
BIB                  7         14
REACTION   (6-C-12(4-BE-11,INL)6-C-12,,DA/DE)
EN-SEC     ANG-CM is polar angle between beam and 11Be in center
           of mass system
           (E-EXC,4-BE-11)
SAMPLE     Target-thickness is 376 mg/cm**2.
DETECTOR   Detector resolution: Relatvie energy resolution (FWHM)
           was estimated to be 0.45 times square root of relative
           energy [MeV]
ERR-ANALYS (DATA-ERR) No information on source of uncertainties
ADD-RES    (COMP) DWBA (Distorted wave Born approximation) (ECIS
                  code [ J. Raynal, coupled channel code ECIS97,
                  also notes on ECIS94 (unpublished) ])
STATUS     (CURVE) Data scanned from Fig.6(a), p054606-9 in
                   reference
ENDBIB              14
COMMON               3          3
EN         E-EXC-MIN  E-EXC-MAX
MEV/A      MEV        MEV
 67.0       0.5        0.7
ENDCOMMON            3
DATA                 3         33
ANG-CM     DATA-CM    DATA-ERR
ADEG       MB/SR/MEV  MB/SR/MEV
  1.495E-01  1.161E+04
  3.990E-01  7.438E+03
  7.252E-01  3.888E+03
  1.012E+00  1.673E+03  2.378E+02
  1.338E+00  8.608E+02  1.223E+02
  1.643E+00  7.207E+02  1.024E+02
  1.948E+00  5.206E+02  8.281E+01
  2.253E+00  5.204E+02  7.395E+01
  2.559E+00  3.815E+02  5.421E+01
  2.845E+00  2.838E+02  4.514E+01
  3.151E+00  2.175E+02  3.835E+01
  3.476E+00  1.336E+02  2.826E+01
  3.781E+00  1.169E+02  2.473E+01
  4.086E+00  1.069E+02  2.262E+01
  4.390E+00  1.168E+02  2.059E+01
  4.695E+00  9.922E+01  1.750E+01
  5.000E+00  9.772E+01  1.894E+01
  5.268E+00  5.827E+01  1.662E+01
  5.591E+00  8.058E+01  1.562E+01
  5.915E+00  7.592E+01  1.471E+01
  6.202E+00  3.848E+01  1.322E+01
  6.527E+00  2.363E+01  1.055E+01
  6.792E+00  4.658E+01  1.069E+01
  7.136E+00  2.903E+01  9.969E+00
  7.421E+00  4.135E+01  8.748E+00
  7.746E+00  2.987E+01  8.520E+00
  8.033E+00  1.889E+01  8.033E+00
  8.356E+00  2.254E+01  8.192E+00
  8.643E+00  1.267E+01  7.951E+00
  8.948E+00  1.490E+01  6.021E+00
  9.252E+00  1.445E+01  6.763E+00
  9.556E+00  2.351E+01  1.203E+01
  9.863E+00  9.552E+00  5.995E+00
ENDDATA             35
ENDSUBENT           58
SUBENT        E1915012   20051025   20051109   20051025       E033
BIB                  7         14
REACTION   (6-C-12(4-BE-11,INL)6-C-12,,DA/DE)
EN-SEC     ANG-CM is polar angle between beam and 11Be in center
           of mass system
           (E-EXC,4-BE-11)
SAMPLE     Target-thickness is 376 mg/cm**2.
DETECTOR   Detector resolution: Relatvie energy resolution (FWHM)
           was estimated to be 0.45 times square root of relative
           energy [MeV]
ERR-ANALYS (DATA-ERR) No information on source of uncertainties
ADD-RES    (COMP) DWBA (Distorted wave Born approximation) (ECIS
                  code [ J. Raynal, coupled channel code ECIS97,
                  also notes on ECIS94 (unpublished) ])
STATUS     (CURVE) Data scanned from Fig.6(b), p054606-9 in
                   reference
ENDBIB              14
COMMON               3          3
EN         E-EXC-MIN  E-EXC-MAX
MEV/A      MEV        MEV
 67.0       1.7        1.9
ENDCOMMON            3
DATA                 3         33
ANG-CM     DATA-CM    DATA-ERR
ADEG       MB/SR/MEV  MB/SR/MEV
  1.426E-01  7.765E+03  1.428E+03
  4.635E-01  5.863E+03  9.812E+02
  7.665E-01  4.127E+03  6.233E+02
  1.052E+00  2.595E+03  4.772E+02
  1.373E+00  1.751E+03  3.514E+02
  1.676E+00  1.880E+03  2.537E+02
  1.979E+00  2.165E+03
  2.264E+00  1.589E+03
  2.585E+00  1.381E+03
  2.870E+00  1.235E+03  1.471E+02
  3.173E+00  1.029E+03
  3.512E+00  8.455E+02
  3.779E+00  5.704E+02
  4.100E+00  3.638E+02  4.911E+01
  4.385E+00  2.671E+02  4.470E+01
  4.688E+00  1.961E+02  3.936E+01
  4.973E+00  2.323E+02  3.888E+01
  5.312E+00  2.166E+02  3.625E+01
  5.615E+00  2.995E+02
  5.900E+00  2.199E+02  4.043E+01
  6.203E+00  2.679E+02
  6.488E+00  1.885E+02  3.468E+01
  6.809E+00  1.709E+02  2.861E+01
  7.112E+00  1.328E+02  2.890E+01
  7.415E+00  5.323E+01  2.138E+01
  7.718E+00  9.890E+01  2.497E+01
  8.004E+00  1.239E+02  2.698E+01
  8.307E+00  7.163E+01  2.328E+01
  8.610E+00  5.969E+01  2.280E+01
  8.930E+00  4.571E+01  1.746E+01
  9.234E+00  2.394E+01  1.309E+01
  9.537E+00  6.784E+01  2.461E+01
  9.840E+00  5.269E+01  2.543E+01
ENDDATA             35
ENDSUBENT           58
SUBENT        E1915013   20051025   20051109   20051025       E033
BIB                  6         15
REACTION   (82-PB-0(4-BE-11,INL)82-PB-0,PAR,IPA)
EN-SEC     ANG-CM is polar angle between beam and 11Be in center
           of mass system
           (E-EXC,4-BE-11) Relative energy between 10Be and
                           neutron (= Excitation energy of 11Be
                           measured from 10Be-n threshold)
SAMPLE     Target-thickness is 224 mg/cm**2.
DETECTOR   Detector resolution: Relatvie energy resolution (FWHM)
           was estimated to be 0.44 times square root of relative
           energy [MeV]
ERR-ANALYS (ERR-S) Statistical uncertainty
           (ERR-SYS) Systematic uncertainty mainly from that in
                     the neutron detection efficiency
STATUS     (TABLE) Data taken from Table I, p054606-5 in
                   reference
ENDBIB              15
COMMON               5          3
EN         ANG-CM-MIN ANG-CM-MAX E-EXC-MIN  E-EXC-MAX
MEV/A      ADEG       ADEG       MEV        MEV
 68.7       0.0        6.0        0.0        5.0
ENDCOMMON            3
DATA                 3          1
DATA       ERR-S      ERR-SYS
MB         MB         MB
 1790.0     20.0       110.0
ENDDATA              3
ENDSUBENT           27
SUBENT        E1915014   20051025   20051109   20051025       E033
BIB                  6         15
REACTION   (6-C-12(4-BE-11,INL)6-C-12,PAR,IPA)
EN-SEC     ANG-CM is polar angle between beam and 11Be in center
           of mass system
           (E-EXC,4-BE-11) Relative energy between 10Be and
                           neutron (= Excitation energy of 11Be
                           measured from 10Be-n threshold)
SAMPLE     Target-thickness is 376 mg/cm**2.
DETECTOR   Detector resolution: Relatvie energy resolution (FWHM)
           was estimated to be 0.45 times square root of relative
           energy [MeV]
ERR-ANALYS (ERR-S) Statistical uncertainty
           (ERR-SYS) Systematic uncertainty mainly from that in
                     the neutron detection efficiency
STATUS     (TABLE) Data taken from Table I, p054606-5 in
                   reference
ENDBIB              15
COMMON               5          3
EN         ANG-CM-MIN ANG-CM-MAX E-EXC-MIN  E-EXC-MAX
MEV/A      ADEG       ADEG       MEV        MEV
 67.0       0.0        12.0       0.0        5.0
ENDCOMMON            3
DATA                 4          1
DATA       ERR-S      +ERR-SYS   -ERR-SYS
MB         MB         MB         MB
 93.3       0.8        5.6        10.3
ENDDATA              3
ENDSUBENT           27
SUBENT        E1915015   20051025   20051109   20051025       E033
BIB                  7         14
REACTION   (6-C-12(4-BE-11,INL)6-C-12,PAR,IPA)
EN-SEC     ANG-CM is polar angle between beam and 11Be in center
           of mass system
           (E-LVL,6-C-12)
LEVEL-PROP ((1.)4-BE-11,E-LVL=1.78,SPIN=2.5,PARITY=+1.)
           ((2.)4-BE-11,E-LVL=3.41,SPIN=1.5,PARITY=+1.)
SAMPLE     Target-thickness is 376 mg/cm**2.
DETECTOR   Detector resolution: Relatvie energy resolution (FWHM)
           was estimated to be 0.45 times square root of relative
           energy [MeV]
ERR-ANALYS (ERR-T) Total uncertainty
           (ERR-1) Uncertainty arising from the ambiguity of the
                   choice of the continuum background function
STATUS     (TABLE) Data taken from text, p054606-8 in reference
ENDBIB              14
COMMON               4          3
EN         ANG-CM-MIN ANG-CM-MAX ERR-1
MEV/A      ADEG       ADEG       PER-CENT
 67.0       0.0        12.0       20.0
ENDCOMMON            3
DATA                 4          2
E-LVL      DATA       ERR-T      LVL-FLAG
MEV        MB         MB         NO-DIM
 1.78       10.7       2.1        1.0
 3.41       5.9        1.2        2.0
ENDDATA              4
ENDSUBENT           27
ENDENTRY            15
