ENTRY            E1938   20080904   20080908   20080904       E054
SUBENT        E1938001   20080904   20080908   20080904       E054
BIB                 11         37
TITLE      Study of proton resonances in 26Si and 27P by using
           the 25Al and 26Si radioactive ion beams
AUTHOR     (J.Y.Moon, C.S.Lee, J.H.Lee, C.C.Yun, J.C.Kim, M.Youn,
           S.Kubono, T.Teranishi, J.J.He, M.Notani, S.Nishimura,
           M.Nishimura, V.Guimaraes, R.F.Lichitenthaler, S.Kato)
INSTITUTE  (3KORCHA) Department of Physics
           (3KORNSU) Department of Physics
           (2JPNTOK) Center for Nuclear Study
           (2JPNIPC)
           (3BZLUSP) Instituto de Fisica
           (2JPNYMG) Department of Physics
REFERENCE  (J,NP/A,758,158,200507)
PART-DET   (P)
SAMPLE     - Chemical-form of target is CH2.
           - Target-thickness is 8.24 mg/cm**2.
METHOD     (EDE) To identify protons from other heavier charged
                 particles
FACILITY   (ISOCY,2JPNIPC) Secondary 25Al and 26Si beams produced
                           by the reactions of
                           3He(24Mg,n)26Si*(p)25Al and
                           3He(24Mg,n)26Si with a 24Mg beam of
                           7.434A MeV, and 3He gas target of 0.32
                           mg/cm**2.
           (PRJFS,2JPNTOK) CNS radioactive ion beam separator
                           (CRIB) at Center for Nuclear Study
DETECTOR   Detector resolution: Energy and angular resolutions of
           the 0 and 17 degree telescopes were about 36 keV
            (FWHM) and 2.72 degree, and 53 keV (FWHM) and 3.14
           degree, respectivley.
           (SI,SIBAR) To detect and identify recoiled protons at
                      theta(lab)= 0 and 17 deg by
                      position-sensitive silicon detector and
                      surface barrier silicon detector, also used
                      as DeltaE-E telescope.
ERR-ANALYS (ERR-S) Statistical uncertainty
HISTORY    (20051104C) Kc + On
           (20080903A) Yt. INSTITUTE: 3KORKOR -> 3KORCHA
ENDBIB              37
NOCOMMON             0          0
ENDSUBENT           40
SUBENT        E1938002   20080904   20080908   20080904       E054
BIB                  6         10
REACTION   (1-H-1(13-AL-25,EL)1-H-1,,DA,P)
EN-SEC     ANG-CM is polar angle between beam and proton in
           center of mass system
INC-SOURCE - Beam intensity is 9325 PPS. (9.325 kilo-count/sec)
           - Ion source: Purity is 4.72%.
INC-SPECT  EN: The secondary beam had energy of 3.4407 MeV/A on
           the target.
STATUS     (TABLE) Data (Fig.2, p160 in reference) received by
                   e-mail from J.Y.Moon (2005.11.03)
HISTORY    (20071231U) On. N1 of BIB corrected
ENDBIB              10
COMMON               1          3
ANG-CM
ADEG
 180.
ENDCOMMON            3
DATA                 3         82
EN-CM      DATA-CM    ERR-S
MEV        B/SR       B/SR
 0.517       6.410E-01  3.591E-02
 0.552       5.530E-01  3.340E-02
 0.587       4.770E-01  3.107E-02
 0.622       4.110E-01  2.884E-02
 0.657       4.050E-01  2.861E-02
 0.692       3.650E-01  2.710E-02
 0.727       3.750E-01  2.741E-02
 0.901       2.050E-01  2.061E-02
 0.936       2.250E-01  2.149E-02
 0.971       1.930E-01  2.013E-02
 1.006       1.590E-01  1.868E-02
 1.041       1.350E-01  1.764E-02
 1.076       1.340E-01  1.776E-02
 1.110       1.600E-01  1.916E-02
 1.145       1.490E-01  1.864E-02
 1.180       1.190E-01  1.714E-02
 1.215       1.270E-01  1.768E-02
 1.250       1.430E-01  1.855E-02
 1.285       1.410E-01  1.851E-02
 1.320       1.620E-01  1.956E-02
 1.355       1.380E-01  1.852E-02
 1.390       1.000E-01  1.671E-02
 1.424       1.150E-01  1.760E-02
 1.459       1.150E-01  1.766E-02
 1.494       7.980E-02  1.596E-02
 1.529       1.190E-01  1.803E-02
 1.564       8.090E-02  1.623E-02
 1.599       1.090E-01  1.774E-02
 1.634       1.160E-01  1.811E-02
 1.669       1.240E-01  1.853E-02
 1.703       8.660E-02  1.687E-02
 1.738       7.160E-02  1.619E-02
 1.773       6.170E-02  1.576E-02
 1.808       9.420E-02  1.742E-02
 1.843       7.960E-02  1.677E-02
 1.878       8.620E-02  1.711E-02
 1.913       5.150E-02  1.540E-02
 1.948       3.840E-02  1.465E-02
 1.983       1.160E-01  1.821E-02
 2.017       7.850E-02  1.633E-02
 2.052       6.980E-02  1.570E-02
 2.087       1.160E-01  1.769E-02
 2.122       1.620E-01  1.946E-02
 2.157       1.880E-01  2.040E-02
 2.192       1.370E-01  1.835E-02
 2.227       1.240E-01  1.787E-02
 2.262       1.250E-01  1.797E-02
 2.297       5.150E-02  1.471E-02
 2.331       6.280E-02  1.541E-02
 2.366       1.030E-01  1.736E-02
 2.401       5.420E-02  1.527E-02
 2.436       8.130E-02  1.662E-02
 2.471       7.940E-02  1.662E-02
 2.506       7.940E-02  1.665E-02
 2.541       5.420E-02  1.551E-02
 2.576       8.980E-02  1.695E-02
 2.610       7.210E-02  1.599E-02
 2.645       6.620E-02  1.549E-02
 2.680       4.430E-02  1.429E-02
 2.715       8.820E-02  1.641E-02
 2.750       1.040E-01  1.768E-02
 2.785       1.020E-01  1.896E-02
 2.820       9.630E-02  2.101E-02
 2.855       1.370E-01  2.510E-02
 2.890       1.200E-01  2.758E-02
 2.924       1.250E-01  2.998E-02
 2.959       1.500E-01  3.168E-02
 2.994       1.920E-01  3.259E-02
 3.029       1.130E-01  3.007E-02
 3.064       9.380E-02  2.808E-02
 3.099       9.720E-02  2.605E-02
 3.134       1.480E-01  2.486E-02
 3.169       5.220E-02  1.920E-02
 3.203       4.590E-02  1.600E-02
 3.238       3.410E-02  1.316E-02
 3.273       1.940E-02  1.174E-02
 3.308       1.220E-02  1.364E-02
 3.343       1.390E-02  8.336E-03
 3.378      -7.430E-07  3.733E-05
 3.413      -1.430E-17  1.635E-10
 3.448      -2.580E-33  2.188E-18
 3.483       0.000E+00  0.000E+00
ENDDATA             84
ENDSUBENT          103
SUBENT        E1938003   20080904   20080908   20080904       E054
BIB                  7         12
REACTION   (1-H-1(14-SI-26,EL)1-H-1,,DA,P)
EN-SEC     ANG-CM is polar angle between beam and proton in
           center of mass system
INC-SOURCE - Beam intensity is 1573 PPS. (1.573 kilo-count/sec)
           - Ion source: Purity is 0.70%.
INC-SPECT  EN: The secondary beam had energy of 3.9575 MeV/A on
           the target.
ADD-RES    (STRUC) Two levels of 27P at E(exc)=3.095 and 3.339
                   MeV found as elastic resonance peaks
STATUS     (TABLE) Data (Fig.3, p160 in reference) received by
                   e-mail from J.Y.Moon (2005.11.03)
HISTORY    (20071231U) On. N1 of BIB corrected
ENDBIB              12
COMMON               1          3
ANG-CM
ADEG
 180.
ENDCOMMON            3
DATA                 3         86
EN-CM      DATA-CM    ERR-S
MEV        B/SR       B/SR
 0.517       7.760E-01  9.624E-02
 0.553       8.040E-01  9.824E-02
 0.587       6.030E-01  8.522E-02
 0.623       5.200E-01  7.926E-02
 0.657       4.950E-01  7.728E-02
 0.692       5.290E-01  7.975E-02
 0.727       3.350E-01  6.335E-02
 0.868       2.460E-01  5.391E-02
 0.902       2.330E-01  5.242E-02
 0.938       1.380E-01  4.065E-02
 0.972       2.750E-01  5.713E-02
 1.008       2.370E-01  5.353E-02
 1.043       2.780E-01  5.835E-02
 1.077       1.940E-01  5.013E-02
 1.113       1.890E-01  5.040E-02
 1.148       1.270E-01  4.402E-02
 1.183       1.560E-01  4.836E-02
 1.218       2.190E-01  5.554E-02
 1.253       9.430E-02  4.187E-02
 1.288       1.250E-01  4.587E-02
 1.322       1.020E-01  4.300E-02
 1.358       1.230E-01  4.532E-02
 1.393       6.870E-02  3.815E-02
 1.428       1.110E-01  4.342E-02
 1.463       8.820E-02  4.060E-02
 1.498       3.420E-02  3.314E-02
 1.533       5.310E-02  3.641E-02
 1.567       9.190E-02  4.201E-02
 1.603       1.100E-01  4.456E-02
 1.638       6.600E-02  3.974E-02
 1.673       6.350E-02  3.989E-02
 1.708       3.110E-02  3.600E-02
 1.743       8.920E-02  4.362E-02
 1.778       6.740E-02  4.125E-02
 1.812       5.620E-02  3.998E-02
 1.848       5.510E-02  3.986E-02
 1.883       4.470E-02  3.847E-02
 1.918       8.310E-02  4.288E-02
 1.953      -3.940E-03  3.131E-02
 1.988       4.430E-02  3.771E-02
 2.023       3.490E-02  3.619E-02
 2.057       1.010E-01  4.378E-02
 2.092       5.350E-02  3.813E-02
 2.127       8.980E-02  4.239E-02
 2.162       1.440E-01  4.808E-02
 2.197       1.790E-01  5.145E-02
 2.232       1.300E-01  4.707E-02
 2.267       1.000E-01  4.428E-02
 2.303       1.800E-01  5.200E-02
 2.337       8.720E-02  4.333E-02
 2.372       1.030E-01  4.516E-02
 2.408       1.630E-01  5.097E-02
 2.442       2.500E-01  5.815E-02
 2.477       2.290E-01  5.667E-02
 2.513       1.640E-01  5.156E-02
 2.547       1.970E-01  5.442E-02
 2.582       1.930E-01  5.439E-02
 2.617       2.940E-01  6.211E-02
 2.652       3.150E-01  6.386E-02
 2.688       1.810E-01  5.463E-02
 2.722       1.490E-01  5.295E-02
 2.757       8.930E-02  4.948E-02
 2.793       1.010E-01  5.292E-02
 2.827       2.300E-02  5.014E-02
 2.862       1.900E-01  6.633E-02
 2.898       2.400E-01  7.374E-02
 2.932       1.830E-01  7.569E-02
 2.967       2.120E-01  8.256E-02
 3.002       2.060E-01  8.647E-02
 3.037       5.250E-02  7.928E-02
 3.072       6.570E-02  7.464E-02
 3.107       1.210E-01  6.965E-02
 3.142       4.820E-02  5.711E-02
 3.178       9.160E-02  5.359E-02
 3.212       1.080E-01  4.986E-02
 3.247       8.530E-02  4.414E-02
 3.283       1.250E-01  4.557E-02
 3.317       1.100E-01  4.375E-02
 3.352       1.510E-01  4.657E-02
 3.388       2.170E-01  5.081E-02
 3.422       1.630E-01  4.608E-02
 3.457       4.420E-02  3.544E-02
 3.492       5.860E-02  3.891E-02
 3.527       8.440E-02  4.386E-02
 3.562       3.100E-02  4.060E-02
 3.597       1.280E-02  3.564E-02
ENDDATA             88
ENDSUBENT          109
ENDENTRY             3
