ENTRY            E1983   20070208   20070213   20070208       E042
SUBENT        E1983001   20070208   20070213   20070208       E042
BIB                 11         32
TITLE      'Bi-modal' isoscalar giant dipole strength in 58Ni
AUTHOR     (B.K.Nayak, U.Garg, M.Hedden, M.Koss, T.Li, Y.Liu,
           P.V.Madhusudhana Rao, S.Zhu, M.Itoh, H.Sakaguchi,
           H.Takeda, M.Uchida, Y.Yasuda, M.Yosoi, H.Fujimura,
           M.Fujiwara, K.Hara, T.Kawabata, H.Akimune,
           M.N.Harakeh)
INSTITUTE  (1USANOT) Physics Department
           (2JPNKTO) Department of Physics
           (2JPNOSA) Research Center for Nuclear Physics
           (2JPNTOK) Center for Nuclear Study
           (2JPNKON) Department of Pnysics
           (2NEDKVI)
REFERENCE  (J,PL/B,637,(1-2),43,200606)
PART-DET   (A)
SAMPLE     - Chemical-form of target is element.
           - Physical-form of target is solid.
           - Target-thickness is 5.8 mg/cm**2.
METHOD     Ray-tracing method
FACILITY   (CYCLO,2JPNOSA) Research Center for Nuclear Physics
DETECTOR   (MAGSP) To analyze momentum (Grand Raiden)
           (MWDC,SCIN) To detect scattered alphas
ADD-RES    E1983.007:28-NI-58(A,INL)28-NI-58
                     Strength function
                     See NRDF D1983 DATA,6 for detail.
           E1983.008:28-NI-58(A,INL)28-NI-58
                     Strength function
                     See NRDF D1983 DATA,7 for detail.
           E1983.009:28-NI-58(A,INL)28-NI-58
                     Strength function
                     See NRDF D1983 DATA,8 for detail.
HISTORY    (20060516C) Tt + On
           (20060518R) On. Data received by e-mail from U.Garg
ENDBIB              32
COMMON               1          3
EN
MEV
 386.
ENDCOMMON            3
ENDSUBENT           39
SUBENT        E1983002   20070208   20070213   20070208       E042
BIB                  5          9
REACTION   (28-NI-58(A,INL)28-NI-58,,DA/DE,A/RSD)
EN-SEC     ANG is polar angle between beam and alpha in
           laboratory system
           (E-EXC,28-NI-58)
ERR-ANALYS (DATA-ERR) No information on source of uncertainties
FLAG       (1.) Low energy part
           (2.) High energy part
STATUS     (TABLE) Data (Fig. 1, p44 in reference) received by
                   e-mail from U.Garg (2006.05.18)
ENDBIB               9
COMMON               1          3
ANG
ADEG
 0.69
ENDCOMMON            3
DATA                 4        515
E-EXC      DATA       DATA-ERR   FLAG
MEV        MB/SR/MEV  MB/SR/MEV  NO-DIM
 7.05       0.33603    0.11326    1.
 7.15       0.26135    0.09964    1.
 7.25       0.70939    0.16657    1.
 7.35       0.74673    0.1711     1.
 7.45       1.30677    0.23035    1.
 7.55       3.36026    0.39203    1.
 7.65       7.87795    0.67029    1.
 7.75       9.89411    0.78367    1.
 7.85       24.00721   1.52879    1.
 7.95       12.769     0.94041    1.
 8.05       14.18778   1.01634    1.
 8.15       10.08079   0.794      1.
 8.25       14.82249   1.05009    1.
 8.35       28.71158   1.76999    1.
 8.45       30.98909   1.88622    1.
 8.55       28.71158   1.76999    1.
 8.65       37.63494   2.22399    1.
 8.75       28.22621   1.74518    1.
 8.85       15.60655   1.09161    1.
 8.95       14.33712   1.02429    1.
 9.05       18.10808   1.22305    1.
 9.15       11.35022   0.86362    1.
 9.25       15.12118   1.06592    1.
 9.35       16.42795   1.13492    1.
 9.45       28.97293   1.78334    1.
 9.55       25.50066   1.60556    1.
 9.65       28.67424   1.76808    1.
 9.75       27.7035    1.71845    1.
 9.85       31.95983   1.93568    1.
 9.95       20.27358   1.33585    1.
 10.05      27.62883   1.71462    1.
 10.15      27.06878   1.68595    1.
 10.25      23.85787   1.5211     1.
 10.35      21.43101   1.39584    1.
 10.45      19.71354   1.30675    1.
 10.55      15.15852   1.0679     1.
 10.65      15.7559    1.09949    1.
 10.75      18.40677   1.23865    1.
 10.85      20.72162   1.35909    1.
 10.95      17.80939   1.20742    1.
 11.05      22.5511    1.45374    1.
 11.15      25.35132   1.59789    1.
 11.25      29.19695   1.79479    1.
 11.35      22.81245   1.46723    1.
 11.45      22.62577   1.45759    1.
 11.55      24.04455   1.53071    1.
 11.65      25.01529   1.58063    1.
 11.75      30.31704   1.85195    1.
 11.85      25.42599   1.60172    1.
 11.95      24.79127   1.56912    1.
 12.05      19.19083   1.27954    1.
 12.15      28.71158   1.76999    1.
 12.25      30.80241   1.8767     1.
 12.35      26.80743   1.67257    1.
 12.45      26.02337   1.63238    1.
 12.55      25.87402   1.62472    1.
 12.65      25.38865   1.59981    1.
 12.75      32.10918   1.94328    1.
 12.85      33.11726   1.99458    1.
 12.95      38.15765   2.25048    1.
 13.05      37.18691   2.20127    1.
 13.15      41.44324   2.41686    1.
 13.25      46.33429   2.66404    1.
 13.35      58.91661   3.29813    1.
 13.45      56.90045   3.19665    1.
 13.55      46.59564   2.67724    1.
 13.65      37.0749    2.19559    1.
 13.75      42.11529   2.45085    1.
 13.85      41.55525   2.42252    1.
 13.95      48.27578   2.76203    1.
 14.05      47.41704   2.7187     1.
 14.15      51.03866   2.90137    1.
 14.25      56.19106   3.16094    1.
 14.35      61.15678   3.41083    1.
 14.45      60.9701    3.40144    1.
 14.55      61.7915    3.44275    1.
 14.65      63.09827   3.50847    1.
 14.75      51.93473   2.94654    1.
 14.85      49.09717   2.80347    1.
 14.95      54.43626   3.07257    1.
 15.05      58.28189   3.26619    1.
 15.15      56.78844   3.19102    1.
 15.25      69.18407   3.81434    1.
 15.35      68.36268   3.77307    1.
 15.45      63.32228   3.51973    1.
 15.55      67.39194   3.72429    1.
 15.65      72.02163   3.95687    1.
 15.75      69.66945   3.83872    1.
 15.85      71.31224   3.92124    1.
 15.95      75.68059   4.14059    1.
 16.05      83.07317   4.5116     1.
 16.15      76.50198   4.18183    1.
 16.25      84.79063   4.59776    1.
 16.35      85.20133   4.61836    1.
 16.45      86.17207   4.66706    1.
 16.55      86.95613   4.70638    1.
 16.65      92.1832    4.96851    1.
 16.75      94.31137   5.07522    1.
 16.85      90.16705   4.86742    1.
 16.95      97.14893   5.21747    1.
 17.05      99.23976   5.32227    1.
 17.15      99.72513   5.3466     1.
 17.25      102.48801  5.48507    1.
 17.35      99.50111   5.33537    1.
 17.45      101.74129  5.44765    1.
 17.55      95.20744   5.12014    1.
 17.65      99.23976   5.32227    1.
 17.75      102.56268  5.48881    1.
 17.85      96.85024   5.20249    1.
 17.95      92.96727   5.00783    1.
 18.05      87.70286   4.74384    1.
 18.15      85.76138   4.64645    1.
 18.25      83.14783   4.51534    1.
 18.35      85.6867    4.64271    1.
 18.45      79.26486   4.3205     1.
 18.55      82.13976   4.46477    1.
 18.65      84.23058   4.56966    1.
 18.75      82.6998    4.49287    1.
 18.85      77.95809   4.25492    1.
 18.95      74.2618    4.06936    1.
 19.05      74.85918   4.09935    1.
 19.15      80.42229   4.37859    1.
 19.25      76.24063   4.16871    1.
 19.35      70.7522    3.89311    1.
 19.45      69.63211   3.83684    1.
 19.55      68.21333   3.76556    1.
 19.65      70.56552   3.88373    1.
 19.75      66.79456   3.69427    1.
 19.85      67.05591   3.70741    1.
 19.95      64.8904    3.59857    1.
 20.05      61.45547   3.42585    1.
 20.15      62.2022    3.46341    1.
 20.25      60.41006   3.37327    1.
 20.35      59.88735   3.34697    1.
 20.45      60.70875   3.38829    1.
 20.55      55.407     3.12146    1.
 20.65      58.54324   3.27934    1.
 20.75      55.59368   3.13086    1.
 20.85      58.91661   3.29813    1.
 20.95      53.83887   3.04248    1.
 21.05      58.3939    3.27182    1.
 21.15      52.94281   2.99734    1.
 21.25      56.04171   3.15342    1.
 21.35      50.51595   2.87502    1.
 21.45      53.68953   3.03496    1.
 21.55      52.15874   2.95783    1.
 21.65      53.80154   3.0406     1.
 21.75      47.79041   2.73754    1.
 21.85      51.188     2.9089     1.
 21.95      47.2677    2.71116    1.
 22.05      45.43822   2.61879    1.
 22.15      47.30503   2.71304    1.
 22.25      45.58756   2.62633    1.
 22.35      48.49979   2.77333    1.
 22.45      45.06486   2.59993    1.
 22.55      43.68341   2.53013    1.
 22.65      43.49673   2.5207     1.
 22.75      47.11835   2.70362    1.
 22.85      44.65416   2.57919    1.
 22.95      41.74193   2.43197    1.
 23.05      45.47556   2.62068    1.
 23.15      43.01136   2.49616    1.
 23.25      41.25656   2.40741    1.
 23.35      43.57141   2.52447    1.
 23.45      40.62184   2.37529    1.
 23.55      40.0618    2.34694    1.
 23.65      36.55219   2.16907    1.
 23.75      43.19804   2.5056     1.
 23.85      35.80547   2.13118    1.
 23.95      38.64302   2.27508    1.
 24.05      38.68036   2.27697    1.
 24.15      39.87512   2.33749    1.
 24.25      37.85896   2.23534    1.
 24.35      37.93363   2.23913    1.
 24.45      36.77621   2.18044    1.
 24.55      40.17381   2.35261    1.
 24.65      35.39477   2.11033    1.
 24.75      35.73079   2.12739    1.
 24.85      37.59761   2.22209    1.
 24.95      35.54411   2.11791    1.
 25.05      33.6773    2.02306    1.
 25.05      34.9281    2.0439     2.
 25.15      32.89324   1.98319    1.
 25.15      34.33104   2.05206    2.
 25.25      37.97097   2.24102    1.
 25.25      37.39098   2.10168    2.
 25.35      35.17075   2.09895    1.
 25.35      32.61449   2.03434    2.
 25.45      38.56835   2.2713     1.
 25.45      34.55494   2.03434    2.
 25.55      35.3201    2.10654    1.
 25.55      32.83839   2.01093    2.
 25.65      36.51485   2.16718    1.
 25.65      32.98765   2.02473    2.
 25.75      34.76005   2.07809    1.
 25.75      35.22663   2.07903    2.
 25.85      33.6773    2.02306    1.
 25.85      30.8233    1.99564    2.
 25.95      30.01835   1.83672    1.
 25.95      33.13692   2.00816    2.
 26.05      32.40787   1.95848    1.
 26.05      30.45014   1.96895    2.
 26.15      34.68538   2.0743     1.
 26.15      31.12183   1.95332    2.
 26.25      34.34935   2.05722    1.
 26.25      31.12183   1.94475    2.
 26.35      32.14651   1.94518    1.
 26.35      37.24171   2.06694    2.
 26.45      34.01332   2.04015    1.
 26.45      27.6141    1.9519     2.
 26.55      32.29586   1.95278    1.
 26.55      33.80861   1.96186    2.
 26.65      33.49062   2.01357    1.
 26.65      33.73398   2.0137     2.
 26.75      35.39477   2.11033    1.
 26.75      28.13653   1.89249    2.
 26.85      30.80241   1.8767     1.
 26.85      31.42037   1.97036    2.
 26.95      35.61879   2.1217     1.
 26.95      28.50969   1.92604    2.
 27.05      28.97293   1.78334    1.
 27.05      30.97257   1.95047    2.
 27.15      34.20001   2.04963    1.
 27.15      32.83839   1.99703    2.
 27.25      30.42905   1.85767    1.
 27.25      31.86816   1.96753    2.
 27.35      33.86398   2.03255    1.
 27.35      29.03212   1.98725    2.
 27.45      31.06376   1.89003    1.
 27.45      33.06229   1.98725    2.
 27.55      35.24542   2.10274    1.
 27.55      27.46483   1.96044    2.
 27.65      31.02643   1.88812    1.
 27.65      30.30087   1.8792     2.
 27.75      31.69848   1.92236    1.
 27.75      34.55494   2.03434    2.
 27.85      32.07184   1.94138    1.
 27.85      31.64426   1.96611    2.
 27.95      31.5118    1.91286    1.
 27.95      33.28618   1.97741    2.
 28.05      31.1011    1.89193    1.
 28.05      30.59941   1.94618    2.
 28.15      32.8559    1.98129    1.
 28.15      31.86816   1.95332    2.
 28.25      28.30088   1.749      1.
 28.25      31.7189    1.8866     2.
 28.35      32.51987   1.96419    1.
 28.35      32.98765   1.94332    2.
 28.45      35.73079   2.12739    1.
 28.45      29.18139   1.9013     2.
 28.55      32.10918   1.94328    1.
 28.55      29.77845   1.89544    2.
 28.65      31.84782   1.92997    1.
 28.65      32.98765   2.0439     2.
 28.75      33.52795   2.01547    1.
 28.75      28.73359   1.9246     2.
 28.85      31.47446   1.91095    1.
 28.85      28.58432   1.89249    2.
 28.95      31.77315   1.92617    1.
 28.95      29.33065   1.89249    2.
 29.05      30.65306   1.86909    1.
 29.05      32.31596   1.97882    2.
 29.15      29.94367   1.83291    1.
 29.15      29.77845   1.95617    2.
 29.25      30.87708   1.88051    1.
 29.25      34.10714   2.02886    2.
 29.35      31.58647   1.91666    1.
 29.35      29.85308   1.92025    2.
 29.45      26.80743   1.67257    1.
 29.45      29.55455   1.92315    2.
 29.55      33.34127   2.00598    1.
 29.55      31.12183   1.93326    2.
 29.65      31.43712   1.90905    1.
 29.65      31.2711    1.96753    2.
 29.75      29.79433   1.82528    1.
 29.75      34.25641   1.99843    2.
 29.85      28.30088   1.749      1.
 29.85      27.91263   1.9746     2.
 29.95      30.31704   1.85195    1.
 29.95      28.73359   1.9188     2.
 30.05      32.59455   1.96799    1.
 30.05      28.80822   1.92893    2.
 30.15      32.18385   1.94708    1.
 30.15      26.04681   1.90423    2.
 30.25      28.9356    1.78144    1.
 30.25      30.67404   1.9647     2.
 30.35      32.74389   1.97559    1.
 30.35      28.43506   1.9217     2.
 30.45      32.96791   1.98698    1.
 30.45      31.42037   1.97882    2.
 30.55      33.04258   1.99078    1.
 30.55      28.58432   1.90423    2.
 30.65      30.20503   1.84624    1.
 30.65      29.10675   1.93758    2.
 30.75      28.33821   1.75091    1.
 30.75      30.37551   1.99285    2.
 30.85      28.48756   1.75854    1.
 30.85      31.64426   1.96328    2.
 30.95      30.46638   1.85957    1.
 30.95      30.97257   1.95047    2.
 31.05      29.23429   1.79669    1.
 31.05      28.50969   1.9519     2.
 31.15      28.9356    1.78144    1.
 31.15      27.6141    1.92315    2.
 31.25      27.18079   1.69169    1.
 31.25      30.37551   1.95332    2.
 31.35      28.22621   1.74518    1.
 31.35      27.01704   1.88216    2.
 31.45      28.97293   1.78334    1.
 31.45      28.95749   2.00538    2.
 31.55      28.58432   1.9188     2.
 31.65      31.34573   2.02198    2.
 31.75      27.3902    1.97318    2.
 31.85      25.74828   1.93901    2.
 31.95      27.68873   1.92749    2.
 32.05      28.13653   1.93038    2.
 32.15      29.62918   2.004      2.
 32.25      28.36042   1.94618    2.
 32.35      31.2711    2.07769    2.
 32.45      26.19608   2.02886    2.
 32.55      24.03173   1.9347     2.
 32.65      25.59901   1.93901    2.
 32.75      23.65857   1.99564    2.
 32.85      25.30048   2.02336    2.
 32.95      28.80822   1.99982    2.
 33.05      24.10636   1.9188     2.
 33.15      29.25602   2.05748    2.
 33.25      22.31518   1.92749    2.
 33.35      21.64348   2.02748    2.
 33.45      29.10675   2.04117    2.
 33.55      26.79314   2.02611    2.
 33.65      26.41998   1.97177    2.
 33.75      27.01704   2.00538    2.
 33.85      27.1663    1.94618    2.
 33.95      27.46483   1.97177    2.
 34.05      25.22585   1.96611    2.
 34.15      29.33065   2.02611    2.
 34.25      25.59901   1.93614    2.
 34.35      27.98726   1.9217     2.
 34.45      25.30048   1.96753    2.
 34.55      24.18099   1.96611    2.
 34.65      23.5093    1.9246     2.
 34.75      26.41998   1.95475    2.
 34.85      27.01704   1.98023    2.
 34.95      24.62879   1.94045    2.
 35.05      22.16591   1.88955    2.
 35.15      23.80783   1.97882    2.
 35.25      26.86777   1.91153    2.
 35.35      25.15122   1.9159     2.
 35.45      27.53946   2.0316     2.
 35.55      27.6141    1.9347     2.
 35.65      22.09128   1.88216    2.
 35.75      25.07659   1.92025    2.
 35.85      24.18099   1.9519     2.
 35.95      23.0615    1.85984    2.
 36.05      24.47952   1.92604    2.
 36.15      25.37512   1.87029    2.
 36.25      19.4045    1.80667    2.
 36.35      24.47952   1.85534    2.
 36.45      23.9571    1.88364    2.
 36.55      20.22546   1.85684    2.
 36.65      22.46444   1.86283    2.
 36.75      28.06189   1.93758    2.
 36.85      22.09128   1.87029    2.
 36.95      19.4045    1.80358    2.
 37.05      22.31518   1.80204    2.
 37.15      24.70342   1.8866     2.
 37.25      24.33026   1.83724    2.
 37.35      21.64348   1.90569    2.
 37.45      21.86738   1.88068    2.
 37.55      19.8523    1.85534    2.
 37.65      24.18099   1.92604    2.
 37.75      20.89716   1.76928    2.
 37.85      24.70342   1.87475    2.
 37.95      24.92732   1.82812    2.
 38.05      21.34495   1.82507    2.
 38.15      24.62879   1.81896    2.
 38.25      21.49422   1.81896    2.
 38.35      21.56885   1.79894    2.
 38.45      21.12105   1.83268    2.
 38.55      22.98687   1.81282    2.
 38.65      21.12105   1.85384    2.
 38.75      20.97179   1.81129    2.
 38.85      22.91224   1.83875    2.
 38.95      21.27032   1.88364    2.
 39.05      22.68834   1.83724    2.
 39.15      21.71811   1.85984    2.
 39.25      23.36003   1.81129    2.
 39.35      20.44936   1.84631    2.
 39.45      22.01665   1.85984    2.
 39.55      18.95671   1.73752    2.
 39.65      20.37473   1.82964    2.
 39.75      20.67326   1.83875    2.
 39.85      20.67326   1.80821    2.
 39.95      18.80744   1.78495    2.
 40.05      22.53907   1.91444    2.
 40.15      21.56885   1.80204    2.
 40.25      20.67326   1.83875    2.
 40.35      18.65817   1.84933    2.
 40.45      22.8376    1.84933    2.
 40.55      17.16552   1.83116    2.
 40.65      18.65817   1.80667    2.
 40.75      20.00156   1.89397    2.
 40.85      21.27032   1.78027    2.
 40.95      20.30009   1.89102    2.
 41.05      19.6284    1.81743    2.
 41.15      22.53907   1.82812    2.
 41.25      21.19569   1.85834    2.
 41.35      22.16591   1.85083    2.
 41.45      23.5093    1.91299    2.
 41.55      20.30009   1.77557    2.
 41.65      20.15083   1.89397    2.
 41.75      18.35964   1.79118    2.
 41.85      22.8376    1.87624    2.
 41.95      18.13575   1.78651    2.
 42.05      20.82252   1.83875    2.
 42.15      18.35964   1.79118    2.
 42.25      20.67326   1.87178    2.
 42.35      18.28501   1.84782    2.
 42.45      17.38942   1.75823    2.
 42.55      19.55377   1.8969     2.
 42.65      17.46405   1.78183    2.
 42.75      21.27032   1.89837    2.
 42.85      19.1806    1.75823    2.
 42.95      21.79275   1.89102    2.
 43.05      20.52399   1.85984    2.
 43.15      20.22546   1.87772    2.
 43.25      20.97179   1.83572    2.
 43.35      19.77766   1.9246     2.
 43.45      17.61332   1.85834    2.
 43.55      17.68795   1.74551    2.
 43.65      18.50891   1.82507    2.
 43.75      17.31479   1.76928    2.
 43.85      17.16552   1.88512    2.
 43.95      18.50891   1.74392    2.
 44.05      20.67326   1.82354    2.
 44.15      20.00156   1.82812    2.
 44.25      20.44936   1.89397    2.
 44.35      21.94201   1.88512    2.
 44.45      15.9714    1.76613    2.
 44.55      20.30009   1.82202    2.
 44.65      16.26993   1.77557    2.
 44.75      19.10597   1.76613    2.
 44.85      17.61332   1.86432    2.
 44.95      17.16552   1.86133    2.
 45.05      20.15083   1.78495    2.
 45.15      20.15083   1.87327    2.
 45.25      19.1806    1.8266     2.
 45.35      19.55377   1.79429    2.
 45.45      17.98648   1.84178    2.
 45.55      15.00117   1.75823    2.
 45.65      20.07619   1.79274    2.
 45.75      15.5236    1.63512    2.
 45.85      17.38942   1.81743    2.
 45.95      19.4045    1.76298    2.
 46.05      18.95671   1.75029    2.
 46.15      18.13575   1.77714    2.
 46.25      19.03134   1.77714    2.
 46.35      17.16552   1.83116    2.
 46.45      16.64309   1.77086    2.
 46.55      17.31479   1.80358    2.
 46.65      20.97179   1.79584    2.
 46.75      16.26993   1.79739    2.
 46.85      19.25524   1.73431    2.
 46.95      17.91185   1.70842    2.
 47.05      16.49383   1.75506    2.
 47.15      17.31479   1.79429    2.
 47.25      17.61332   1.80975    2.
 47.35      14.70264   1.66382    2.
 47.45      20.07619   1.85984    2.
 47.55      15.82213   1.80358    2.
 47.65      15.9714    1.74711    2.
 47.75      14.85191   1.80512    2.
 47.85      18.28501   1.74232    2.
 47.95      17.98648   1.80204    2.
 48.05      16.94162   1.67716    2.
 48.15      13.58315   1.74392    2.
 48.25      14.25484   1.71979    2.
 48.35      16.49383   1.71005    2.
 48.45      15.00117   1.75823    2.
 48.55      16.49383   1.76771    2.
 48.65      15.9714    1.78183    2.
 48.75      15.22507   1.74392    2.
 48.85      18.73281   1.78651    2.
 48.95      17.76258   1.78807    2.
 49.05      17.01625   1.84631    2.
 49.15      14.92654   1.74392    2.
 49.25      13.58315   1.72465    2.
 49.35      17.61332   1.72787    2.
 49.45      13.13535   1.73431    2.
 49.55      18.88207   1.81743    2.
 49.65      19.03134   1.76455    2.
 49.75      14.92654   1.74392    2.
 49.85      15.82213   1.72465    2.
 49.95      20.37473   1.73912    2.
 50.05      15.15044   1.67716    2.
 50.15      15.67287   1.75029    2.
 50.25      16.34456   1.7487     2.
 50.35      15.89676   1.69369    2.
 50.45      16.86699   1.71493    2.
 50.55      14.47874   1.67882    2.
 50.65      16.49383   1.74551    2.
 50.75      16.49383   1.61283    2.
 50.85      13.73242   1.64531    2.
 50.95      11.12027   1.45677    2.
 51.05      8.65739    1.24884    2.
 51.15      3.20921    0.87991    2.
 51.25      1.04486    0.60632    2.
 51.35      0.67169    0.41554    2.
 51.45      0.14927    0.39492    2.
 51.55      0.29853    0.33377    2.
 51.65      0.07463    0.30772    2.
 51.75      0.2239     0.35793    2.
 51.85      0.59706    0.23601    2.
 51.95      0.2239     0.19746    2.
ENDDATA            517
ENDSUBENT          535
SUBENT        E1983003   20070208   20070213   20070208       E042
BIB                  6         10
REACTION   (28-NI-58(A,EL)28-NI-58,,DA,,RTH)
EN-SEC     ANG-CM is polar angle between beam and alpha in center
           of mass system
ERR-ANALYS (DATA-ERR) No information on source of uncertainties
ADD-RES    (COMP) Density-dependent single folding model using
                  the computer code PTOLEMY
FLAG       (1.) Data set 1
           (2.) Data set 2
STATUS     (TABLE) Data (Fig. 2(a), p45 in reference) received by
                   e-mail from U.Garg (2006.05.18)
ENDBIB              10
NOCOMMON             0          0
DATA                 4        118
ANG-CM     DATA-CM    DATA-ERR   FLAG
ADEG       NO-DIM     PER-CENT   NO-DIM
 2.6887     0.5857     3.002      1.
 2.6887     0.6135     3.002      2.
 3.1188     0.4640     3.007      1.
 3.1188     0.4860     3.007      2.
 3.5490     0.2253     3.018      1.
 3.5490     0.2360     3.018      2.
 3.9791      5.761E-02 3.108      1.
 3.9791      6.035E-02 3.108      2.
 4.4092     0.1043     3.134      1.
 4.4092     0.1093     3.134      2.
 4.8394     0.3548     3.058      1.
 4.8394     0.3716     3.058      2.
 5.2695     0.6685     3.043      1.
 5.2695     0.7002     3.043      2.
 5.6995     0.8570     3.046      1.
 5.6995     0.8977     3.046      2.
 6.0221     0.7982     3.010      1.
 6.0221     0.8361     3.010      2.
 6.1296     0.8518     3.062      1.
 6.1296     0.8923     3.062      2.
 6.4521     0.6521     3.017      1.
 6.4521     0.6830     3.017      2.
 6.8821     0.4016     3.037      1.
 6.8821     0.4207     3.037      2.
 7.3121     0.2039     3.091      1.
 7.3121     0.2136     3.091      2.
 7.6346     0.1344     3.113      1.
 7.6346     0.1407     3.113      2.
 7.7421     0.1579     3.145      1.
 7.7421     0.1654     3.145      2.
 8.0646     0.2382     3.081      1.
 8.0646     0.2496     3.081      2.
 8.4945     0.4337     3.055      1.
 8.4945     0.4544     3.055      2.
 8.9244     0.6204     3.047      1.
 8.9244     0.6499     3.047      2.
 9.3543     0.7051     3.050      1.
 9.3543     0.7386     3.050      2.
 9.7841     0.5914     3.021      1.
 9.7841     0.6195     3.021      2.
 10.2139    0.4791     3.032      1.
 10.2139    0.5018     3.032      2.
 10.6437    0.3337     3.056      1.
 10.6437    0.3495     3.056      2.
 11.0734    0.2364     3.090      1.
 11.0734    0.2477     3.090      2.
 11.5031    0.2107     3.117      1.
 11.5031    0.2208     3.117      2.
 11.9327    0.2436     3.110      1.
 11.9327    0.2552     3.110      2.
 12.3624    0.3128     3.099      1.
 12.3624    0.3276     3.099      2.
 12.7919    0.3501     3.101      1.
 12.7919    0.3667     3.101      2.
 13.2215    0.3441     3.117      1.
 13.2215    0.3605     3.117      2.
 13.6509    0.2957     3.154      1.
 13.6509    0.3097     3.154      2.
 14.0804    0.2017     3.077      1.
 14.0804    0.2112     3.077      2.
 14.5098    0.1559     3.110      1.
 14.5098    0.1633     3.110      2.
 14.9391    0.1247     3.155      1.
 14.9391    0.1306     3.155      2.
 15.3684    0.1089     3.195      1.
 15.3684    0.1141     3.195      2.
 15.7976    0.1097     3.217      1.
 15.7976    0.1149     3.217      2.
 16.2268    0.1112     3.079      1.
 16.2268    0.1165     3.079      2.
 16.6560    0.1152     3.084      1.
 16.6560    0.1207     3.084      2.
 17.0850    0.1060     3.101      1.
 17.0850    0.1110     3.101      2.
 17.5141     9.230E-02 3.128      1.
 17.5141     9.668E-02 3.128      2.
 17.9430     7.154E-02 3.179      1.
 17.9430     7.494E-02 3.179      2.
 18.3719     4.767E-02 3.152      1.
 18.3719     4.994E-02 3.152      2.
 18.8007     3.904E-02 3.202      1.
 18.8007     4.089E-02 3.202      2.
 19.2295     3.411E-02 3.250      1.
 19.2295     3.573E-02 3.250      2.
 19.6582     2.997E-02 3.309      1.
 19.6582     3.139E-02 3.309      2.
 20.0869     2.978E-02 3.336      1.
 20.0869     3.119E-02 3.336      2.
 20.5155     2.666E-02 3.445      1.
 20.5155     2.793E-02 3.445      2.
 20.9440     2.526E-02 3.504      1.
 20.9440     2.646E-02 3.504      2.
 21.3724     2.107E-02 3.641      1.
 21.3724     2.207E-02 3.641      2.
 21.8008     1.710E-02 3.832      1.
 21.8008     1.791E-02 3.832      2.
 22.2291     1.367E-02 4.083      1.
 22.2291     1.432E-02 4.083      2.
 22.6573     9.620E-03 4.478      1.
 22.6573     1.008E-02 4.478      2.
 23.0854     8.081E-03 4.813      1.
 23.0854     8.465E-03 4.813      2.
 23.5135     7.057E-03 5.141      1.
 23.5135     7.393E-03 5.141      2.
 23.9415     6.759E-03 5.344      1.
 23.9415     7.080E-03 5.344      2.
 24.3694     5.903E-03 5.747      1.
 24.3694     6.183E-03 5.747      2.
 24.7972     4.689E-03 6.368      1.
 24.7972     4.912E-03 6.368      2.
 25.2250     4.131E-03 6.879      1.
 25.2250     4.328E-03 6.879      2.
 25.6526     3.164E-03 7.905      1.
 25.6526     3.314E-03 7.905      2.
 26.0802     2.655E-03 8.775      1.
 26.0802     2.782E-03 8.775      2.
 26.5077     2.293E-03 9.643      1.
 26.5077     2.401E-03 9.643      2.
ENDDATA            120
ENDSUBENT          135
SUBENT        E1983004   20070208   20070213   20070208       E042
BIB                  6         10
REACTION   (28-NI-58(A,INL)28-NI-58,PAR,DA)
EN-SEC     ANG-CM is polar angle between beam and alpha in center
           of mass system
           (E-LVL,28-NI-58)
LEVEL-PROP (28-NI-58,E-LVL=1.454,SPIN=2.,PARITY=+1.)
ERR-ANALYS (DATA-ERR) No information on source of uncertainties
ADD-RES    (COMP) Density-dependent single folding model using
                  the computer code PTOLEMY
STATUS     (TABLE) Data (Fig. 2(b), p45 in reference) received by
                   e-mail from U.Garg (2006.05.18)
ENDBIB              10
COMMON               1          3
E-LVL
MEV
 1.454
ENDCOMMON            3
DATA                 3         32
ANG-CM     DATA-CM    DATA-ERR
ADEG       MB/SR      MB/SR
 2.15        1.089E+02  3.456E+00
 2.58        1.538E+02  5.184E+00
 3.01        2.238E+02  7.776E+00
 3.12        2.056E+02  6.912E+00
 3.44        2.687E+02  8.641E+00
 3.55        2.558E+02  8.641E+00
 3.87        2.549E+02  8.641E+00
 3.98        2.428E+02  7.777E+00
 4.41        1.944E+02  6.049E+00
 4.95        1.210E+02  4.321E+00
 5.38        4.719E+01  1.556E+00
 5.81        2.109E+01  7.780E-01
 6.35        2.231E+01  7.781E-01
 6.67        3.726E+01  1.383E+00
 6.78        3.752E+01  1.297E+00
 7.10        6.001E+01  2.162E+00
 7.53        7.143E+01  2.508E+00
 8.07        6.755E+01  2.422E+00
 8.39        5.104E+01  1.730E+00
 8.50        5.363E+01  1.903E+00
 8.82        3.564E+01  1.211E+00
 9.25        2.129E+01  7.788E-01
 9.79        1.177E+01  4.327E-01
 10.22       1.134E+01  4.328E-01
 10.65       1.489E+01  5.195E-01
 11.08       1.922E+01  6.927E-01
 11.61       1.923E+01  6.929E-01
 12.04       1.655E+01  6.064E-01
 12.47       1.334E+01  5.199E-01
 13.01       7.826E+00  2.773E-01
 13.44       5.435E+00  1.994E-01
 13.87       4.205E+00  1.561E-01
ENDDATA             34
ENDSUBENT           53
SUBENT        E1983005   20070208   20070213   20070208       E042
BIB                  4          7
REACTION   (28-NI-58(A,INL)28-NI-58,,DA/DE,A/RSD)
EN-SEC     ANG-CM is polar angle between beam and alpha in center
           of mass system
           (E-LVL,28-NI-58)
ERR-ANALYS (DATA-ERR) No information on source of uncertainties
STATUS     (TABLE) Data (Fig. 3, p45 in reference) received by
                   e-mail from U.Garg (2006.05.18)
ENDBIB               7
COMMON               1          3
E-LVL
MEV
 18.5
ENDCOMMON            3
DATA                 3         16
ANG-CM     DATA-CM    DATA-ERR
ADEG       MB/SR/MEV  MB/SR/MEV
 0.73       71.9447    3.9137
 1.58       40.2288    2.1988
 2.47       36.1037    2.4897
 2.69       35.5683    2.3269
 3.23       38.7362    2.4903
 3.77       37.8335    2.4425
 4.3        33.8717    2.1026
 4.84       27.1378    1.7549
 5.38       18.754     1.4007
 5.92       16.6464    1.2873
 6.46       15.8674    1.1514
 6.99       15.7274    1.1464
 7.53       15.085     0.8332
 8.07       11.2399    0.668
 8.61       8.86       0.5468
 9.14       7.0744     0.4551
ENDDATA             18
ENDSUBENT           34
SUBENT        E1983006   20070208   20070213   20070208       E042
BIB                  4          7
REACTION   (28-NI-58(A,INL)28-NI-58,,DA/DE,A/RSD)
EN-SEC     ANG-CM is polar angle between beam and alpha in center
           of mass system
           (E-LVL,28-NI-58)
ERR-ANALYS (DATA-ERR) No information on source of uncertainties
STATUS     (TABLE) Data (Fig. 3, p45 in reference) received by
                   e-mail from U.Garg (2006.05.18)
ENDBIB               7
COMMON               1          3
E-LVL
MEV
 29.5
ENDCOMMON            3
DATA                 3         16
ANG-CM     DATA-CM    DATA-ERR
ADEG       MB/SR/MEV  MB/SR/MEV
 0.73       26.4974    1.6204
 1.58       23.6913    1.3652
 2.47       23.5047    1.8156
 2.69       20.7367    1.5446
 3.23       20.1925    1.5146
 3.77       19.6659    1.4854
 4.3        19.4733    1.3547
 4.84       18.3764    1.2965
 5.38       15.1115    1.2023
 5.92       13.2802    1.0991
 6.46       9.868      0.908
 6.99       9.2676     0.88
 7.53       9.2466     0.5389
 8.07       7.8346     0.4945
 8.61       7.2595     0.4647
 9.14       6.0225     0.4005
ENDDATA             18
ENDSUBENT           34
NOSUBENT      E1983007   20070208   20070213   20070208       E042
NOSUBENT      E1983008   20070208   20070213   20070208       E042
NOSUBENT      E1983009   20070208   20070213   20070208       E042
ENDENTRY             9
