ENTRY            31178   20100304   20100610   20100603       3144
SUBENT        31178001   20100304   20100610   20100603       3144
BIB                  9         20
TITLE      Removal of higher orders in the thermal region from a
           neutron crystal spectrometer.
AUTHOR     (V.P.Duggal,C.L.Thaper)
REFERENCE  (J,RSI,33,49,1962)
INSTITUTE  (3INDTRM)
FACILITY   (REAC,3INDTRM) Apsara reactor
           (SPECC) Ge (111) Crystal spectrometer as monochromator
SAMPLE     Three Be crystals (irregular shapes) having useful
           dimensions of (6x2.3x4.4 cm), (6x3x0.6 cm), and
            (6.8x3x1.4 cm) and were kept after Ge(lll)
                                                   monochromator.
DETECTOR   (BF3) 4-cm diam enriched BF3 counter (containing
           94% B10) with active length of 48 cm and filled to a
           pressure of 60 cm Hg.
STATUS     (SCSRS) Numerical data from SCSRS, corresponding to
             Fig. 1 of reference
HISTORY    (19771115T) Converted from EXFOR 70178
           (20090912A) SD:Updated to new date formats,lower case.
           Description of experiment and temperature added
           (20100303A) SD: Evaluator's remark was added to Sub.002
ENDBIB              20
NOCOMMON             0          0
ENDSUBENT           23
SUBENT        31178002   20100304   20100610   20100603       3144
BIB                  3          6
REACTION   (4-BE-9(N,TOT),,SIG)
            Cross section of 'single crystal' Be at
            room temperature
CRITIQUE   Evaluator's remark: Suspicious data. Value for cross
           section and error more than 1000 times lower.
HISTORY    (20100303A) SD: Evaluator remark was added.
ENDBIB               6
COMMON               1          3
TEMP
DEG-C
 20.
ENDCOMMON            3
DATA                 2         25
EN         DATA
MEV        B
 1.6000E-08 4.5000E-01
 1.8000E-08 6.0000E-01
 2.0000E-08 5.7000E-01
 2.2500E-08 8.0000E-01
 2.4000E-08 5.4000E-01
 2.7000E-08 7.0000E-01
 3.1000E-08 8.5000E-01
 3.1000E-08 6.5000E-01
 3.8000E-08 9.5000E-01
 4.3000E-08 1.3200E+00
 5.4000E-08 1.1000E+00
 6.4000E-08 1.9000E+00
 8.0000E-08 2.3000E+00
 8.0000E-08 2.1000E+00
 1.0000E-07 2.9000E+00
 1.0000E-07 2.6500E+00
 1.1400E-07 3.0000E+00
 1.3000E-07 3.8500E+00
 1.3000E-07 3.4200E+00
 1.4500E-07 4.7700E+00
 1.7000E-07 5.0000E+00
 1.7000E-07 4.7500E+00
 2.5000E-07 5.5000E+00
 2.5000E-07 5.1500E+00
 3.8000E-07 5.4800E+00
ENDDATA             27
ENDSUBENT           42
ENDENTRY             2
