ENTRY            14232   20090529   20091029   20091028       1354
SUBENT        14232001   20090529   20091029   20091028       1354
BIB                  9         21
TITLE      Measurements of thermal neutron diffraction and
           inelastic scattering in reactor-grade graphite
AUTHOR     (C.D.Bowman,D.C.Bowman,T.Hill,J.Long,A.P.Tonchev,
           W.Tornow,F.Trouw,S.Vogel,R.L.Walter,S.Wender,
           V.Yuanb)
INSTITUTE  (1USALAS,1USATNL)
           (1USAUSA)ADNA Corporation,Los Alamos,New Mexico
REFERENCE  (J,NSE,159,182,2008)
FACILITY   (LINAC,1USALAS) Measurements were conducted at the
           Los Alamos Neutron Science Center pulsed neutron
           facility at the Los Alamos National Laboratory.
COMMENT    Cross section of thermal neutron diffraction and
           inelastic scattering depend on the structure
           and manufacturing technology of the graphite sample.
           In general, the inelastic scattering cross section of
           reactor grade graphite is higher than cross section
           of pyrolytic graphite with almost perfect crystaline
           structure.
METHOD     (TRN)
INC-SOURCE (SPALL)
HISTORY    (20090529C)
ENDBIB              21
COMMON               1          3
TEMP
DEG-C
24.0
ENDCOMMON            3
ENDSUBENT           28
SUBENT        14232002   20090529   20091029   20091028       1354
BIB                  5          8
REACTION   (6-C-12(N,TOT),,SIG)
STATUS     (CURVE) Data taken from fig. 1,2 and 4 of the reference
           Waiting on data from author.
DETECTOR   (FISCH)235U fission chamber with 235U deposits of
           thickness 0.25 mg/cm2 and diameter of 15 cm
METHOD     (TOF) Energy of neutrons determined by the time of
           flight method over the flight path of 6 and 11 m
SAMPLE     Granular graphite sample with diameter of 10 cm
ENDBIB               8
NOCOMMON             0          0
DATA                 2        382
EN         DATA
EV         B
    0.00047      13.91
    0.00050      13.89
    0.00055      13.52
    0.00059      13.61
    0.00061      13.06
    0.00065      12.95
    0.00070      12.93
    0.00075      12.36
    0.00080      11.79
    0.00087      11.25
    0.00092      10.76
    0.00100      10.30
    0.00109       9.60
    0.00118       9.12
    0.00129       8.43
    0.00140       7.87
    0.00154       7.24
    0.00162       7.04
    0.00165       6.92
    0.00168       6.82
    0.00170       6.49
    0.00174       6.68
    0.00176       6.47
    0.00179       6.64
    0.00181       6.98
    0.00181       7.38
    0.00182       7.64
    0.00182       8.27
    0.00183       8.57
    0.00183       9.26
    0.00183      10.19
    0.00183      10.73
    0.00184      11.41
    0.00185      11.99
    0.00186      12.25
    0.00187      12.50
    0.00188      12.67
    0.00189      12.80
    0.00192      12.57
    0.00196      12.38
    0.00199      12.25
    0.00201      12.02
    0.00202      11.78
    0.00204      11.59
    0.00207      11.42
    0.00212      11.38
    0.00214      11.22
    0.00216      11.08
    0.00219      10.89
    0.00222      10.68
    0.00227      10.68
    0.00230      10.49
    0.00233      10.29
    0.00237      10.13
    0.00240      10.12
    0.00241       9.85
    0.00245       9.66
    0.00249       9.63
    0.00252       9.40
    0.00256       9.46
    0.00260       9.19
    0.00266       9.03
    0.00269       8.80
    0.00275       8.74
    0.00277       8.57
    0.00283       8.51
    0.00285       8.31
    0.00291       8.27
    0.00296       8.03
    0.00301       7.90
    0.00307       7.73
    0.00311       7.57
    0.00316       7.43
    0.00321       7.35
    0.00325       7.24
    0.00331       7.17
    0.00336       7.05
    0.00340       6.91
    0.00344       6.82
    0.00350       6.67
    0.00356       6.60
    0.00359       6.45
    0.00365       6.47
    0.00370       6.34
    0.00374       6.24
    0.00379       6.15
    0.00384       6.04
    0.00388       6.02
    0.00393       5.88
    0.00398       5.92
    0.00402       5.74
    0.00407       5.66
    0.00411       5.66
    0.00416       5.54
    0.00421       5.46
    0.00428       5.36
    0.00432       5.39
    0.00437       5.23
    0.00441       5.21
    0.00448       5.09
    0.00451       5.19
    0.00458       5.25
    0.00462       5.39
    0.00467       5.35
    0.00472       5.41
    0.00477       5.32
    0.00484       5.36
    0.00489       5.48
    0.00493       5.59
    0.00496       5.71
    0.00499       5.98
    0.00501       6.19
    0.00504       6.34
    0.00508       6.45
    0.00512       6.49
    0.00516       6.45
    0.00519       6.47
    0.00523       6.44
    0.00529       6.39
    0.00533       1.05
    0.00534       6.41
    0.00540       6.38
    0.00543       6.25
    0.00549       6.25
    0.00554       6.25
    0.00560       6.22
    0.00564       6.13
    0.00568       6.07
    0.00574       6.04
    0.00579       5.94
    0.00590       5.91
    0.00598       5.88
    0.00603       5.82
    0.00610       5.76
    0.00618       5.67
    0.00619       5.74
    0.00629       5.64
    0.00639       5.61
    0.00649       5.58
    0.00657       5.53
    0.00668       5.48
    0.00674       5.45
    0.00683       5.42
    0.00690       5.34
    0.00696       5.29
    0.00703       5.25
    0.00707       5.20
    0.00719       5.20
    0.00723       5.26
    0.00726       5.37
    0.00728       5.50
    0.00731       5.62
    0.00738       5.72
    0.00749       5.65
    0.00756       5.58
    0.00763       5.54
    0.00768       5.50
    0.00776       5.44
    0.00782       5.41
    0.00789       5.38
    0.00795       5.35
    0.00803       5.32
    0.00810       5.28
    0.00816       5.25
    0.00824       5.19
    0.00828       5.14
    0.00842       5.19
    0.00851       5.14
    0.00862       5.26
    0.00866       5.32
    0.00875       5.31
    0.00882       5.35
    0.00888       5.31
    0.00895       5.29
    0.00907       5.27
    0.00919       5.22
    0.00929       5.17
    0.00941       5.09
    0.00952       5.06
    0.00964       5.00
    0.00973       4.97
    0.00977       4.91
    0.00991       4.87
    0.01003       4.84
    0.01013       4.79
    0.01024       4.73
    0.01032       4.70
    0.01043       4.63
    0.01055       4.61
    0.01060       4.57
    0.01070       4.55
    0.01075       4.51
    0.01087       4.48
    0.01096       4.42
    0.01115       4.35
    0.01122       4.31
    0.01138       4.28
    0.01160       4.22
    0.01178       4.18
    0.01200       4.10
    0.01216       4.09
    0.01225       4.04
    0.01241       4.05
    0.01255       3.98
    0.01265       3.95
    0.01280       3.92
    0.01297       3.90
    0.01307       3.84
    0.01327       3.82
    0.01344       3.86
    0.01349       4.02
    0.01362       4.39
    0.01370       4.74
    0.01384       4.81
    0.01398       4.77
    0.01411       4.74
    0.01425       4.73
    0.01437       4.68
    0.01454       4.68
    0.01468       4.65
    0.01482       4.61
    0.01496       4.66
    0.01506       4.71
    0.01516       4.74
    0.01523       4.88
    0.01530       5.15
    0.01541       5.44
    0.01553       5.91
    0.01567       6.02
    0.01578       6.02
    0.01596       6.07
    0.01615       6.07
    0.01633       6.06
    0.01643       6.08
    0.01659       6.11
    0.01673       6.08
    0.01689       6.06
    0.01702       6.02
    0.01716       5.97
    0.01729       5.93
    0.01741       5.90
    0.01763       5.86
    0.01776       5.79
    0.01795       5.74
    0.01808       5.74
    0.01822       5.75
    0.01840       5.75
    0.01857       5.78
    0.01868       5.81
    0.01884       5.81
    0.01900       5.81
    0.01905       5.77
    0.01918       5.74
    0.01933       5.71
    0.01942       5.68
    0.01958       5.66
    0.01972       5.64
    0.01987       5.64
    0.02001       5.64
    0.02016       5.63
    0.02027       5.61
    0.02040       5.63
    0.02060       5.68
    0.02070       5.77
    0.02092       5.95
    0.02107       6.06
    0.02123       6.14
    0.02138       6.13
    0.02152       6.13
    0.02171       6.12
    0.02184       6.09
    0.02205       6.09
    0.02217       6.07
    0.02237       6.07
    0.02256       6.02
    0.02271       6.00
    0.02292       5.97
    0.02307       5.93
    0.02330       5.88
    0.02351       5.84
    0.02368       5.81
    0.02387       5.76
    0.02403       5.75
    0.02424       5.66
    0.02442       5.66
    0.02468       5.60
    0.02492       5.58
    0.02598       5.42
    0.02684       5.32
    0.02759       5.20
    0.02851       5.10
    0.02931       5.16
    0.03000       5.27
    0.03128       5.27
    0.03232       5.28
    0.03339       5.23
    0.03433       5.13
    0.03498       5.01
    0.03647       5.08
    0.03733       4.96
    0.03856       4.86
    0.03984       4.79
    0.04077       4.91
    0.04173       5.06
    0.04212       5.22
    0.04351       5.28
    0.04558       5.22
    0.04666       5.06
    0.04842       5.16
    0.04979       5.11
    0.05073       4.98
    0.05265       4.89
    0.05464       5.01
    0.05645       5.10
    0.05859       5.18
    0.06166       5.22
    0.06490       5.16
    0.06767       5.11
    0.07089       5.11
    0.07460       5.08
    0.07779       4.98
    0.08149       4.87
    0.08497       4.86
    0.08860       4.86
    0.09239       4.82
    0.09544       4.92
    0.09860       4.98
    0.10186       5.06
    0.10572       4.98
    0.10972       5.06
    0.11441       4.94
    0.11874       4.89
    0.12324       4.98
    0.12910       5.06
    0.13462       4.92
    0.13972       5.01
    0.14367       4.91
    0.14911       4.98
    0.15476       4.91
    0.16137       4.82
    0.16748       4.82
    0.17464       4.84
    0.18295       4.92
    0.19165       4.92
    0.20077       4.92
    0.21032       4.92
    0.22032       4.92
    0.23080       4.92
    0.24178       4.94
    0.25211       4.89
    0.25804       4.77
    0.26534       4.89
    0.27411       4.84
    0.28715       4.91
    0.29942       4.87
    0.31659       4.86
    0.33165       4.84
    0.34421       4.86
    0.35892       4.87
    0.37079       4.87
    0.39023       4.89
    0.40127       4.87
    0.41262       4.96
    0.43024       4.94
    0.45917       4.92
    0.48325       4.89
    0.50389       4.91
    0.52298       4.91
    0.54786       4.91
    0.57393       4.91
    0.60967       4.92
    0.63571       4.89
    0.65673       4.98
    0.67217       4.86
    0.71073       4.94
    0.75149       4.91
    0.79459       4.87
    0.82469       4.82
    0.85992       4.98
    0.90503       4.86
    0.95250       4.87
    0.98858       4.89
ENDDATA            384
ENDSUBENT          397
SUBENT        14232003   20090529   20091029   20091028       1354
BIB                  5          9
REACTION   (6-C-12(N,TOT),,SIG)
STATUS     (CURVE) Data taken from figs. 5,6,7,8 of the reference
           Waiting on data from author.
DETECTOR   (SCIN)  A large-area 10 B-loaded plastic scintillator
           neutron detector with an efficiency of nearly 100%,
           consisting of 32 scintillators coupled with 5 cm diam
           photomultipliers.
SAMPLE     Granular graphite sample with diameter of 10 cm
METHOD     (TOF) Time of flight with the flight path of 59 m
ENDBIB               9
NOCOMMON             0          0
DATA                 2        879
EN         DATA
EV         B
    0.02507       5.91
    0.02513       5.88
    0.02523       5.90
    0.02525       5.86
    0.02537       5.83
    0.02549       5.81
    0.02558       5.79
    0.02567       5.76
    0.02581       5.74
    0.02593       5.71
    0.02611       5.69
    0.02623       5.66
    0.02630       5.63
    0.02644       5.63
    0.02654       5.60
    0.02670       5.58
    0.02675       5.54
    0.02689       5.52
    0.02695       5.50
    0.02696       5.43
    0.02709       5.52
    0.02716       5.43
    0.02717       5.48
    0.02731       5.43
    0.02737       5.49
    0.02754       5.47
    0.02761       5.43
    0.02773       5.40
    0.02775       5.40
    0.02780       5.38
    0.02789       5.31
    0.02793       5.35
    0.02810       5.32
    0.02821       5.32
    0.02836       5.27
    0.02850       5.26
    0.02859       5.22
    0.02868       5.21
    0.02880       5.18
    0.02891       5.17
    0.02903       5.16
    0.02924       5.13
    0.02940       5.13
    0.02959       5.15
    0.02968       5.21
    0.02982       5.16
    0.02987       5.19
    0.02999       5.24
    0.03012       5.26
    0.03020       5.31
    0.03027       5.35
    0.03033       5.38
    0.03034       5.41
    0.03040       5.46
    0.03050       5.52
    0.03054       5.58
    0.03062       5.66
    0.03076       5.72
    0.03085       5.67
    0.03089       5.63
    0.03104       5.67
    0.03113       5.61
    0.03129       5.65
    0.03138       5.63
    0.03150       5.59
    0.03157       5.57
    0.03174       5.56
    0.03180       5.52
    0.03195       5.54
    0.03201       5.57
    0.03209       5.49
    0.03225       5.51
    0.03236       5.53
    0.03237       5.55
    0.03239       5.58
    0.03248       5.61
    0.03251       5.65
    0.03258       5.70
    0.03258       5.72
    0.03265       5.75
    0.03271       5.77
    0.03283       5.80
    0.03297       5.76
    0.03313       5.75
    0.03325       5.74
    0.03339       5.73
    0.03346       5.70
    0.03353       5.67
    0.03362       5.63
    0.03372       5.66
    0.03379       5.63
    0.03388       5.61
    0.03399       5.64
    0.03409       5.61
    0.03418       5.63
    0.03425       5.59
    0.03444       5.59
    0.03453       5.56
    0.03463       5.53
    0.03476       5.50
    0.03493       5.48
    0.03504       5.46
    0.03511       5.45
    0.03519       5.41
    0.03528       5.42
    0.03540       5.44
    0.03547       5.39
    0.03560       5.38
    0.03568       5.36
    0.03577       5.34
    0.03586       5.36
    0.03596       5.35
    0.03600       5.32
    0.03616       5.31
    0.03623       5.36
    0.03626       5.33
    0.03633       5.39
    0.03645       5.38
    0.03651       5.41
    0.03672       5.42
    0.03675       5.39
    0.03686       5.37
    0.03691       5.35
    0.03707       5.32
    0.03724       5.32
    0.03736       5.28
    0.03749       5.27
    0.03763       5.25
    0.03770       5.23
    0.03780       5.20
    0.03792       5.18
    0.03815       5.16
    0.03824       5.13
    0.03849       5.10
    0.03863       5.08
    0.03870       5.05
    0.03878       5.03
    0.03887       5.01
    0.03896       4.99
    0.03908       5.02
    0.03915       4.99
    0.03927       4.97
    0.03941       4.95
    0.03955       4.95
    0.03964       4.93
    0.03982       4.91
    0.03994       4.89
    0.04006       4.87
    0.04015       4.85
    0.04027       4.86
    0.04039       4.84
    0.04052       4.82
    0.04062       4.80
    0.04083       4.79
    0.04099       4.79
    0.04111       4.81
    0.04122       4.83
    0.04123       4.89
    0.04134       4.99
    0.04143       5.08
    0.04150       5.12
    0.04165       5.09
    0.04171       5.13
    0.04186       5.08
    0.04204       5.13
    0.04213       5.10
    0.04228       5.10
    0.04242       5.09
    0.04255       5.10
    0.04267       5.13
    0.04283       5.14
    0.04288       5.19
    0.04299       5.24
    0.04304       5.30
    0.04309       5.36
    0.04314       5.46
    0.04320       5.57
    0.04325       5.70
    0.04334       5.72
    0.04342       5.79
    0.04342       5.83
    0.04348       5.86
    0.04360       5.87
    0.04369       5.91
    0.04386       5.94
    0.04393       5.96
    0.04412       5.95
    0.04432       5.94
    0.04453       5.95
    0.04470       5.94
    0.04489       5.91
    0.04496       5.88
    0.04512       5.86
    0.04523       5.85
    0.04542       5.84
    0.04554       5.82
    0.04565       5.80
    0.04582       5.76
    0.04598       5.79
    0.04598       5.75
    0.04615       5.77
    0.04622       5.73
    0.04635       5.68
    0.04643       5.74
    0.04657       5.71
    0.04671       5.67
    0.04685       5.68
    0.04705       5.62
    0.04719       5.63
    0.04731       5.60
    0.04740       5.58
    0.04747       6.43
    0.04752       5.61
    0.04755       5.56
    0.04771       5.59
    0.04777       5.54
    0.04792       5.56
    0.04801       5.54
    0.04813       5.55
    0.04826       5.53
    0.04845       5.53
    0.04854       5.57
    0.04857       5.65
    0.04869       5.66
    0.04878       5.71
    0.04887       5.78
    0.04901       5.79
    0.04913       5.78
    0.04931       5.80
    0.04941       5.78
    0.04957       5.76
    0.04976       5.75
    0.04985       5.74
    0.04994       5.72
    0.05002       5.73
    0.05008       5.08
    0.05015       5.06
    0.05031       5.06
    0.05042       5.05
    0.05058       5.04
    0.05065       5.03
    0.05077       5.02
    0.05089       5.01
    0.05100       5.01
    0.05112       5.00
    0.05127       4.99
    0.05131       4.98
    0.05154       4.98
    0.05158       4.96
    0.05181       4.96
    0.05189       4.96
    0.05197       4.94
    0.05220       4.94
    0.05231       4.93
    0.05258       4.91
    0.05274       4.90
    0.05285       4.90
    0.05304       4.88
    0.05324       4.87
    0.05343       4.86
    0.05370       4.85
    0.05385       4.84
    0.05393       4.83
    0.05405       4.82
    0.05435       4.82
    0.05466       4.82
    0.05478       4.83
    0.05497       4.84
    0.05505       4.86
    0.05524       4.89
    0.05547       4.90
    0.05570       4.88
    0.05586       4.89
    0.05609       4.88
    0.05624       4.88
    0.05640       4.89
    0.05647       4.90
    0.05659       4.91
    0.05674       4.93
    0.05682       4.94
    0.05694       4.97
    0.05701       5.00
    0.05705       5.03
    0.05728       5.03
    0.05748       5.04
    0.05759       5.05
    0.05786       5.06
    0.05790       5.07
    0.05805       5.09
    0.05821       5.09
    0.05840       5.10
    0.05852       5.09
    0.05867       5.08
    0.05898       5.10
    0.05917       5.09
    0.05944       5.09
    0.05960       5.10
    0.05987       5.11
    0.06014       5.13
    0.06040       5.17
    0.06067       5.16
    0.06098       5.16
    0.06110       5.15
    0.06141       5.15
    0.06172       5.15
    0.06187       5.16
    0.06202       5.16
    0.06218       5.18
    0.06245       5.20
    0.06256       5.21
    0.06264       5.23
    0.06291       5.24
    0.06314       5.24
    0.06333       5.23
    0.06353       5.22
    0.06376       5.23
    0.06403       5.23
    0.06422       5.22
    0.06453       5.22
    0.06476       5.21
    0.06507       5.20
    0.06522       5.19
    0.06545       5.17
    0.06568       5.18
    0.06580       5.16
    0.06592       5.14
    0.06603       5.15
    0.06634       5.14
    0.06661       5.13
    0.06676       5.12
    0.06715       5.12
    0.06730       5.11
    0.06757       5.09
    0.06777       5.09
    0.06796       5.08
    0.06819       5.06
    0.06846       5.06
    0.06869       5.04
    0.06884       5.05
    0.06908       5.03
    0.06946       5.03
    0.06969       5.03
    0.06992       5.03
    0.07000       5.02
    0.07035       5.02
    0.07050       5.03
    0.07085       5.04
    0.07096       5.05
    0.07127       5.06
    0.07131       5.07
    0.07147       5.09
    0.07162       5.10
    0.07177       5.11
    0.07204       5.11
    0.07231       5.12
    0.07243       5.11
    0.07270       5.09
    0.07289       5.11
    0.07320       5.11
    0.07332       5.09
    0.07343       5.08
    0.07355       5.09
    0.07370       5.08
    0.07389       5.09
    0.07409       5.08
    0.07439       5.09
    0.07455       5.08
    0.07463       5.06
    0.07490       5.07
    0.07509       5.06
    0.07532       5.05
    0.07551       5.04
    0.07567       5.03
    0.07605       5.02
    0.07632       5.01
    0.07663       5.01
    0.07686       5.00
    0.07705       4.99
    0.07740       4.98
    0.07763       4.96
    0.07782       4.97
    0.07809       4.97
    0.07833       4.96
    0.07840       4.94
    0.07863       4.95
    0.07871       4.94
    0.07890       4.95
    0.07913       4.93
    0.07921       4.93
    0.07952       4.92
    0.07994       4.90
    0.08018       4.90
    0.08052       4.90
    0.08091       4.89
    0.08114       4.88
    0.08129       4.89
    0.08152       4.88
    0.08176       4.88
    0.08214       4.88
    0.08222       4.87
    0.08249       4.86
    0.08260       4.87
    0.08276       4.84
    0.08303       4.86
    0.08326       4.85
    0.08353       4.85
    0.08380       4.84
    0.08411       4.83
    0.08449       4.84
    0.08488       4.84
    0.08522       4.84
    0.08549       4.85
    0.08572       4.85
    0.08588       4.84
    0.08603       4.83
    0.08619       4.84
    0.08642       4.82
    0.08684       4.82
    0.08711       4.83
    0.08754       4.85
    0.08784       4.85
    0.08823       4.85
    0.08858       4.86
    0.08881       4.84
    0.08923       4.85
    0.08950       4.84
    0.08977       4.84
    0.09012       4.83
    0.09039       4.83
    0.09058       4.82
    0.09073       4.81
    0.09100       4.82
    0.09135       4.81
    0.09162       4.81
    0.09193       4.81
    0.09231       4.80
    0.09251       4.79
    0.09293       4.79
    0.09316       4.77
    0.09328       4.77
    0.09362       4.77
    0.09393       4.76
    0.09409       4.75
    0.09436       4.75
    0.09474       4.74
    0.09497       4.74
    0.09524       4.74
    0.09601       4.74
    0.09625       4.76
    0.09648       4.77
    0.09671       4.78
    0.09686       4.81
    0.09702       4.79
    0.09725       4.81
    0.09763       4.80
    0.09798       4.82
    0.09813       4.84
    0.09833       4.88
    0.09863       4.90
    0.09902       4.91
    0.09941       4.91
    0.09979       4.91
    0.10021       4.91
    0.10058       4.90
    0.10103       4.90
    0.10118       4.89
    0.10162       4.89
    0.10192       4.88
    0.10229       4.90
    0.10311       4.91
    0.10318       4.89
    0.10370       4.92
    0.10393       4.94
    0.10423       4.95
    0.10430       4.97
    0.10475       4.98
    0.10504       4.96
    0.10564       4.95
    0.10579       4.96
    0.10623       4.95
    0.10646       4.95
    0.10646       4.94
    0.10675       4.93
    0.10735       4.93
    0.10750       4.94
    0.10765       4.92
    0.10839       4.91
    0.10846       4.92
    0.10876       4.92
    0.10898       4.91
    0.10928       4.91
    0.10965       4.90
    0.10995       4.90
    0.11010       4.91
    0.11032       4.90
    0.11047       4.89
    0.11129       4.89
    0.11159       4.88
    0.11181       4.89
    0.11218       4.90
    0.11226       4.89
    0.11278       4.89
    0.11292       4.90
    0.11322       4.90
    0.11322       4.91
    0.11359       4.92
    0.11389       4.92
    0.11397       4.91
    0.11456       4.92
    0.11493       4.91
    0.11553       4.91
    0.11597       4.90
    0.11627       4.89
    0.11649       4.89
    0.11701       4.88
    0.11739       4.88
    0.11768       4.87
    0.11813       4.87
    0.11858       4.86
    0.11895       4.85
    0.11947       4.86
    0.11969       4.84
    0.12014       4.84
    0.12051       4.85
    0.12073       4.83
    0.12103       4.82
    0.12140       4.82
    0.12162       4.83
    0.12192       4.81
    0.12237       4.82
    0.12252       4.81
    0.12304       4.81
    0.12378       4.81
    0.12415       4.82
    0.12445       4.82
    0.12490       4.83
    0.12534       4.83
    0.12571       4.83
    0.12594       4.86
    0.12631       4.86
    0.12661       4.88
    0.12690       4.88
    0.12727       4.87
    0.12765       4.88
    0.12787       4.86
    0.12824       4.87
    0.12869       4.87
    0.12884       4.87
    0.12921       4.86
    0.12958       4.87
    0.12980       4.88
    0.13017       4.89
    0.13055       4.87
    0.13084       4.88
    0.13114       4.87
    0.13151       4.88
    0.13188       4.87
    0.13233       4.88
    0.13263       4.89
    0.13300       4.88
    0.13352       4.89
    0.13382       4.88
    0.13419       4.86
    0.13464       4.87
    0.13501       4.86
    0.13568       4.85
    0.13612       4.86
    0.13620       4.85
    0.13664       4.84
    0.13702       4.85
    0.13754       4.84
    0.13806       4.84
    0.13850       4.83
    0.13902       4.83
    0.13925       4.82
    0.13991       4.81
    0.14044       4.83
    0.14051       4.83
    0.14118       4.83
    0.14155       4.83
    0.14229       4.83
    0.14252       4.83
    0.14274       4.85
    0.14326       4.85
    0.14356       4.85
    0.14393       4.85
    0.14430       4.85
    0.14475       4.85
    0.14505       4.84
    0.14586       4.83
    0.14653       4.84
    0.14690       4.84
    0.14720       4.83
    0.14750       4.82
    0.14809       4.82
    0.14832       4.83
    0.14899       4.82
    0.14958       4.81
    0.15003       4.80
    0.15062       4.78
    0.15085       4.80
    0.15151       4.79
    0.15218       4.79
    0.15278       4.79
    0.15308       4.78
    0.15397       4.78
    0.15441       4.79
    0.15493       4.77
    0.15523       4.78
    0.15620       4.77
    0.15724       4.75
    0.15783       4.75
    0.15858       4.74
    0.15940       4.74
    0.15977       4.73
    0.16014       4.72
    0.16066       4.71
    0.16111       4.72
    0.16148       4.73
    0.16200       4.72
    0.16259       4.73
    0.16304       4.72
    0.16341       4.71
    0.16393       4.72
    0.16445       4.71
    0.16542       4.71
    0.16572       4.72
    0.16646       4.72
    0.16720       4.73
    0.16772       4.74
    0.16824       4.73
    0.16869       4.73
    0.16914       4.73
    0.16951       4.72
    0.17003       4.73
    0.17055       4.73
    0.17107       4.72
    0.17137       4.74
    0.17189       4.73
    0.17241       4.73
    0.17315       4.74
    0.17352       4.74
    0.17419       4.73
    0.17427       4.73
    0.17516       4.73
    0.17568       4.73
    0.17650       4.74
    0.17717       4.72
    0.17821       4.72
    0.17873       4.72
    0.17917       4.72
    0.17992       4.73
    0.18029       4.74
    0.18081       4.75
    0.18140       4.78
    0.18192       4.77
    0.18237       4.78
    0.18304       4.77
    0.18349       4.78
    0.18408       4.76
    0.18475       4.78
    0.18520       4.77
    0.18572       4.77
    0.18639       4.79
    0.18698       4.79
    0.18750       4.81
    0.18802       4.80
    0.18854       4.80
    0.18906       4.80
    0.18981       4.80
    0.19040       4.79
    0.19092       4.80
    0.19144       4.80
    0.19219       4.79
    0.19271       4.78
    0.19338       4.78
    0.19404       4.79
    0.19449       4.79
    0.19494       4.80
    0.19575       4.80
    0.19635       4.79
    0.19694       4.80
    0.19746       4.81
    0.19813       4.81
    0.19873       4.81
    0.19932       4.81
    0.19999       4.80
    0.20275       4.79
    0.20329       4.81
    0.20708       4.78
    0.20979       4.80
    0.21087       4.80
    0.21521       4.79
    0.21521       4.78
    0.21738       4.77
    0.22117       4.76
    0.22442       4.77
    0.22550       4.78
    0.22929       4.79
    0.23038       4.79
    0.23363       4.78
    0.23959       4.79
    0.24121       4.77
    0.24717       4.78
    0.24826       4.78
    0.25205       4.78
    0.25313       4.77
    0.25584       4.76
    0.25693       4.76
    0.26180       4.75
    0.26397       4.76
    0.26776       4.77
    0.26993       4.78
    0.27372       4.77
    0.27535       4.76
    0.27968       4.77
    0.28347       4.78
    0.28510       4.77
    0.28835       4.76
    0.29214       4.77
    0.29268       4.78
    0.29648       4.79
    0.30189       4.80
    0.30677       4.80
    0.30839       4.80
    0.31273       4.80
    0.31327       4.81
    0.31490       4.79
    0.32031       4.80
    0.32411       4.79
    0.32790       4.79
    0.33278       4.78
    0.33873       4.79
    0.34415       4.79
    0.34524       4.78
    0.35065       4.79
    0.35336       4.78
    0.35499       4.77
    0.35932       4.77
    0.36203       4.78
    0.36799       4.78
    0.37178       4.77
    0.37449       4.78
    0.37774       4.78
    0.38316       4.78
    0.38479       4.77
    0.38641       4.76
    0.39020       4.79
    0.39237       4.77
    0.39291       4.78
    0.39671       4.79
    0.40104       4.78
    0.40592       4.78
    0.41025       4.77
    0.41783       4.78
    0.42109       4.78
    0.42704       4.78
    0.42921       4.78
    0.43355       4.78
    0.43680       4.79
    0.44113       4.78
    0.44655       4.79
    0.44763       4.80
    0.45034       4.80
    0.45468       4.78
    0.45901       4.79
    0.46118       4.78
    0.46605       4.79
    0.47364       4.79
    0.47635       4.79
    0.48068       4.79
    0.48393       4.78
    0.48610       4.78
    0.48881       4.79
    0.49260       4.77
    0.49693       4.78
    0.50344       4.77
    0.50777       4.78
    0.50994       4.78
    0.51590       4.78
    0.51915       4.78
    0.52511       4.76
    0.52511       4.79
    0.52944       4.79
    0.53107       4.78
    0.53811       4.78
    0.54136       4.78
    0.54624       4.77
    0.55220       4.78
    0.55599       4.78
    0.56086       4.79
    0.56303       4.78
    0.56791       4.78
    0.57170       4.77
    0.57766       4.78
    0.58145       4.77
    0.58524       4.78
    0.58958       4.78
    0.59662       4.78
    0.60475       4.78
    0.60692       4.79
    0.61071       4.79
    0.61450       4.79
    0.61938       4.78
    0.62425       4.79
    0.62696       4.78
    0.63075       4.79
    0.63509       4.78
    0.63726       4.78
    0.64322       4.78
    0.64809       4.78
    0.65459       4.78
    0.65947       4.78
    0.66380       4.78
    0.66760       4.78
    0.67139       4.78
    0.67464       4.77
    0.68060       4.78
    0.68710       4.79
    0.69143       4.77
    0.69468       4.78
    0.69848       4.79
    0.70281       4.78
    0.70931       4.78
    0.71581       4.78
    0.71961       4.79
    0.72286       4.78
    0.72773       4.78
    0.73207       4.79
    0.73478       4.78
    0.73965       4.78
    0.74399       4.78
    0.75103       4.78
    0.75645       4.78
    0.75970       4.80
    0.76620       4.78
    0.76945       4.79
    0.77541       4.80
    0.78191       4.79
    0.78841       4.78
    0.79275       4.78
    0.79925       4.79
    0.80358       4.78
    0.80737       4.78
    0.81279       4.78
    0.81713       4.79
    0.82092       4.78
    0.82742       4.79
    0.83230       4.79
    0.83880       4.79
    0.84422       4.79
    0.85072       4.79
    0.85613       4.78
    0.86209       4.78
    0.86805       4.78
    0.87347       4.78
    0.87889       4.78
    0.88377       4.78
    0.88810       4.78
    0.89243       4.78
    0.89677       4.78
    0.90164       4.79
    0.90760       4.78
    0.91356       4.79
    0.91952       4.78
    0.92657       4.79
    0.93253       4.78
    0.93957       4.79
    0.94336       4.78
    0.94499       4.79
    0.95203       4.80
    0.95907       4.79
    0.96232       4.79
    0.96557       4.78
    0.97099       4.79
    0.97749       4.79
    0.98345       4.79
    0.98725       4.79
    0.99566       4.79
ENDDATA            881
ENDSUBENT          895
ENDENTRY             3
