ENTRY            14345   20121002   20130226   20130207       1386
SUBENT        14345001   20121002   20130226   20130207       1386
BIB                 11         40
TITLE      Neutron scattering from 28Si and 32S from 8.0 to 18.9
           MeV, dispersive optical model analyses, and
           ground-state correlations
AUTHOR     (M.A.Al-Ohali,J.P.Delaroche,C.R.Howell,M.M.Nagadi,
           A.A.Naqvi,W.Tornow,R.L.Walter,G.J.Weisel)
INSTITUTE  (2FR BRC,1USATNL,3SARDHA)
           (1USAUSA) Penn State Altoona, Altoona, Pennsylvania
REFERENCE  (J,PR/C,86,034603,2012)
FACILITY   (VDGT,1USATNL) Experiment performed using FN Tandem
           Van de Graaff accelerator at Triangle Universities
           Nuclear Laboratory
DETECTOR   (SCIN) Scattered neutrons were detected using the
           TUNL TOF spectrometer, which includes four
           cylindrical detectors, either NE-213 or NE-218 liquid
           organic scintillators coupled to photomultiplier
           tubes. Two side detectors were located in the
           horizontal plane to the right and left of the
           incident beam axis. The right detector has a diameter
           of 8.88 cm, and a thickness of 5.08 cm and was set at
           distances from the target ranging from 2.5 to 3.9 m.
           The left detector has a diameter of 12.7 cm and a
           thickness of 5.08 cm and was set at distances ranging
           from 3.8 to 5.7 m. Two additional scintillation
           detectors were used for flux monitoring purposes.
METHOD     (TOF) Neutron energy was determined by time of flight
INC-SOURCE (D-D) Neutrons were produced via the 2H(d,n)3He
           reaction at 0deg. The gas cell was a cylindrical tube
           of stainless steel 0.80 cm in diameter and 3.16 cm
           long, lined with tantalum. On the beam-entrance side,
           the gas was contained with a 6.35 mu-m thick Havar
           foil. The gas pressures depended on the incident
           neutron energy. As a typical example, for En =
           15.4 MeV, pressure of 4.0 atm was used, resulting in
           a beam energy spread of 160 keV.
MONITOR    (1-H-1(N,EL)1-H-1,,DA) Elastic scattering on proton
           was used as monitor. Two samples CH2 and C were used
           to obtain net monitor counts by subtracting C spectra
           from CH2 spectra
ERR-ANALYS (ERR-T) Total uncertainty
HISTORY    (20121002C) Compiled by S.H.
ENDBIB              40
NOCOMMON             0          0
ENDSUBENT           43
SUBENT        14345002   20121002   20130226   20130207       1386
BIB                  6         20
REACTION   (14-SI-28(N,EL)14-SI-28,,DA)
STATUS     (TABLE) Data presented in fig. 1 of the reference sent
                   by author (G.J.W.)
SAMPLE     The natural 28Si sample (92.55% natural abundance)
           with a radius of 1.176 cm, and a height of 2.528 cm
ERR-ANALYS (ERR-S,1.5,6.0) Statistical uncertainty and background
                            determination
           (ERR-1) Relative uncertainty in detection efficiency
           (ERR-2,0.8,1.0) Relative uncertainty in finite
                            geometry  correction
           (ERR-3,0.5,1.0) Absolute uncertainty in n-p yield
           (ERR-4) Uncertainty in n-p cross section
           (ERR-5,0.8,1.0) Absolute uncertainty in ratio of
                           number of sample to monitor nuclei
           (ERR-6) Absolute uncertainty in correction factor
                  accounting for detection efficiency and finite
                  geometry effects
CORRECTION Data corrected for finite geometry effects and
           detector efficiency
EXP-YEAR   (1993)
ENDBIB              20
COMMON               3          3
ERR-1      ERR-4      ERR-6
PER-CENT   PER-CENT   PER-CENT
2.5        2.0        2.2
ENDCOMMON            3
DATA                 4         73
EN         ANG-CM     DATA-CM    ERR-T
MEV        ADEG       MB/SR      MB/SR
      15.43      18.10     663.13      11.68
      15.43      20.90     552.18      16.22
      15.43      23.70     374.53       8.55
      15.43      26.40     286.98      10.51
      15.43      29.20     172.66       6.41
      15.43      31.90     106.34       4.22
      15.43      34.70      62.48       1.85
      15.43      43.30       8.61       0.56
      15.43      48.00      18.94       1.12
      15.43      51.10      31.97       1.21
      15.43      54.60      46.83       1.29
      15.43      58.20      57.76       0.66
      15.43      61.80      58.51       1.15
      15.43      66.40      54.38       0.91
      15.43      71.20      46.61       1.14
      15.43      76.10      31.19       0.96
      15.43      81.00      23.80       0.68
      15.43      86.00      15.35       0.34
      15.43      91.40       9.88       0.26
      15.43      96.90       9.30       0.22
      15.43     102.10      10.17       0.12
      15.43     107.00      11.29       0.25
      15.43     111.80      11.96       0.25
      15.43     116.60      12.10       0.18
      15.43     121.40      10.88       0.25
      15.43     126.10      10.03       0.33
      15.43     130.90       8.33       0.15
      15.43     135.80       6.22       0.20
      15.43     140.80       5.60       0.19
      15.43     145.70       4.90       0.10
      15.43     150.60       4.43       0.15
      15.43     155.60       4.30       0.10
      15.43     160.40       4.70       0.10
      18.90      17.90     891.80      22.74
      18.90      20.70     655.82      15.54
      18.90      21.60     603.17      19.21
      18.90      24.40     405.06      12.55
      18.90      28.10     231.02       9.00
      18.90      30.90     132.31       5.74
      18.90      34.20      60.83       1.89
      18.90      40.00      23.29       0.79
      18.90      45.40      38.51       1.33
      18.90      49.40      58.15       1.04
      18.90      53.10      70.23       0.86
      18.90      56.80      77.71       0.99
      18.90      60.50      75.50       1.19
      18.90      64.20      65.38       1.10
      18.90      67.00      58.30       1.14
      18.90      69.90      47.36       1.15
      18.90      73.70      31.29       0.78
      18.90      77.80      19.59       0.47
      18.90      81.90      14.07       0.28
      18.90      86.70      11.65       0.23
      18.90      90.90      11.12       0.23
      18.90      95.00      12.06       0.25
      18.90      98.90      12.99       0.24
      18.90     102.80      12.95       0.24
      18.90     106.60      12.23       0.22
      18.90     109.40      10.97       0.19
      18.90     114.20      10.24       0.31
      18.90     118.10       7.87       0.24
      18.90     121.00       6.36       0.18
      18.90     123.00       6.10       0.16
      18.90     127.10       4.98       0.10
      18.90     131.30       4.77       0.11
      18.90     135.30       4.56       0.14
      18.90     139.10       4.94       0.14
      18.90     142.80       4.77       0.14
      18.90     145.80       4.33       0.14
      18.90     148.70       4.10       0.14
      18.90     152.40       3.24       0.11
      18.90     156.50       3.29       0.10
      18.90     160.40       3.47       0.10
ENDDATA             75
ENDSUBENT          104
SUBENT        14345003   20121002   20130226   20130207       1386
BIB                  7         19
REACTION   (14-SI-28(N,EL)14-SI-28,,POL/DA,,ANA)
STATUS     (TABLE) Data presented in fig. 3 of the reference sent
                   by author (G.J.W.)
SAMPLE     The natural 28Si sample (92.55% natural abundance)
           with a radius of 1.176 cm, and a height of 2.528 cm
INC-SOURCE (POLIS,LAMB) TUNL's Lamb-shift ion source was used
ERR-ANALYS (ERR-1,2.0,7.0) Relative uncertainty which include
            uncertainties associated with
                 - statistical uncertainty
                 - uncertainty in background subtraction
                 - uncertainty in correction for finite geometry
            added in quadrature
           (POL-BM-ERR)Systematic uncertainty in beam polarization
           (ERR-3) Uncertainty in analyzing power of 12C(n,n)
                   reaction
CORRECTION Data corrected for finite geometry effects, flux
           attenuation and multiple scattering using MC code JANE
EXP-YEAR   (1985) Analyzing power at 18.6 MeV
           (1993) Analyzing power at 15.4 MeV
ENDBIB              19
COMMON               3          3
POL-BM     POL-BM-ERR ERR-3
NO-DIM     PER-CENT   PER-CENT
0.55       2.0        5.0
ENDCOMMON            3
DATA                 4         31
EN         ANG-CM     DATA       ERR-T
MEV        ADEG       NO-DIM     NO-DIM
       15.4      25.16     -0.204      0.028
       15.4      29.94     -0.316      0.037
       15.4      34.82     -0.444      0.052
       15.4      37.77     -0.736      0.089
       15.4      41.31      -0.72      0.082
       15.4      47.14     -0.098      0.066
       15.4      52.67     -0.143      0.039
       15.4      61.84     -0.205      0.048
       15.4      71.56     -0.427      0.046
       15.4      81.47     -0.609      0.066
       15.4      91.48     -0.621      0.089
       15.4     103.91      0.235      0.043
       15.4     116.74      0.365      0.058
       15.4     129.13      -0.01      0.046
       15.4     140.79     -0.321      0.073
       18.6      20.54     -0.146       0.04
       18.6      31.41     -0.302      0.035
       18.6      37.85     -0.615      0.085
       18.6      41.07     -0.219      0.064
       18.6      51.54     -0.035      0.041
       18.6      61.61     -0.148      0.041
       18.6      72.08     -0.226      0.035
       18.6      82.55     -0.263      0.100
       18.6      92.62      0.147      0.052
       18.6     101.88      0.265      0.041
       18.6     115.17      0.419      0.041
       18.6     125.64      0.287      0.083
       18.6     133.69      0.353      0.081
       18.6     141.75      0.315      0.097
       18.6     146.98       0.65      0.103
       18.6     155.84      0.879       0.15
ENDDATA             33
ENDSUBENT           61
SUBENT        14345004   20121002   20130226   20130207       1386
BIB                  6         21
REACTION   (16-S-32(N,EL)16-S-32,,DA)
STATUS     (TABLE) Data presented in fig. 2 of the reference sent
                   by author (G.J.W.)
SAMPLE     The natural 32S sample (92.55% natural abundance)
           with a radius of 1.176 cm, and a height of 2.528 cm
ERR-ANALYS (ERR-S,1.5,6.0) Statistical uncertainty and background
                            determination
           (ERR-1) Relative uncertainty in detection efficiency
           (ERR-2,0.8,1.0) Relative uncertainty in finite
                            geometry  correction
           (ERR-3,0.5,1.0) Absolute uncertainty in n-p yield
           (ERR-4) Uncertainty in n-p cross section
           (ERR-5,0.8,1.0) Absolute uncertainty in ratio of
                           number of sample to monitor nuclei
           (ERR-6) Absolute uncertainty in correction factor
                  accounting for detection efficiency and finite
                  geometry effects
CORRECTION Data corrected for finite geometry effects and
           detector efficiency
EXP-YEAR   (1984) dS/dA at 7.96,9.95,11.93 and 13.92 MeV
           (1993) dS/dA at 15.44,16.92 and 18.90 MeV
ENDBIB              21
COMMON               3          3
ERR-1      ERR-4      ERR-6
PER-CENT   PER-CENT   PER-CENT
2.5        2.0        2.2
ENDCOMMON            3
DATA                 4        197
EN         ANG-CM     DATA-CM    ERR-T
MEV        ADEG       MB/SR      MB/SR
       7.96      25.21     537.89       8.22
       7.96      30.06     401.58       7.24
       7.96      34.93     279.51       5.54
       7.96      39.82      186.4       3.95
       7.96      44.24     129.48        2.8
       7.96      54.39      43.94       1.09
       7.96      65.14      17.77       0.49
       7.96      75.48      11.92       0.37
       7.96      85.35       7.68       0.32
       7.96      96.01       4.96       0.24
       7.96     102.04       5.62       0.19
       7.96     107.66       7.73       0.27
       7.96     117.22      10.98        0.3
       7.96     126.72      12.52       0.31
       7.96      136.8      13.56       0.41
       7.96     147.03      22.65        0.8
       7.96      156.6      46.45       1.13
       7.96     162.57      63.61       0.71
       9.95      19.95     660.76      20.19
       9.95      24.63     464.65      15.23
       9.95      29.32     304.65      12.86
       9.95      31.19     233.73       8.96
       9.95      34.01     167.57       6.61
       9.95      38.78      81.08       3.48
       9.95      44.19      32.06        1.3
       9.95      49.43       16.0       0.76
       9.95      55.78      18.43       0.64
       9.95      60.87      20.81       0.86
       9.95      62.76      21.87       0.97
       9.95      65.55      24.36       0.98
       9.95      67.41      24.35       0.77
       9.95      71.17       22.0       0.81
       9.95      74.98       19.5       0.93
       9.95      79.82      16.64       0.77
       9.95      84.75      11.92       0.45
       9.95      89.82       8.77       0.42
       9.95      97.25       6.18       0.23
       9.95     101.65       6.32       0.24
       9.95     105.99       6.44       0.26
       9.95     113.15       9.46       0.42
       9.95     117.98      12.28       0.43
       9.95     122.71      14.43       0.63
       9.95     127.41      16.81       0.58
       9.95     132.14      16.85        0.7
       9.95     134.99      17.19       0.57
       9.95     141.73      15.89       0.64
       9.95     146.61      17.55        0.6
       9.95     151.51      14.62       0.65
       9.95     154.44      16.23       0.55
       9.95     161.17      17.38       0.56
      11.93      24.44     403.4       14.62
      11.93      28.99     235.97       9.22
      11.93      33.46     121.78        5.7
      11.93      38.31      45.12       2.06
      11.93      45.56      10.43       0.59
      11.93      52.79      20.61       0.98
      11.93      61.84      36.43       1.16
      11.93      66.42      38.53       1.61
      11.93      70.98      33.08       1.16
      11.93      80.68      19.19       0.82
      11.93      91.19      10.51       0.51
      11.93     101.85      10.78       0.43
      11.93     111.78      14.14       0.58
      11.93     121.27      14.83       0.64
      11.93     130.64      13.54       0.56
      11.93     140.42       8.74       0.34
      11.93     145.65       7.17       0.41
      11.93      150.9       8.51        0.4
      11.93     156.86      11.54       0.59
      11.93     163.38      14.44       0.69
      13.92      28.42     204.11      10.06
      13.92      31.03     122.86       6.41
      13.92      34.75      45.54       2.48
      13.92      39.36      10.92       0.49
      13.92      45.56      12.04       0.67
      13.92      50.49      30.75       1.74
      13.92      52.54      41.16       1.79
      13.92      57.46       54.3       1.82
      13.92      60.94      54.98        1.7
      13.92      66.34      47.92       1.68
      13.92      70.03      35.33        1.3
      13.92      75.78      22.85       0.94
      13.92      79.99      15.03       0.59
      13.92      86.28      10.36       0.33
      13.92       91.3      10.93       0.43
      13.92       97.4      11.95       0.44
      13.92     101.24      12.89       0.51
      13.92     106.99      14.09       0.52
      13.92     110.85      12.61       0.47
      13.92     116.67      11.99       0.45
      13.92     120.57      10.64       0.42
      13.92     126.38       9.92       0.41
      13.92     130.24       9.13       0.38
      13.92     136.07       7.26       0.31
      13.92     140.05        6.7        0.3
      13.92     146.16        6.1       0.27
      13.92     150.78       6.43       0.25
      13.92     156.29       7.62       0.33
      13.92     160.12        9.0       0.38
      15.44      17.99     706.44      16.91
      15.44      20.84     528.95      14.14
      15.44      23.66     380.17      12.71
      15.44      26.44     246.93       8.68
      15.44      30.87      99.13       4.29
      15.44      35.99      16.94        1.0
      15.44      39.95       3.32       0.72
      15.44      45.09      18.05       1.55
      15.44      49.41      43.65       1.11
      15.44      53.81      57.89       0.86
      15.44      58.47      63.43       1.01
      15.44      63.24      57.46       1.33
      15.44      66.12      51.31       1.03
      15.44      68.06      44.96       0.97
      15.44      72.94      30.79       0.74
      15.44      78.01      19.42       0.45
      15.44      83.33      12.52       0.37
      15.44      88.69      12.19       0.38
      15.44      93.84      12.51       0.34
      15.44      98.82      14.14       0.21
      15.44     103.67      14.98       0.27
      15.44     108.45      15.27       0.37
      15.44     113.21      12.53       0.26
      15.44     118.07       9.73       0.31
      15.44     123.07       8.02       0.35
      15.44     128.07       6.33       0.18
      15.44     132.93       5.65       0.19
      15.44     137.76       4.41       0.12
      15.44     142.78       3.93       0.17
      15.44     147.95        3.7        0.1
      15.44     152.93       4.48       0.12
      15.44     156.74       5.61       0.19
      15.44     160.46       5.86       0.11
      16.92      19.55     686.91      25.19
      16.92      24.0      377.51      16.15
      16.92      28.16     168.83       8.28
      16.92      32.79      41.31       1.74
      16.92      43.83      27.65       2.09
      16.92      48.03      52.33       2.47
      16.92      52.02      75.02       2.11
      16.92      56.43      79.92       2.17
      16.92      61.03      75.64       2.33
      16.92      70.56       39.9       1.47
      16.92      75.61      21.45       0.76
      16.92      81.11      14.07       0.45
      16.92      86.76      12.91       0.42
      16.92      91.98      14.53       0.48
      16.92      96.84      16.85       0.55
      16.92     101.56      16.84       0.56
      16.92     110.96       13.4        0.5
      16.92     115.77        9.5       0.35
      16.92     120.76       6.49       0.26
      16.92     131.02       4.44       0.19
      16.92     135.93       4.73       0.23
      16.92     140.75       4.03        0.2
      16.92     145.65       3.92       0.17
      16.92     150.65       3.63       0.17
      16.92     155.63       3.97        0.2
      16.92     160.45       4.61       0.23
       18.9      17.37     902.94      27.56
       18.9      20.11     652.15      23.39
       18.9      23.74     358.07      14.24
       18.9      27.32     181.47       8.24
       18.9      30.18      95.08       4.53
       18.9      34.16      29.37       0.73
       18.9      41.52      27.01       1.83
       18.9      45.96      58.07        1.6
       18.9      49.27      75.42       1.28
       18.9      52.66      87.06       1.08
       18.9      56.22       86.3       1.48
       18.9      59.92      74.83       1.97
       18.9      63.71      55.51       1.71
       18.9      66.59      50.32       1.43
       18.9      69.47      38.61       1.08
       18.9      73.38      26.25       0.93
       18.9      77.55      16.68       0.56
       18.9      82.21       10.9       0.19
       18.9      86.88      11.34       0.22
       18.9      91.02      13.15       0.24
       18.9      94.82      14.28       0.24
       18.9      98.56      14.75       0.24
       18.9     102.35       14.5       0.31
       18.9     106.15      12.71       0.36
       18.9     109.93      10.34       0.31
       18.9     113.64       8.77       0.28
       18.9     117.36        6.4       0.24
       18.9     120.28       4.78       0.21
       18.9     122.34       3.77       0.16
       18.9     126.81       2.44       0.09
       18.9     131.34       2.65        0.1
       18.9     135.47       2.98       0.11
       18.9     139.52       3.67       0.12
       18.9     142.99       3.89       0.12
       18.9     145.76       3.83       0.12
       18.9     148.54       3.99       0.12
       18.9     152.56       3.72       0.11
       18.9     156.24        3.1        0.1
       18.9     160.21       3.21        0.1
ENDDATA            199
ENDSUBENT          229
SUBENT        14345005   20121002   20130226   20130207       1386
BIB                  7         18
REACTION   (16-S-32(N,EL)16-S-32,,POL/DA,,ANA)
STATUS     (TABLE) Data presented in fig. 3 of the reference sent
                   by author (G.J.W.)
SAMPLE     The natural 32S sample (92.55% natural abundance)
           with a radius of 1.176 cm, and a height of 2.528 cm
INC-SOURCE (POLIS,LAMB) TUNL's Lamb-shift ion source was used
ERR-ANALYS (ERR-1,2.0,7.0) Relative uncertainty which include
            uncertainties associated with
                 - statistical uncertainty
                 - uncertainty in background subtraction
                 - uncertainty in correction for finite geometry
            added in quadrature
           (ERR-2) Uncertainty in analyzing power of 12C(n,n)
                   reaction
CORRECTION Data corrected for finite geometry effects, flux
           attenuation and multiple scattering using MC code JANE
EXP-YEAR   (1984) Analyzing power at 9.9,13.9,16.9 MeV
           (1993) Analyzing power at 15.4 MeV
ENDBIB              18
COMMON               3          3
POL-BM     POL-BM-ERR ERR-2
NO-DIM     PER-CENT   PER-CENT
0.55       2.0        5.0
ENDCOMMON            3
DATA                 4         75
EN         ANG-CM     DATA       ERR-T
MEV        ADEG       NO-DIM     NO-DIM
    9.9       20.48      -0.039     0.01
    9.9       24.99      -0.013     0.01
    9.9       29.59      -0.003     0.005
    9.9       30.05       0.016     0.013
    9.9       34.07       0.051     0.01
    9.9       38.93       0.127     0.019
    9.9       44.91       0.32      0.028
    9.9       50.65       0.116     0.031
    9.9       56.74      -0.256     0.032
    9.9       61.79      -0.522     0.032
    9.9       71.15      -0.648     0.027
    9.9       80.86      -0.862     0.029
    9.9      101.59       0.279     0.044
    9.9      106.96       0.75      0.043
    9.9      111.95       0.613     0.041
    9.9      116.86       0.29      0.032
    9.9      121.76       0.076     0.029
    9.9      131.15      -0.425     0.032
    9.9      135.91      -0.636     0.028
    9.9      140.61      -0.632     0.032
    9.9      150.58       0.094     0.028
    9.9      155.41       0.575     0.028
   13.9       20.07      -0.089     0.011
   13.9       24.34      -0.119     0.021
   13.9       28.54      -0.076     0.02
   13.9       32.58      -0.085     0.022
   13.9       39.32       0.161     0.049
   13.9       44.67       0.335     0.058
   13.9       48.54       0.005     0.048
   13.9       53.31      -0.191     0.039
   13.9       61.47      -0.384     0.034
   13.9       70.33      -0.473     0.036
   13.9       80.33      -0.58      0.04
   13.9       91.73      -0.035     0.043
   13.9      101.67       0.213     0.04
   13.9      111.28       0.338     0.04
   13.9      120.93       0.287     0.046
   13.9      130.6       -0.187     0.052
   13.9      140.32      -0.524     0.054
   13.9      150.6        0.239     0.056
   13.9      158.34       0.907     0.051
   15.4       18.38      -0.073     0.023
   15.4       21.24      -0.121     0.037
   15.4       24.1       -0.14      0.071
   15.4       26.9       -0.15      0.045
   15.4       30.54      -0.214     0.058
   15.4       34.04      -0.173     0.053
   15.4       48.29      -0.187     0.06
   15.4       52.48      -0.304     0.072
   15.4       61.52      -0.435     0.047
   15.4       71.11      -0.554     0.052
   15.4       81.0       -0.331     0.062
   15.4       91.71       0.13      0.068
   15.4      103.7        0.199     0.043
   15.4      116.13       0.23      0.056
   15.4      128.94       0.17      0.066
   15.4      140.66      -0.162     0.079
   16.9       19.99      -0.135     0.01
   16.9       24.3       -0.211     0.02
   16.9       28.47      -0.238     0.028
   16.9       32.97      -0.36      0.048
   16.9       43.86      -0.17      0.066
   16.9       52.11      -0.171     0.025
   16.9       61.09      -0.243     0.032
   16.9       70.6       -0.41      0.035
   16.9       81.01      -0.138     0.048
   16.9       91.97       0.219     0.053
   16.9      101.49       0.151     0.043
   16.9      110.95       0.182     0.043
   16.9      118.77       0.186     0.055
   16.9      126.9        0.48      0.065
   16.9      135.92       0.051     0.087
   16.9      143.58       0.267     0.061
   16.9      150.43       0.546     0.071
   16.9      158.34       0.955     0.109
ENDDATA             77
ENDSUBENT          104
ENDENTRY             5
