ENTRY            12948   19891101              20050926       0000
SUBENT        12948001   19891101              20050926       0000
BIB                 11         15
INSTITUTE  (1CANTMF)
REFERENCE  (J,PR/C,40,559,8908)
AUTHOR     (M.C.VETTERLI,O.HAEUSSER,R.ABEGG,W.P.ALFORD,A.CELLER,
           D.FREKERS,R.HELMER,R.HENDERSON,K.H.HICKS,K.P.JACKSON,
           R.G.JEPPESEN,C.A.MILLER,K.RAYWOOD,S.YEN)
TITLE      GAMOW-TELLER STRENGTH DEDUCED FROM CHARGE EXCHANGE
            REACTIONS ON 54FE AT 300 MEV.
FACILITY   (MESON) TRIUMF CHARGE-EXCHANGE FACILITY
INC-SOURCE (P-LI7)
SAMPLE     97.2% ENRICHED 54-FE
MONITOR    (1-H-1(N,EL)1-H-1,,DA)
ERR-ANALYS DATA UNCERTAINTIES GIVEN ARE PRIMARILY STATISTICAL
STATUS     DATA RECEIVED BY ELECTRONIC MAIL, 89/4/26
           (APRVD) M.VETTERLI, 89/6/6.
HISTORY    (890502C)
ENDBIB              15
COMMON               4          3
EN         ANG-NRM    MONIT      MONIT-ERR
MEV        ADEG       MB/SR      PER-CENT
298.        1.8        50.7       5.0
ENDCOMMON            3
ENDSUBENT           22
SUBENT        12948002   19890607              20050926       0000
BIB                  1          1
REACTION   (26-FE-54(N,P)25-MN-54,,DA/DE)
ENDBIB               1
COMMON               1          3
E-RSL
MEV
 0.5
ENDCOMMON            3
DATA                 4        551
ANG        E-EXC      DATA       DATA-ERR
ADEG       MEV        MB/SR/MEV  MB/SR/MEV
 1.8        -8.750     0.000      0.000
 1.8        -8.250     0.003      0.003
 1.8        -7.750     0.008      0.007
 1.8        -7.250     0.015      0.016
 1.8        -6.750     -.002      0.008
 1.8        -6.250     0.009      0.012
 1.8        -5.750     -.005      0.009
 1.8        -5.250     0.009      0.011
 1.8        -4.750     0.010      0.011
 1.8        -4.250     0.002      0.009
 1.8        -3.750     0.021      0.015
 1.8        -3.250     0.002      0.015
 1.8        -2.750     -.023      0.023
 1.8        -2.250     -.025      0.029
 1.8        -1.750     0.144      0.052
 1.8        -1.250     0.207      0.095
 1.8        -0.750     -.116      0.176
 1.8        -0.250     0.195      0.214
 1.8         0.250     1.244      0.180
 1.8         0.750     3.003      0.165
 1.8         1.250     3.856      0.176
 1.8         1.750     3.149      0.155
 1.8         2.250     2.782      0.137
 1.8         2.750     2.068      0.118
 1.8         3.250     1.524      0.106
 1.8         3.750     1.557      0.105
 1.8         4.250     1.852      0.110
 1.8         4.750     1.946      0.118
 1.8         5.250     1.120      0.096
 1.8         5.750     1.074      0.090
 1.8         6.250     0.858      0.079
 1.8         6.750     0.999      0.089
 1.8         7.250     0.950      0.092
 1.8         7.750     0.926      0.092
 1.8         8.250     0.865      0.095
 1.8         8.750     0.958      0.101
 1.8         9.250     1.040      0.101
 1.8         9.750     1.343      0.108
 1.8        10.250     1.265      0.103
 1.8        10.750     1.296      0.108
 1.8        11.250     1.523      0.126
 1.8        11.750     1.440      0.138
 1.8        12.250     1.501      0.140
 1.8        12.750     1.441      0.123
 1.8        13.250     1.284      0.117
 1.8        13.750     1.412      0.123
 1.8        14.250     1.388      0.116
 1.8        14.750     1.235      0.106
 1.8        15.250     1.550      0.116
 1.8        15.750     1.442      0.120
 1.8        16.250     1.225      0.119
 1.8        16.750     1.338      0.122
 1.8        17.250     1.344      0.121
 1.8        17.750     1.508      0.122
 1.8        18.250     1.348      0.118
 1.8        18.750     1.503      0.129
 1.8        19.250     1.446      0.131
 1.8        19.750     1.618      0.126
 1.8        20.250     1.600      0.124
 1.8        20.750     1.490      0.121
 1.8        21.250     1.501      0.131
 1.8        21.750     1.444      0.136
 1.8        22.250     1.530      0.131
 1.8        22.750     1.217      0.125
 1.8        23.250     1.457      0.124
 1.8        23.750     1.377      0.121
 1.8        24.250     1.293      0.125
 1.8        24.750     1.130      0.122
 1.8        25.250     1.478      0.133
 1.8        25.750     1.267      0.125
 1.8        26.250     1.171      0.118
 1.8        26.750     1.156      0.115
 1.8        27.250     1.291      0.119
 1.8        27.750     1.282      0.124
 1.8        28.250     1.271      0.130
 1.8        28.750     1.171      0.128
 1.8        29.250     1.128      0.126
 1.8        29.750     1.007      0.118
 1.8        30.250     1.143      0.119
 1.8        30.750     1.235      0.121
 1.8        31.250     1.050      0.119
 1.8        31.750     0.999      0.119
 1.8        32.250     1.155      0.124
 1.8        32.750     1.042      0.123
 1.8        33.250     1.089      0.131
 1.8        33.750     0.990      0.132
 1.8        34.250     1.015      0.133
 1.8        34.750     0.833      0.129
 1.8        35.250     0.839      0.123
 1.8        35.750     1.056      0.123
 1.8        36.250     0.975      0.123
 1.8        36.750     0.863      0.119
 1.8        37.250     0.912      0.119
 1.8        37.750     1.087      0.124
 1.8        38.250     0.770      0.112
 1.8        38.750     0.867      0.115
 1.8        39.250     0.875      0.120
 1.8        39.750     1.013      0.131
 1.8        40.250     0.884      0.125
 1.8        40.750     0.718      0.118
 1.8        41.250     0.765      0.119
 1.8        41.750     1.047      0.126
 1.8        42.250     0.821      0.120
 1.8        42.750     0.864      0.126
 1.8        43.250     0.882      0.128
 1.8        43.750     0.893      0.127
 1.8        44.250     0.969      0.126
 1.8        44.750     0.926      0.129
 1.8        45.250     0.716      0.127
 1.8        45.750     0.689      0.126
 1.8        46.250     0.967      0.133
 1.8        46.750     0.831      0.125
 1.8        47.250     0.714      0.129
 1.8        47.750     0.711      0.131
 1.8        48.250     0.672      0.127
 1.8        48.750     0.694      0.125
 1.8        49.250     0.942      0.135
 1.8        49.750     0.627      0.123
 2.9        -7.250     0.000      0.000
 2.9        -6.750     0.009      0.009
 2.9        -6.250     0.017      0.016
 2.9        -5.750     0.012      0.009
 2.9        -5.250     0.014      0.015
 2.9        -4.750     0.000      0.000
 2.9        -4.250     0.002      0.004
 2.9        -3.750     0.004      0.030
 2.9        -3.250     0.067      0.042
 2.9        -2.750     0.064      0.035
 2.9        -2.250     0.018      0.030
 2.9        -1.750     0.067      0.044
 2.9        -1.250     0.057      0.065
 2.9        -0.750     0.140      0.120
 2.9        -0.250     0.514      0.183
 2.9         0.250     0.636      0.203
 2.9         0.750     1.784      0.240
 2.9         1.250     3.013      0.288
 2.9         1.750     2.273      0.245
 2.9         2.250     1.915      0.208
 2.9         2.750     1.621      0.188
 2.9         3.250     1.260      0.162
 2.9         3.750     1.105      0.150
 2.9         4.250     1.474      0.177
 2.9         4.750     1.607      0.179
 2.9         5.250     1.249      0.164
 2.9         5.750     1.451      0.166
 2.9         6.250     1.239      0.156
 2.9         6.750     1.114      0.159
 2.9         7.250     0.862      0.151
 2.9         7.750     1.186      0.164
 2.9         8.250     1.543      0.174
 2.9         8.750     1.608      0.187
 2.9         9.250     1.513      0.193
 2.9         9.750     1.626      0.187
 2.9        10.250     1.452      0.174
 2.9        10.750     1.690      0.193
 2.9        11.250     1.888      0.211
 2.9        11.750     1.851      0.218
 2.9        12.250     1.445      0.231
 2.9        12.750     1.939      0.234
 2.9        13.250     1.867      0.219
 2.9        13.750     1.608      0.209
 2.9        14.250     1.747      0.208
 2.9        14.750     1.491      0.189
 2.9        15.250     1.315      0.185
 2.9        15.750     1.656      0.207
 2.9        16.250     1.599      0.212
 2.9        16.750     1.545      0.218
 2.9        17.250     1.893      0.216
 2.9        17.750     1.616      0.203
 2.9        18.250     1.612      0.208
 2.9        18.750     1.930      0.246
 2.9        19.250     1.721      0.222
 2.9        19.750     1.224      0.187
 2.9        20.250     1.265      0.188
 2.9        20.750     1.541      0.209
 2.9        21.250     1.754      0.235
 2.9        21.750     0.861      0.211
 2.9        22.250     1.383      0.219
 2.9        22.750     1.418      0.205
 2.9        23.250     0.832      0.171
 2.9        23.750     0.992      0.195
 2.9        24.250     1.317      0.204
 2.9        24.750     1.544      0.230
 2.9        25.250     1.382      0.237
 2.9        25.750     1.293      0.216
 2.9        26.250     1.634      0.220
 2.9        26.750     1.496      0.209
 2.9        27.250     1.085      0.199
 2.9        27.750     1.062      0.205
 2.9        28.250     1.163      0.217
 2.9        28.750     1.018      0.208
 2.9        29.250     1.231      0.232
 2.9        29.750     1.085      0.211
 2.9        30.250     1.210      0.207
 2.9        30.750     0.962      0.191
 2.9        31.250     1.718      0.226
 2.9        31.750     0.969      0.190
 2.9        32.250     0.899      0.182
 2.9        32.750     1.271      0.199
 2.9        33.250     1.375      0.217
 2.9        33.750     0.898      0.207
 2.9        34.250     1.153      0.215
 2.9        34.750     0.834      0.200
 2.9        35.250     0.750      0.191
 2.9        35.750     0.606      0.188
 2.9        36.250     0.713      0.191
 2.9        36.750     1.118      0.209
 2.9        37.250     0.758      0.193
 2.9        37.750     1.038      0.201
 2.9        38.250     0.899      0.192
 2.9        38.750     0.584      0.184
 2.9        39.250     0.841      0.200
 2.9        39.750     0.724      0.201
 2.9        40.250     0.427      0.164
 2.9        40.750     0.880      0.195
 2.9        41.250     1.208      0.217
 2.9        41.750     1.126      0.214
 2.9        42.250     0.789      0.197
 2.9        42.750     0.965      0.210
 2.9        43.250     0.586      0.192
 2.9        43.750     0.937      0.213
 2.9        44.250     0.801      0.197
 2.9        44.750     0.716      0.216
 2.9        45.250     0.784      0.223
 2.9        45.750     0.536      0.201
 2.9        46.250     0.975      0.228
 2.9        46.750     0.538      0.211
 2.9        47.250     0.726      0.207
 2.9        47.750     0.419      0.186
 2.9        48.250     1.031      0.226
 2.9        48.750     0.669      0.210
 2.9        49.250     0.760      0.225
 2.9        49.750     0.905      0.227
 5.4        -3.250     0.000      0.000
 5.4        -2.750     0.015      0.013
 5.4        -2.250     0.021      0.013
 5.4        -1.750     -.004      0.008
 5.4        -1.250     -.029      0.022
 5.4        -0.750     0.016      0.029
 5.4        -0.250     0.116      0.045
 5.4         0.250     0.229      0.086
 5.4         0.750     0.778      0.138
 5.4         1.250     1.279      0.182
 5.4         1.750     1.115      0.177
 5.4         2.250     1.250      0.159
 5.4         2.750     0.821      0.152
 5.4         3.250     0.678      0.145
 5.4         3.750     0.809      0.133
 5.4         4.250     0.882      0.136
 5.4         4.750     0.894      0.136
 5.4         5.250     0.951      0.126
 5.4         5.750     1.269      0.142
 5.4         6.250     0.951      0.120
 5.4         6.750     0.776      0.115
 5.4         7.250     0.815      0.121
 5.4         7.750     1.241      0.145
 5.4         8.250     1.481      0.150
 5.4         8.750     1.641      0.162
 5.4         9.250     1.636      0.167
 5.4         9.750     1.873      0.173
 5.4        10.250     2.140      0.183
 5.4        10.750     2.242      0.192
 5.4        11.250     2.011      0.191
 5.4        11.750     1.930      0.197
 5.4        12.250     2.146      0.195
 5.4        12.750     2.200      0.186
 5.4        13.250     2.208      0.188
 5.4        13.750     1.912      0.185
 5.4        14.250     1.793      0.180
 5.4        14.750     1.445      0.162
 5.4        15.250     1.517      0.168
 5.4        15.750     1.701      0.175
 5.4        16.250     1.381      0.175
 5.4        16.750     1.565      0.181
 5.4        17.250     1.576      0.181
 5.4        17.750     1.588      0.184
 5.4        18.250     2.067      0.196
 5.4        18.750     1.827      0.193
 5.4        19.250     1.594      0.195
 5.4        19.750     1.647      0.188
 5.4        20.250     1.468      0.182
 5.4        20.750     1.539      0.177
 5.4        21.250     1.883      0.204
 5.4        21.750     1.635      0.198
 5.4        22.250     1.762      0.202
 5.4        22.750     1.434      0.186
 5.4        23.250     1.563      0.180
 5.4        23.750     1.524      0.182
 5.4        24.250     1.423      0.182
 5.4        24.750     1.410      0.193
 5.4        25.250     1.152      0.190
 5.4        25.750     1.274      0.182
 5.4        26.250     1.412      0.179
 5.4        26.750     1.290      0.173
 5.4        27.250     1.218      0.172
 5.4        27.750     1.182      0.183
 5.4        28.250     0.973      0.178
 5.4        28.750     1.354      0.193
 5.4        29.250     1.053      0.185
 5.4        29.750     1.276      0.188
 5.4        30.250     1.165      0.181
 5.4        30.750     1.161      0.176
 5.4        31.250     0.971      0.161
 5.4        31.750     1.260      0.173
 5.4        32.250     1.442      0.183
 5.4        32.750     1.405      0.185
 5.4        33.250     0.989      0.177
 5.4        33.750     0.857      0.184
 5.4        34.250     1.154      0.197
 5.4        34.750     0.863      0.194
 5.4        35.250     0.920      0.178
 5.4        35.750     0.853      0.176
 5.4        36.250     0.661      0.166
 5.4        36.750     0.855      0.170
 5.4        37.250     1.040      0.177
 5.4        37.750     0.913      0.166
 5.4        38.250     1.003      0.174
 5.4        38.750     0.981      0.179
 5.4        39.250     1.091      0.190
 5.4        39.750     0.912      0.178
 5.4        40.250     0.901      0.178
 5.4        40.750     0.772      0.176
 5.4        41.250     1.080      0.181
 5.4        41.750     0.807      0.173
 5.4        42.250     0.899      0.181
 5.4        42.750     0.341      0.166
 5.4        43.250     0.549      0.183
 5.4        43.750     0.882      0.182
 5.4        44.250     1.003      0.191
 5.4        44.750     0.808      0.197
 5.4        45.250     0.593      0.192
 5.4        45.750     0.656      0.201
 5.4        46.250     0.752      0.187
 5.4        46.750     0.728      0.193
 5.4        47.250     0.779      0.205
 5.4        47.750     0.680      0.200
 5.4        48.250     0.473      0.183
 5.4        48.750     0.630      0.197
 5.4        49.250     0.340      0.176
 5.4        49.750     0.520      0.186
 8.3        -3.250     0.000      0.000
 8.3        -2.750     0.004      0.004
 8.3        -2.250     0.026      0.020
 8.3        -1.750     0.023      0.017
 8.3        -1.250     0.010      0.008
 8.3        -0.750     0.109      0.045
 8.3        -0.250     0.093      0.043
 8.3         0.250     0.436      0.107
 8.3         0.750     0.641      0.131
 8.3         1.250     0.544      0.118
 8.3         1.750     0.490      0.115
 8.3         2.250     0.399      0.105
 8.3         2.750     0.327      0.092
 8.3         3.250     0.655      0.136
 8.3         3.750     0.701      0.144
 8.3         4.250     0.593      0.145
 8.3         4.750     0.549      0.140
 8.3         5.250     0.439      0.140
 8.3         5.750     0.686      0.160
 8.3         6.250     0.815      0.163
 8.3         6.750     0.704      0.153
 8.3         7.250     0.752      0.186
 8.3         7.750     1.015      0.171
 8.3         8.250     0.937      0.176
 8.3         8.750     0.780      0.167
 8.3         9.250     1.142      0.185
 8.3         9.750     1.255      0.192
 8.3        10.250     1.450      0.191
 8.3        10.750     1.512      0.192
 8.3        11.250     1.561      0.210
 8.3        11.750     1.563      0.213
 8.3        12.250     1.335      0.188
 8.3        12.750     1.373      0.219
 8.3        13.250     1.435      0.214
 8.3        13.750     1.363      0.212
 8.3        14.250     1.577      0.216
 8.3        14.750     1.668      0.204
 8.3        15.250     1.539      0.195
 8.3        15.750     1.774      0.222
 8.3        16.250     1.565      0.225
 8.3        16.750     1.123      0.209
 8.3        17.250     1.477      0.229
 8.3        17.750     1.134      0.200
 8.3        18.250     1.579      0.235
 8.3        18.750     1.554      0.243
 8.3        19.250     1.692      0.236
 8.3        19.750     1.998      0.256
 8.3        20.250     1.813      0.226
 8.3        20.750     1.609      0.231
 8.3        21.250     1.490      0.242
 8.3        21.750     2.058      0.270
 8.3        22.250     2.013      0.267
 8.3        22.750     1.981      0.254
 8.3        23.250     1.801      0.241
 8.3        23.750     1.526      0.222
 8.3        24.250     1.627      0.239
 8.3        24.750     1.135      0.240
 8.3        25.250     0.771      0.240
 8.3        25.750     1.314      0.232
 8.3        26.250     1.484      0.220
 8.3        26.750     1.437      0.233
 8.3        27.250     1.009      0.198
 8.3        27.750     1.089      0.208
 8.3        28.250     1.561      0.246
 8.3        28.750     1.209      0.244
 8.3        29.250     1.556      0.249
 8.3        29.750     1.360      0.233
 8.3        30.250     1.224      0.211
 8.3        30.750     1.640      0.243
 8.3        31.250     1.333      0.227
 8.3        31.750     1.236      0.229
 8.3        32.250     1.092      0.221
 8.3        32.750     1.345      0.236
 8.3        33.250     0.677      0.247
 8.3        33.750     1.070      0.254
 8.3        34.250     1.025      0.255
 8.3        34.750     0.995      0.230
 8.3        35.250     1.207      0.237
 8.3        35.750     1.288      0.249
 8.3        36.250     1.162      0.243
 8.3        36.750     0.659      0.208
 8.3        37.250     1.024      0.239
 8.3        37.750     0.859      0.220
 8.3        38.250     0.865      0.220
 8.3        38.750     1.133      0.234
 8.3        39.250     0.754      0.209
 8.3        39.750     0.855      0.241
 8.3        40.250     0.907      0.234
 8.3        40.750     1.553      0.251
 8.3        41.250     1.299      0.243
 8.3        41.750     0.949      0.239
 8.3        42.250     0.932      0.250
 8.3        42.750     0.836      0.253
 8.3        43.250     0.928      0.243
 8.3        43.750     0.826      0.241
 8.3        44.250     0.883      0.250
 8.3        44.750     1.197      0.260
 8.3        45.250     0.740      0.227
 8.3        45.750     0.566      0.255
 8.3        46.250     0.766      0.266
 8.3        46.750     1.061      0.253
 8.3        47.250     0.361      0.231
 8.3        47.750     0.944      0.270
 8.3        48.250     0.867      0.258
 8.3        48.750     0.684      0.251
 8.3        49.250     0.730      0.268
 8.3        49.750     1.036      0.265
12.0        -1.750     0.000      0.000
12.0        -1.250     0.006      0.006
12.0        -0.750     0.068      0.045
12.0        -0.250     0.074      0.041
12.0         0.250     0.312      0.091
12.0         0.750     0.319      0.095
12.0         1.250     0.326      0.102
12.0         1.750     0.272      0.088
12.0         2.250     0.339      0.096
12.0         2.750     0.409      0.105
12.0         3.250     0.592      0.132
12.0         3.750     0.360      0.102
12.0         4.250     0.432      0.123
12.0         4.750     0.264      0.101
12.0         5.250     0.351      0.095
12.0         5.750     0.226      0.076
12.0         6.250     0.436      0.123
12.0         6.750     0.375      0.119
12.0         7.250     0.207      0.081
12.0         7.750     0.318      0.100
12.0         8.250     0.552      0.140
12.0         8.750     0.408      0.119
12.0         9.250     0.570      0.152
12.0         9.750     0.425      0.155
12.0        10.250     0.758      0.180
12.0        10.750     0.236      0.132
12.0        11.250     0.719      0.171
12.0        11.750     0.772      0.158
12.0        12.250     0.529      0.153
12.0        12.750     0.333      0.159
12.0        13.250     0.724      0.187
12.0        13.750     0.731      0.174
12.0        14.250     0.828      0.170
12.0        14.750     0.691      0.159
12.0        15.250     0.689      0.171
12.0        15.750     0.725      0.185
12.0        16.250     0.689      0.217
12.0        16.750     0.747      0.213
12.0        17.250     0.615      0.206
12.0        17.750     0.528      0.190
12.0        18.250     0.787      0.179
12.0        18.750     0.925      0.209
12.0        19.250     0.734      0.173
12.0        19.750     1.033      0.205
12.0        20.250     0.841      0.193
12.0        20.750     0.824      0.191
12.0        21.250     0.751      0.188
12.0        21.750     1.039      0.210
12.0        22.250     1.036      0.199
12.0        22.750     1.252      0.218
12.0        23.250     0.987      0.209
12.0        23.750     0.957      0.209
12.0        24.250     1.087      0.217
12.0        24.750     0.963      0.223
12.0        25.250     1.220      0.245
12.0        25.750     1.218      0.224
12.0        26.250     1.268      0.223
12.0        26.750     1.240      0.227
12.0        27.250     1.110      0.222
12.0        27.750     0.911      0.204
12.0        28.250     1.034      0.201
12.0        28.750     1.334      0.269
12.0        29.250     1.135      0.253
12.0        29.750     0.857      0.225
12.0        30.250     1.324      0.244
12.0        30.750     1.153      0.220
12.0        31.250     1.376      0.234
12.0        31.750     1.137      0.223
12.0        32.250     0.965      0.234
12.0        32.750     1.320      0.261
12.0        33.250     0.797      0.231
12.0        33.750     1.306      0.278
12.0        34.250     0.806      0.236
12.0        34.750     1.499      0.270
12.0        35.250     1.428      0.283
12.0        35.750     0.746      0.239
12.0        36.250     1.019      0.243
12.0        36.750     1.726      0.279
12.0        37.250     1.453      0.263
12.0        37.750     0.701      0.197
12.0        38.250     0.943      0.228
12.0        38.750     0.858      0.236
12.0        39.250     1.118      0.251
12.0        39.750     0.685      0.232
12.0        40.250     0.721      0.235
12.0        40.750     1.282      0.265
12.0        41.250     1.286      0.274
12.0        41.750     1.126      0.258
12.0        42.250     1.155      0.284
12.0        42.750     0.856      0.278
12.0        43.250     0.842      0.260
12.0        43.750     0.925      0.252
12.0        44.250     1.045      0.259
12.0        44.750     0.895      0.279
12.0        45.250     1.121      0.290
12.0        45.750     1.501      0.303
12.0        46.250     0.927      0.250
12.0        46.750     1.233      0.287
12.0        47.250     1.032      0.274
12.0        47.750     0.921      0.254
12.0        48.250     0.821      0.247
12.0        48.750     0.671      0.254
12.0        49.250     0.712      0.261
12.0        49.750     0.993      0.266
ENDDATA            553
ENDSUBENT          563
ENDENTRY             2
