ENTRY            40236   20151210   20160302   20160210       4173
SUBENT        40236001   20151210   20160302   20160210       4173
BIB                 15         41
INSTITUTE  (4RUSKUR)
REFERENCE  (J,SNP,8,619,1969) Eng.transl.of YF,8,(6),1067,1968
           (J,YF,8,(6),1067,196812) Some tables, graphs and
           schemes of levels are given
AUTHOR     (L.V.Groshev,V.N.Dvoretskii,A.M.Demidov,A.S.Rakhimov)
TITLE      Spectra of gamma-rays produced upon capture
           of thermal neutrons by Nd isotopes
FACILITY   (REAC,4RUSKUR) Reactor IRT-M
INC-SOURCE The flux of thermal neutrons from the reactor IRT-M
            ~1. 10**6 n/cm2/sec .
           Cd ratio exceeded 300 ( relative to In).
METHOD     Direct detection of gammas
DETECTOR   (GELI)  Germanium-lithium detector with sensible
                   volume 2.3 cm**3 - to measure gamma spectra
           for enriched and natural samples.
           (MAGSP)   Magnetic Compton spectrometer was used  to
           measure spectrum for natural sample.
           Resolution ~16 keV at ~6 MeV gamma energy, 2.5 keV at
           low energies.
ANALYSIS   (AREA)  Area analysis
MONITOR    For energy determination the gamma-lines of Fe-57 and
           Cl-36 were used .
PART-DET   (G)  Gammas
ASSUMED    (ASSUM,60-ND-0(N,ABS),,SIG)
           Isotopic capture cross section,b for thermal neutrons:
            Nd-142  Nd-143  Nd-144  Nd-145  Nd-146  Nd-148  Nd-150
            17.     330.    5.      50.     2.      4.      1.5
           from: Nuclear Data, vol.2, is.1, 1967
ERR-ANALYS Energy errors were 3-5 keV depending on the peak
           intensity
ADD-RES         Levels schemes and gamma-transition schemes for
           Nd isotopes.
HISTORY    (19741025C) Compiled at the centre
           (20150206U) SD: Updated to new date formats,lower case.
            Ref. on Engl.transl. of YF added. Author's name
            corrected (Dvoreckij -> Dvoretskii). DATA units were
            changed (GAM/100N -> PC/INC) and STATUS added
            in Subents 2-6.
           (20151210A) M.M. Article was checked, BIB information
           was updated in INC-SOURCE,DETECTOR.
           ASSUMED, ADD-RES were added.
ENDBIB              41
COMMON               3          3
EN         ASSUM      ASSUM-ERR
EV         B          B
 2.5000E-02  52.       2.
ENDCOMMON            3
ENDSUBENT           48
SUBENT        40236002   20151210   20160302   20160210       4173
BIB                  3          7
REACTION   (60-ND-143(N,G)60-ND-144,,SPC)
             capture gamma spectrum
SAMPLE     (60-ND-143,ENR=0.832)
            Isotopic composition of the sample (percent)
           Nd-142  Nd-143  Nd-144  Nd-145  Nd-146  Nd-148  Nd-150
            2.9      83.2    11.8    1.0     0.9     0.1     0.1
STATUS     (TABLE) Tbl. III from YF,8,(6),1067,1968
ENDBIB               7
NOCOMMON             0          0
DATA                 2          3
E          DATA
KEV        PC/INC
 4.3560E+03 1.1300E+00
 4.8220E+03 2.6400E+00
 5.3850E+03 8.5000E+00
ENDDATA              5
ENDSUBENT           17
SUBENT        40236003   20151210   20160302   20160210       4173
BIB                  4          9
REACTION   (60-ND-144(N,G)60-ND-145,,SPC)
            capture gamma spectrum
SAMPLE     (60-ND-144,ENR=0.915)
           Isotopic composition of the sample (percent)
           Nd-142  Nd-143  Nd-144  Nd-145  Nd-146
             0.8     2.2     91.5    4.3     1.2
STATUS     (TABLE) Tbl. II from YF,8,(6),1067,1968
HISTORY    (20150206A) SD: Energy value was changed according to
            the table (1.6760E+03 -> 4.6760E+03).
ENDBIB               9
NOCOMMON             0          0
DATA                 2         25
E          DATA
KEV        PC/INC
 4.1310E+03 5.7000E-01
 4.2680E+03 4.0000E-01
 4.3600E+03 4.4000E-01
 4.4140E+03 6.2000E-01
 4.4400E+03 5.3000E-01
 4.4670E+03 1.1000E-01
 4.5080E+03 6.6000E-01
 4.5420E+03 6.6000E-01
 4.5700E+03 6.6000E-01
 4.5950E+03 2.2000E-01
 4.6200E+03 6.6000E-01
 4.6760E+03 6.0000E-01
 4.6960E+03 6.0000E-01
 4.7800E+03 6.2000E-01
 4.7960E+03 7.3000E-01
 4.8440E+03 2.9000E-01
 4.9220E+03 5.1000E-01
 4.9540E+03 9.5000E-01
 5.4540E+03 1.5000E+00
 5.5280E+03 1.2000E+00
 5.6430E+03 4.2000E-01
 5.7100E+03 4.2000E-01
 6.2600E+03 2.4700E+00
 6.3080E+03 5.6000E-02
 6.5040E+03 5.8000E+00
ENDDATA             27
ENDSUBENT           41
SUBENT        40236004   20151210   20160302   20160210       4173
BIB                  3          7
REACTION   (60-ND-145(N,G)60-ND-146,,SPC)
             capture gamma spectrum
SAMPLE     (60-ND-145,ENR=0.708)
           Isotopic composition of the sample (percent)
           Nd-142  Nd-143  Nd-144  Nd-145  Nd-146  Nd-148  Nd-150
             1.0     0.9     7.9    70.8     18.8    0.4     0.2
STATUS     (TABLE) Tbl. III from YF,8,(6),1067,1968
ENDBIB               7
NOCOMMON             0          0
DATA                 2          2
E          DATA
KEV        PC/INC
 4.8350E+03 1.8000E+01
 4.9790E+03 2.6600E+00
ENDDATA              4
ENDSUBENT           16
SUBENT        40236005   20151210   20160302   20160210       4173
BIB                  3          7
REACTION   (60-ND-146(N,G)60-ND-147,,SPC)
             capture gamma spectrum
SAMPLE     (60-ND-146,ENR=0.947)
           Isotopic composition of the sample (percent)
           Nd-142  Nd-143  Nd-144  Nd-145  Nd-146  Nd-148  Nd-150
             0.5     0.5     1.3     1.2    94.7     1.6    0.2
STATUS     (TABLE) Tbl. II from YF,8,(6),1067,1968
ENDBIB               7
NOCOMMON             0          0
DATA                 2         11
E          DATA
KEV        PC/INC
 4.4250E+03 2.9000E-01
 4.9860E+03 3.3000E-01
 5.0160E+03 3.7000E-01
 5.0500E+03 3.3000E-01
 5.5820E+03 3.3000E-01
 5.6480E+03 4.5000E-01
 5.7930E+03 8.7000E-01
 6.0980E+03 2.5000E+00
 6.3700E+03 1.9000E-01
 6.5160E+03 2.9000E-01
 7.1090E+03 2.9400E+00
ENDDATA             13
ENDSUBENT           25
SUBENT        40236006   20151210   20160302   20160210       4173
BIB                  4          9
REACTION   (60-ND-0(N,G),,SPC)
            capture gamma spectrum  of natural
           mixture
SAMPLE       Isotopic composition of the sample (percent)
           Nd-142  Nd-143  Nd-144  Nd-145  Nd-146  Nd-148  Nd-150
            27.11   12.17   23.85    8.30    17.22   5.73   5.62
FLAG       (1.) Magnetic Compton spectrometer was used
           (2.) germanium-lithium detector was used
STATUS     (TABLE) Tbl. II from YF,8,(6),1067,1968
ENDBIB               9
NOCOMMON             0          0
DATA                 3         95
E          DATA       FLAG
KEV        PC/INC     NO-DIM
 6.1600E+02 2.8800E+01 1.
 6.9600E+02 6.6200E+01 1.
 7.3600E+02 8.2000E+00 1.
 7.7900E+02 4.0000E+00 1.
 8.1100E+02 1.2000E+01 1.
 8.6400E+02 1.2500E+01 1.
 9.7800E+02 4.6000E+00 1.
 1.3680E+03 2.3000E+00 1.
 1.4020E+03 5.7000E+00 1.
 1.4390E+03 1.2000E+00 1.
 1.4620E+03 3.6000E+00 1.
 1.5160E+03 2.6000E+00 1.
 1.5420E+03 2.4000E+00 1.
 1.6550E+03 4.0000E+00 1.
 3.8950E+03 7.4000E-01 1.
 3.9460E+03 3.0000E-01 1.
 4.0120E+03 9.2000E-01 1.
 4.0450E+03 4.3000E-01 1.
 4.0840E+03 4.2000E-01 1.
 4.1230E+03 9.2000E-01 1.
 4.1310E+03 4.3000E-01 2.
 4.2610E+03 6.5000E-01 1.
 4.2680E+03 4.3000E-01 2.
 4.3020E+03 1.7000E-01 1.
 4.3280E+03 3.0000E-01 1.
 4.3550E+03 3.4000E-01 2.
 4.3560E+03 8.8000E-01 1.
 4.3600E+03 5.1000E-01 2.
 4.4110E+03 7.4000E-01 1.
 4.4140E+03 5.8000E-01 2.
 4.4400E+03 4.6000E-01 1.
 4.4400E+03 5.1000E-01 2.
 4.4670E+03 8.5000E-02 2.
 4.5080E+03 5.8000E-01 2.
 4.5090E+03 4.2000E-01 1.
 4.5420E+03 5.0000E-01 1.
 4.5420E+03 4.3000E-01 2.
 4.5700E+03 4.9000E-01 1.
 4.5700E+03 4.3000E-01 2.
 4.5950E+03 1.7000E-01 2.
 4.6050E+03 2.1000E-01 1.
 4.6200E+03 4.3000E-01 2.
 4.6240E+03 3.5000E-01 1.
 4.6760E+03 6.0000E-01 2.
 4.6780E+03 5.1000E-01 1.
 4.6960E+03 6.0000E-01 2.
 4.6990E+03 4.8000E-01 1.
 4.7540E+03 4.3000E-01 2.
 4.7560E+03 4.3000E-01 1.
 4.7800E+03 6.0000E-01 2.
 4.7840E+03 3.0000E-01 1.
 4.7960E+03 6.0000E-01 2.
 4.7960E+03 7.0000E-01 1.
 4.8220E+03 3.4000E-01 2.
 4.8270E+03 2.6000E-01 1.
 4.8420E+03 5.1000E-01 2.
 4.8450E+03 5.2000E-01 1.
 4.8690E+03 1.3000E-01 1.
 4.9210E+03 2.7000E-01 1.
 4.9220E+03 3.4000E-01 2.
 4.9530E+03 9.7000E-01 1.
 4.9540E+03 6.8000E-01 2.
 4.9900E+03 1.8000E-01 1.
 5.0170E+03 1.0000E-01 1.
 5.0460E+03 1.0000E-01 1.
 5.0770E+03 5.0000E-02 1.
 5.1090E+03 8.0000E-02 1.
 5.2170E+03 1.3000E-01 1.
 5.2320E+03 9.0000E-02 1.
 5.2600E+03 6.0000E-02 1.
 5.3420E+03 6.0000E-02 1.
 5.3850E+03 8.5000E-01 2.
 5.3890E+03 8.0000E-01 1.
 5.4540E+03 1.1500E+00 1.
 5.4550E+03 1.0000E+00 2.
 5.5280E+03 8.4000E-01 1.
 5.5280E+03 9.4000E-01 2.
 5.6430E+03 3.2000E-01 2.
 5.6450E+03 3.1000E-01 1.
 5.6900E+03 7.0000E-02 2.
 5.7100E+03 3.5000E-01 2.
 5.7120E+03 3.3000E-01 1.
 5.7480E+03 5.0000E-02 1.
 5.7520E+03 9.0000E-02 2.
 5.7920E+03 1.3000E-01 1.
 5.7930E+03 8.5000E-02 2.
 6.0970E+03 2.3000E-01 1.
 6.0980E+03 2.7000E-01 2.
 6.2600E+03 2.3000E+00 1.
 6.2600E+03 1.9100E+00 2.
 6.3080E+03 4.0000E-02 1.
 6.5030E+03 4.0300E+00 1.
 6.5040E+03 4.4800E+00 2.
 7.1090E+03 3.1000E-01 2.
 7.1130E+03 3.5000E-01 1.
ENDDATA             97
ENDSUBENT          111
ENDENTRY             6
