ENTRY            10520   20040427   20040517
SUBENT        10520001   20040427   20040517
BIB                 12         16
INSTITUTE  (1USACOL)
REFERENCE  (J,PR/C,11,2022,197506)
AUTHOR     (H.I.Liou,J.Rainwater,G.Hacken,U.N.Singh)
TITLE      Neutron resonance spectroscopy: 177Hf
FACILITY   (SYNCH,1USACOL) Nevis synchrocyclotron
INC-SOURCE (EVAP) Evaporation neutrons from lead.
SAMPLE     Enriched 177Hf samples of various thicknesses
METHOD     (TOF) Time-of-flight
DETECTOR   (SCIN) Plastic scintillators for self-indication
                  measurements
           (NAICR) Sodium-iodide crystals for viewing a boron slab
ERR-ANALYS (DATA-ERR) No information on source of uncertainties.
STATUS     (APRVD) Approved by author 1975/8/7.
HISTORY    (19750624C)
           (19830824A) Converted to REACTION formalism
           (20040427A) Updated to new date formats, lower case.
ENDBIB              16
NOCOMMON             0          0
ENDSUBENT           19
SUBENT        10520002   20040427   20040517
BIB                  2          4
REACTION  1(72-HF-177(N,0),,EN)
          2(72-HF-177(N,EL),,WID/RED,,G)
          3(72-HF-177(N,G),,WID)
HISTORY    (19830824A) Subentries 2,3 combined.
ENDBIB               4
COMMON               1          3
MOMENTUM L
NO-DIM
0.
ENDCOMMON            3
DATA                 6        178
DATA      1DATA-ERR  1DATA      2DATA-ERR  2DATA      3DATA-ERR  3
EV         EV         MILLI-EV   MILLI-EV   MILLI-EV   MILLI-EV
   1.098    0.02
   2.380    0.004
   5.894    0.016      0.87       0.12
   6.572    0.017      1.7        0.2
   8.868    0.019      1.1        0.1
  10.95     0.02       0.073      0.009
  13.67     0.02       0.092      0.014
  13.94     0.02       0.37       0.05
  21.95     0.03       0.23       0.04
  22.23     0.02       0.085      0.015
  23.41     0.02       0.18       0.02
  25.62     0.03       0.041      0.006
  26.99     0.03       0.26       0.03
  31.61     0.03       0.027      0.005
  32.77     0.04       0.14       0.01
  36.08     0.04       0.25       0.03
  36.94     0.04       0.89       0.08
  43.03     0.04       0.43       0.03
  45.09     0.05       0.29       0.02
  46.18     0.05       0.59       0.05
  48.76     0.05       2.6        0.3        61.        15.
  49.56     0.03       0.40       0.04
  54.71     0.04       1.07       0.08
  56.29     0.05       0.80       0.09
  57.00     0.05       0.29       0.04
  59.21     0.05       0.22       0.03
  62.15     0.06       0.099      0.019
  63.42     0.07       4.4        0.4        57.        12.
  66.69     0.08       2.7        0.4
  69.96     0.08       0.043      0.011
  71.29     0.08       0.98       0.09
  72.22     0.08       0.13       0.02
  75.41     0.08       0.078      0.023
  75.99     0.08       1.1        0.1
  82.33     0.06       0.045      0.011
  84.56     0.06       1.6        0.1        75.        20.
  85.25     0.11       0.12       0.03
  86.73     0.06       0.056      0.013
  88.51     0.06       0.20       0.03
  93.13     0.07       0.26       0.03
  97.01     0.07       1.1        0.1        62.        15.
  98.98     0.07       0.052      0.015
 103.07     0.07       2.7        0.3        56.        15.
 111.50     0.13       0.12       0.03
 111.96     0.13       0.25       0.05
 115.03     0.09       0.24       0.03
 121.17     0.09       0.21       0.03
 122.72     0.10       0.070      0.018
 123.68     0.10       0.52       0.05
 126.17     0.10       0.054      0.013
 131.59     0.11       2.3        0.2        65.        12.
 134.00     0.11       0.20       0.03
 136.15     0.12       0.032      0.010
 137.42     0.12       0.80       0.09
 141.12     0.12       1.1        0.1        70.        20.
 143.15     0.19       0.18       0.04
 143.71     0.19       0.71       0.13
 145.53     0.13       0.30       0.03
 148.52     0.13       0.75       0.07
 151.15     0.13       0.023      0.009
 152.86     0.20       0.071      0.018
 155.94     0.14       0.10       0.03
 159.97     0.15       0.17       0.03
 162.98     0.15       1.5        0.2        68.        20.
 167.28     0.15       0.28       0.05
 171.03     0.16       0.51       0.09
 174.18     0.13       0.68       0.08
 176.11     0.13       1.7        0.3
 176.70     0.13       2.1        0.4
 178.89     0.17       0.028      0.008
 180.94     0.14       0.25       0.03
 184.54     0.18       0.048      0.015
 188.01     0.18       0.024      0.015
 192.66     0.19       0.35       0.06
 194.00     0.19       0.28       0.04
 199.14     0.16       0.89       0.09        72.       18.
 201.79     0.20       0.68       0.11
 205.65     0.21       0.054      0.028
 208.64     0.17       1.7        0.2         65.       18.
 209.98     0.21       0.12       0.03
 212.05     0.22       0.058      0.021
 217.03     0.23       0.24       0.04
 219.51     0.23       0.36       0.05
 222.26     0.23       0.074      0.040
 223.30     0.24       0.12       0.07
 224.67     0.24       4.5        0.7
 226.56     0.24       0.45       0.07
 229.08     0.24       0.22       0.04
 232.20     0.25       0.039      0.013
 236.16     0.26       0.36       0.07
 238.64     0.26       1.4        0.3
 240.71     0.26       0.84       0.13        58.       20.
 248.74     0.27       0.72       0.10        57.       20.
 259.65     0.29       0.06       0.02
 264.48     0.30       2.2        0.3         51.       18.
 267.57     0.31       1.3        0.2         74.       20.
 272.22     0.31       1.8        0.4
 273.16     0.32       0.45       0.15
 284.69     0.34       5.3        0.8        112.       20.
 287.85     0.34       0.31       0.06
 294.19     0.35       0.12       0.03
 298.47     0.36       2.1        0.3
 302.37     0.37       0.09       0.03
 306.96     0.30       3.3        0.5         70.       18.
 310.92     0.38       0.24       0.06
 313.60     0.39       0.45       0.11
 319.85     0.40       0.84       0.11        77.       20.
 323.60     0.41       1.2        0.2
 327.46     0.42       3.2        0.5
 330.38     0.42       4.3        0.7
 333.40     0.43       1.2        0.2         60.       20.
 341.79     0.44       0.97       0.16        60.       20.
 348.74     0.46       2.5        0.4
 354.74     0.47       0.33       0.09
 357.08     0.47       1.2        0.2
 362.33     0.48       0.35       0.07
 367.45     0.50       1.6        0.3         75.       20.
 370.67     0.50       0.88       0.16
 375.55     0.51       7.7        1.3
 389.84     0.54       0.71       0.15
 393.63     0.55       0.17       0.05
 398.82     0.56       0.27       0.07
 406.15     0.57       2.0        0.3         61.       20.
 408.80     0.58       0.37       0.10
 412.88     0.59       0.84       0.30
 414.90     0.59       2.7        0.5
 418.80     0.60       0.68       0.15
 426.09     0.62       2.2        0.4
 429.18     0.62       1.0        0.2
 431.70     0.49       0.96       0.19
 433.56     0.50       1.4        0.3
 434.92     0.50       1.4        0.3
 435.91     0.50       1.5        0.4
 443.40     0.51       1.2        0.2
 446.57     0.52       1.6        0.4
 449.43     0.53       0.66       0.14
 453.81     0.68       0.14       0.08
 457.36     0.54       4.0        0.6         58.        20.
 466.58     0.71       0.19       0.09
 470.77     0.56       0.88       0.28
 472.17     0.56       1.5        0.4
 474.99     0.57       2.3        0.5
 478.70     0.58       1.5        0.3
 481.58     0.74       0.33       0.11
 488.60     0.60       4.8        0.7         68.        20.
 498.51     0.61       1.3        0.4
 507.15     0.63       1.6        0.4
 512.19     0.64       1.5        0.4
 520.71     0.65       0.61       0.18
 523.02     0.66       1.4        0.3
 525.46     0.66       3.1        0.7
 533.20     0.86       0.27       0.09
 539.10     0.87       0.22       0.13
 541.30     0.88       0.15       0.09
 548.63     0.71       2.9        0.4          60.       20.
 557.22     0.92       0.29       0.08
 573.74     0.76       1.3        0.4
 577.40     0.76       3.2        0.9
 581.92     0.98       1.1        0.3
 591.10     1.01       0.37       0.12
 596.92     1.02       0.32       0.16
 598.97     1.03       0.24       0.14
 604.66     0.81       2.4        0.5           54.      20.
 610.40     1.06       0.73       0.24
 612.52     1.06       1.1        0.4
 618.92     1.08       0.52       0.16
 625.54     0.86       1.2        0.4
 628.70     0.87       3.4        0.8
 633.16     1.11       0.13       0.08
 640.59     0.89       1.7        0.4
 646.40     0.90       2.8        0.7
 653.89     0.92       1.6        0.6
 657.80     0.92       0.97       0.35
 669.15     1.21       0.89       0.23
 676.47     1.23       1.4        0.4
 684.70     0.98       3.2        0.8
 693.11     1.00       2.8        0.7
 696.63     1.01       2.6        0.6
ENDDATA            180
ENDSUBENT          193
NOSUBENT      10520003     830824
SUBENT        10520004   20040427   20040517
BIB                  1          2
REACTION  1(72-HF-178(N,0),,EN)
          2(72-HF-178(N,EL),,WID/RED)
ENDBIB               2
COMMON               1          3
MOMENTUM L
NO-DIM
0.
ENDCOMMON            3
DATA                 4         12
DATA      1DATA-ERR  1DATA      2DATA-ERR  2
EV         EV         MILLI-EV   MILLI-EV
  7.770    0.027      17.6       2.5
104.76     0.08        0.87      0.20
164.59     0.15        1.2       0.3
255.17     0.23       14.        3.
274.75     0.25       13.        3.
351.49     0.46        0.75      0.37
382.05     0.52       21.        3.
446.47     0.66        7.6       1.9
502.33     0.79        4.9       1.8
527.28     0.66        5.7       1.7
577.52     0.76       15.        3.
719.32     0.53       39.        8.
ENDDATA             14
ENDSUBENT           25
SUBENT        10520005   20040427   20040517
BIB                  1          1
REACTION   (72-HF-177(N,EL),,STF)
ENDBIB               1
COMMON               1          3
MOMENTUM L
NO-DIM
0.
ENDCOMMON            3
DATA                 4          1
EN-MIN     EN-MAX     DATA       DATA-ERR
EV         EV         NO-DIM     NO-DIM
5.894      696.63        2.70E-04   0.25E-04
ENDDATA              3
ENDSUBENT           13
SUBENT        10520006   20040427   20040517
BIB                  1          1
REACTION   (72-HF-177(N,0),,D)
ENDBIB               1
COMMON               1          3
MOMENTUM L
NO-DIM
0.
ENDCOMMON            3
DATA                 3          1
EN-MAX     DATA       DATA-ERR
EV         EV         EV
100.       2.22       0.13
ENDDATA              3
ENDSUBENT           13
SUBENT        10520007   20040427   20040517
BIB                  1          1
REACTION   (72-HF-178(N,EL),,STF)
ENDBIB               1
COMMON               1          3
MOMENTUM L
NO-DIM
0.
ENDCOMMON            3
DATA                 4          1
EN-MIN     EN-MAX     DATA       DATA-ERR
EV         EV         NO-DIM     NO-DIM
 7.770     719.32         1.9E-04    0.8E-04
ENDDATA              3
ENDSUBENT           13
SUBENT        10520008   20040427   20040517
BIB                  5          5
REACTION   (72-HF-177(N,TOT),,SIG)
SAMPLE     Sample thickness 940.0 b/atom.
CORRECTION Uncorrected cross section data.
STATUS     Data received from authors.
HISTORY    (20040427C) Data converted from CSISRS/A file.
ENDBIB               5
NOCOMMON             0          0
DATA                 2       4070
EN         DATA
EV         B
  999.70      46.24
  999.26      69.57
  998.83     -25.02
  998.40      22.26
  997.97      72.07
  997.54      24.90
  997.11      68.02
  996.67      40.75
  996.24     116.51
  995.81      53.51
  995.38     123.12
  994.95     115.57
  994.52     104.52
  994.09     -61.76
  993.67      65.54
  993.24      -0.73
  992.81     -62.67
  992.38      85.33
  991.95     -17.43
  991.53      43.72
  991.10      53.49
  990.67     126.95
  990.24     108.54
  989.82      16.13
  989.39     -34.78
  988.97      25.31
  988.54     129.04
  988.11      11.66
  987.69      11.36
  987.26      24.09
  986.84      -2.11
  986.42       7.21
  985.99     112.61
  985.57      26.15
  985.14      52.56
  984.72      65.90
  984.30      31.84
  983.88      -7.42
  983.45      85.82
  983.03      -1.65
  982.61      27.31
  982.19      -2.25
  981.77      95.18
  981.35      26.40
  980.92     -22.17
  980.50      12.67
  980.08     101.07
  979.66      51.96
  979.24      86.25
  978.82     -14.23
  978.41     -66.88
  977.99     -27.42
  977.57      43.67
  977.15      98.90
  976.73     -59.05
  976.31     142.20
  975.90     160.81
  975.48      25.44
  975.06      18.54
  974.65      14.95
  974.23     100.32
  973.81     147.85
  973.40      47.38
  972.98      60.74
  972.57      84.85
  972.15      46.46
  971.74      -0.17
  971.32      62.97
  970.91     138.15
  970.49       8.66
  970.08       1.85
  969.67     163.78
  969.25      11.02
  968.84      64.59
  968.43     194.14
  968.01     110.14
  967.60      43.11
  967.19     116.83
  966.78     138.78
  966.37      42.20
  965.96      -1.16
  965.54     -30.15
  965.13      51.51
  964.72      37.60
  964.31      89.35
  963.90      96.21
  963.49     182.45
  963.08      60.32
  962.68      98.89
  962.27     116.80
  961.86      87.51
  961.45      76.57
  961.04      45.06
  960.63      72.44
  960.23      41.05
  959.82      33.97
  959.41     133.21
  959.01      -9.49
  958.60      26.34
  958.19     155.05
  957.79      15.75
  957.38      66.50
  956.98     335.70
  956.57      34.93
  956.17     184.72
  955.76      54.85
  955.36     -15.39
  954.95      50.80
  954.55      47.05
  954.14      33.12
  953.74      63.77
  953.34      49.59
  952.94     239.47
  952.53     166.18
  952.13      73.10
  951.73      -1.90
  951.33      93.93
  950.92       4.05
  950.52     107.89
  950.12      61.04
  949.72     152.39
  949.32     211.68
  948.92      81.32
  948.52     102.70
  948.12     113.42
  947.72     -21.05
  947.32     -30.91
  946.92      -5.47
  946.52     149.92
  946.13      44.16
  945.73    -111.16
  945.33     -35.56
  944.93      81.87
  944.53      53.33
  944.14     -10.81
  943.74     155.48
  943.34     -17.88
  942.95      73.22
  942.55      55.31
  942.15     -12.29
  941.76     -69.29
  941.36      -9.63
  940.97      23.23
  940.57      82.13
  940.18     164.41
  939.78      -7.55
  939.39      70.50
  938.99      25.12
  938.60      91.46
  938.21      73.15
  937.81       7.45
  937.42     154.44
  937.03      79.41
  936.63     153.83
  936.24      64.55
  935.85      60.72
  935.46     145.17
  935.07     160.41
  934.68     103.07
  934.28      18.17
  933.89     140.10
  933.50      83.90
  933.11      72.81
  932.72     -12.88
  932.33      97.58
  931.94     127.13
  931.55     -52.14
  931.16     137.96
  930.78      22.26
  930.39      39.08
  930.00      66.84
  929.61       4.55
  929.22     109.96
  928.83     109.66
  928.45      87.25
  928.06     174.67
  927.67     162.45
  927.29     166.10
  926.90     177.76
  926.51     353.51
  926.13     145.57
  925.74      70.69
  925.36     221.74
  924.97     -41.31
  924.59     106.34
  924.20      17.22
  923.82      51.45
  923.43      94.32
  923.05      83.04
  922.66      93.72
  922.28      68.00
  921.90      96.81
  921.51      74.60
  921.13     185.27
  920.75      42.07
  920.37      73.70
  919.98     106.46
  919.60      55.24
  919.22      37.40
  918.84     212.28
  918.46     -68.26
  918.08      36.52
  917.70      12.21
  917.32      93.21
  916.94     107.79
  916.56      38.81
  916.18      92.31
  915.80      77.36
  915.42     106.59
  915.04     283.14
  914.66      40.83
  914.28      -0.53
  913.90      54.33
  913.52     207.97
  913.15      82.57
  912.77     104.50
  912.39     186.38
  912.01      21.44
  911.64       7.52
  911.26      34.68
  910.88     110.52
  910.51      13.43
  910.13      26.86
  909.75      -0.68
  909.38      94.34
  909.00     124.25
  908.63     -69.54
  908.25     -66.70
  907.88      49.60
  907.51      81.77
  907.13     198.59
  906.76      88.55
  906.38     185.60
  906.01      66.02
  905.64     125.39
  905.26     192.92
  904.89     117.12
  904.52     192.31
  904.15     143.63
  903.77     104.84
  903.40     154.89
  903.03     282.22
  902.66      10.70
  902.29     146.07
  901.92      88.39
  901.55      -3.73
  901.18     161.07
  900.81       5.84
  900.44      72.49
  900.07      46.97
  899.70     -38.23
  899.33     -57.81
  898.96      14.64
  898.59      49.36
  898.22     -93.02
  897.85      92.58
  897.48     211.66
  897.11     202.91
  896.75     153.46
  896.38     240.92
  896.01      43.75
  895.65      83.36
  895.28     -25.32
  894.91     136.14
  894.55     192.41
  894.18     247.87
  893.81     212.86
  893.45     238.46
  893.08     306.22
  892.72     199.26
  892.35     103.20
  891.99     133.75
  891.62      80.12
  891.26      11.98
  890.89     -15.47
  890.53     249.23
  890.17      82.65
  889.80     135.89
  889.44      42.05
  889.08      17.15
  888.71     111.69
  888.35     242.97
  887.99     118.80
  887.63     103.16
  887.26     118.21
  886.90     344.20
  886.54     121.49
  886.18     236.73
  885.82      53.49
  885.46      97.59
  885.10      60.16
  884.74     155.61
  884.38      66.88
  884.02     -30.91
  883.66       9.36
  883.30     107.26
  882.94      51.15
  882.58      47.26
  882.22     -19.02
  881.86     106.08
  881.50     -29.60
  881.14     -90.90
  880.79     -13.43
  880.43     112.59
  880.07     -40.64
  879.71     192.60
  879.36      85.06
  879.00      84.76
  878.64      12.25
  878.29     118.58
  877.93     114.40
  877.57     -52.42
  877.22      75.83
  876.86      90.55
  876.51     194.12
  876.15     160.62
  875.80     -37.47
  875.44      27.20
  875.09     104.33
  874.73      26.62
  874.38     179.74
  874.03     134.70
  873.67      91.70
  873.32     102.87
  872.97     133.82
  872.61     125.61
  872.26     194.76
  871.91     264.85
  871.55      71.17
  871.20      23.74
  870.85      78.06
  870.50      59.21
  870.15      19.35
  869.80     119.33
  869.44     213.79
  869.09      80.36
  868.74     235.11
  868.39      64.85
  868.04     110.07
  867.69      -6.98
  867.34      75.15
  866.99     -60.90
  866.64      23.56
  866.29      16.20
  865.95      19.44
  865.60     -35.74
  865.25      77.17
  864.90     135.02
  864.55      46.99
  864.20      35.84
  863.86      83.55
  863.51      79.48
  863.16      86.77
  862.81      13.35
  862.47     -38.28
  862.12     101.23
  861.77      52.00
  861.43     132.09
  861.08      73.70
  860.74     155.78
  860.39     111.44
  860.04     268.30
  859.70     272.63
  859.35     171.14
  859.01      87.10
  858.66      38.48
  858.32      94.19
  857.98      45.19
  857.63     144.98
  857.29      89.48
  856.94     164.92
  856.60      47.70
  856.26     100.17
  855.92       0.66
  855.57     -43.90
  855.23     -50.81
  854.89      35.34
  854.55     118.30
  854.20     -18.03
  853.86      -4.52
  853.52      78.68
  853.18     191.17
  852.84     221.31
  852.50     -72.66
  852.16     280.00
  851.82      21.98
  851.48     115.68
  851.14     172.44
  850.80      35.55
  850.46      46.22
  850.12      68.25
  849.78      23.86
  849.44     133.92
  849.10      -1.50
  848.76      63.35
  848.42      37.19
  848.08      59.04
  847.75      55.03
  847.41     173.42
  847.07     207.47
  846.73     115.59
  846.40      31.85
  846.06      -4.04
  845.72      20.46
  845.39      75.59
  845.05      98.41
  844.71      19.61
  844.38     200.75
  844.04     235.91
  843.71     231.11
  843.37     300.78
  843.03     345.09
  842.70     234.72
  842.36     152.33
  842.03     123.51
  841.70      83.92
  841.36     110.97
  841.03      98.87
  840.69      34.32
  840.36      82.78
  840.03     146.17
  839.69      51.92
  839.36      36.85
  839.03      97.15
  838.70      92.96
  838.36     -54.80
  838.03      80.78
  837.70      80.49
  837.37      38.83
  837.03     123.21
  836.70      23.66
  836.37      -8.67
  836.04     163.49
  835.71     233.02
  835.38     -23.41
  835.05      89.82
  834.72      66.47
  834.39      81.50
  834.06     -14.12
  833.73     326.47
  833.40      39.13
  833.07     140.09
  832.74      53.45
  832.41      45.69
  832.08      64.20
  831.75    -108.92
  831.43      19.16
  831.10     -27.03
  830.77     117.75
  830.44      78.08
  830.12      70.12
  829.79     -24.68
  829.46     191.91
  829.13     144.88
  828.81     -15.08
  828.48      61.09
  828.15     111.45
  827.83     221.43
  827.50     155.96
  827.18      44.91
  826.85      78.83
  826.52      82.42
  826.20     101.76
  825.87       3.62
  825.55     158.43
  825.23      65.88
  824.90     116.62
  824.58     157.57
  824.25      92.16
  823.93      91.88
  823.60      34.40
  823.28     103.18
  822.96     203.65
  822.63      44.72
  822.31     118.38
  821.99     172.26
  821.67     -65.51
  821.34      -0.27
  821.02     -14.72
  820.70      13.57
  820.38      16.93
  820.06       2.20
  819.74      20.02
  819.41      68.47
  819.09     -40.68
  818.77     -23.66
  818.29     116.85
  817.65      92.27
  817.01      72.15
  816.37      -2.77
  815.73       3.85
  815.10     107.95
  814.46     142.24
  813.82      69.34
  813.19      47.75
  812.55     134.28
  811.92     189.23
  811.29     162.63
  810.65     297.58
  810.02     121.70
  809.39      67.36
  808.76     295.80
  808.13     292.74
  807.50     277.49
  806.87     222.74
  806.25      32.24
  805.62      35.43
  804.99      82.99
  804.37      28.71
  803.75     122.21
  803.12     -31.99
  802.50      78.78
  801.88     132.96
  801.26     -26.60
  800.63      75.14
  800.01      78.52
  799.40     126.54
  798.78     128.06
  798.16     142.18
  797.54     112.48
  796.93     128.45
  796.31       3.11
  795.70      28.48
  795.08      48.80
  794.47     173.21
  793.85     115.28
  793.24     146.15
  792.63     169.32
  792.02     218.08
  791.41      22.77
  790.80      76.12
  790.19     198.13
  789.58     138.52
  788.98     168.10
  788.37     216.95
  787.77     283.26
  787.16     206.63
  786.56     215.23
  785.95     261.92
  785.35     177.93
  784.75     184.04
  784.15     100.21
  783.54     143.56
  782.94     109.36
  782.34     188.49
  781.75     154.81
  781.15     286.81
  780.55     520.38
  779.95     549.04
  779.36     325.88
  778.76     178.39
  778.17      50.82
  777.57     163.98
  776.98     110.03
  776.39      11.03
  775.79      98.61
  775.20     204.43
  774.61     313.43
  774.02     410.72
  773.43     205.04
  772.84     108.24
  772.26      -0.19
  771.67      14.21
  771.08       2.45
  770.50     150.72
  769.91     124.37
  769.33     156.16
  768.74      92.01
  768.16      -5.80
  767.58      86.82
  766.99       6.15
  766.41      32.21
  765.83     -22.60
  765.25       6.42
  764.67     102.63
  764.09      39.73
  763.52       4.81
  762.94     115.65
  762.36      53.81
  761.79     125.16
  761.21     184.09
  760.64     266.69
  760.06     276.11
  759.49     127.24
  758.92      48.59
  758.34     -31.33
  757.77     -31.86
  757.20      48.95
  756.63      70.39
  756.06      71.88
  755.49     176.26
  754.92      91.28
  754.36     130.92
  753.79      37.86
  753.22     121.22
  752.66      11.68
  752.09     139.59
  751.53      71.62
  750.96      91.63
  750.40      40.53
  749.84     182.11
  749.28     119.54
  748.72      97.81
  748.15      60.29
  747.59      73.96
  747.04     -30.96
  746.48      76.98
  745.92      30.38
  745.36       2.87
  744.80      33.23
  744.25     131.94
  743.69      95.04
  743.14      25.77
  742.58      56.95
  742.03     101.85
  741.48       6.80
  740.92      69.57
  740.37      25.07
  739.82     116.76
  739.27     257.69
  738.72      53.22
  738.17     102.31
  737.62     -13.94
  737.07      67.87
  736.52     139.71
  735.98      81.25
  735.43      44.01
  734.89      78.11
  734.34       3.78
  733.80     148.12
  733.25     125.46
  732.71     105.46
  732.17      77.51
  731.62     130.42
  731.08      64.06
  730.54      53.34
  730.00     -26.86
  729.46      30.24
  728.92     165.86
  728.38     167.61
  727.84     133.27
  727.31     304.64
  726.77     441.11
  726.23     361.02
  725.70     246.28
  725.16      46.03
  724.63     143.40
  724.10     174.80
  723.56     126.76
  723.03      66.42
  722.50     191.91
  721.97     293.74
  721.44     282.69
  720.90     128.50
  720.38     302.67
  719.85     480.68
  719.32     813.13
  718.79     463.53
  718.26     261.29
  717.74     145.42
  717.21     129.20
  716.68     158.01
  716.16      91.09
  715.63     138.77
  715.11      56.46
  714.59      23.52
  714.06     108.39
  713.54     132.15
  713.02     109.51
  712.50     242.55
  711.98     415.71
  711.46     277.37
  710.94     145.27
  710.42     142.47
  709.90      10.93
  709.38      20.32
  708.87      -5.75
  708.35      74.69
  707.83      65.75
  707.32      82.13
  706.80      31.79
  706.29      21.21
  705.78      34.80
  705.26      34.28
  704.75     141.16
  704.24     170.68
  703.73      93.50
  703.22      92.97
  702.71      77.42
  702.20     120.49
  701.69      91.40
  701.18      95.22
  700.67      50.13
  700.16      92.00
  699.66     -22.69
  699.15      58.99
  698.64      64.78
  698.14     105.20
  697.63     197.16
  697.13     256.82
  696.63     304.09
  696.12     136.72
  695.62      57.46
  695.12     -48.13
  694.62     -61.67
  694.11     121.03
  693.61     202.65
  693.11     400.69
  692.61     246.78
  692.12     184.04
  691.62      34.66
  691.12      30.04
  690.62     -12.47
  690.13      37.24
  689.63      63.93
  689.13      42.42
  688.64      13.28
  688.14      10.76
  687.65     155.52
  687.16      89.35
  686.66     154.47
  686.17     146.94
  685.68     123.43
  685.19     208.39
  684.70     296.40
  684.21     207.32
  683.72     179.85
  683.23     155.49
  682.74      91.28
  682.25     104.05
  681.76      45.17
  681.28      70.15
  680.79      17.30
  680.30      62.68
  679.82      64.31
  679.33      -8.34
  678.85      25.50
  678.36     169.25
  677.88      18.34
  677.40      96.66
  676.91     123.19
  676.43      62.88
  675.95     122.16
  675.47      38.55
  674.99     112.02
  674.51     116.04
  674.03      28.70
  673.55      64.12
  673.07      48.65
  672.60      18.93
  672.12     136.48
  671.64     145.32
  671.16     171.04
  670.69      33.49
  670.21      -7.92
  669.74     120.02
  669.26     154.56
  668.79     142.21
  668.32     132.34
  667.84      93.08
  667.37     103.80
  666.90     159.13
  666.43      87.09
  665.96     136.77
  665.49      27.94
  665.02      19.13
  664.55      33.22
  664.08       1.72
  663.61      30.12
  663.14       4.80
  662.68     144.94
  662.21      73.68
  661.74      51.45
  661.28      -1.27
  660.81      39.76
  660.35     107.49
  659.88      73.35
  659.42      92.87
  658.95     103.68
  658.49     126.21
  658.03     166.21
  657.57     136.92
  657.11      65.93
  656.64      92.08
  656.18     140.12
  655.72      64.42
  655.26     122.64
  654.81     172.39
  654.35     214.61
  653.89     183.72
  653.43     244.95
  652.97      57.04
  652.52      47.87
  652.06      36.64
  651.61     135.01
  651.15     115.74
  650.70      50.19
  650.24     107.78
  649.79     104.98
  649.33       4.28
  648.88      43.88
  648.43     129.08
  647.98     116.84
  647.53      64.19
  647.07     270.02
  646.62     300.20
  646.17     233.93
  645.72     225.51
  645.28      79.49
  644.83     163.55
  644.38      71.78
  643.93     -32.09
  643.48     100.22
  643.04     151.74
  642.59      85.52
  642.15     129.10
  641.70     130.97
  641.26     159.48
  640.81     257.22
  640.37     203.72
  639.92     126.57
  639.48     100.31
  639.04      30.83
  638.60      36.79
  638.15     131.70
  637.71      25.07
  637.27      88.63
  636.83      83.57
  636.39      56.17
  635.95     155.84
  635.51      57.39
  635.07     -15.52
  634.64      43.22
  634.20     131.96
  633.76     100.77
  633.33      30.89
  632.89      43.43
  632.45      40.76
  632.02      64.58
  631.58      86.74
  631.15      93.15
  630.72       8.74
  630.28      92.15
  629.85      84.76
  629.42     188.38
  628.98     334.41
  628.55     395.70
  628.12     176.67
  627.69     126.85
  627.26      91.00
  626.83     145.27
  626.40     115.80
  625.97     220.83
  625.54     207.12
  625.11     170.61
  624.69      -2.27
  624.26     110.94
  623.83     171.63
  623.41      54.74
  622.98      65.49
  622.55     -43.74
  622.13     101.38
  621.70     119.88
  621.28      50.07
  620.86      47.36
  620.43      55.80
  620.01     117.90
  619.59     194.81
  619.17     207.41
  618.74       3.65
  618.32      31.21
  617.90     198.01
  617.48      17.19
  617.06     -43.89
  616.64     -19.76
  616.22      64.47
  615.80      59.44
  615.39     119.68
  614.97      63.01
  614.55     -24.23
  614.13     238.98
  613.72      68.38
  613.30      84.05
  612.89     199.84
  612.47     201.98
  612.06      75.63
  611.64     157.13
  611.23      90.96
  610.81     199.97
  610.40     125.89
  609.99     125.40
  609.57      29.85
  609.16      47.18
  608.75      74.05
  608.34      82.86
  607.93      98.87
  607.52      -2.91
  607.11     177.19
  606.70     123.91
  606.29      48.30
  605.88     108.38
  605.47     204.07
  605.07     264.10
  604.66     292.44
  604.25     254.60
  603.85     188.85
  603.44      60.85
  603.03      53.52
  602.63     114.15
  602.22      94.43
  601.82      -9.57
  601.42       2.83
  601.01      74.14
  600.61      48.36
  600.21      96.78
  599.80      45.14
  599.40     110.25
  599.00      85.81
  598.60      75.92
  598.20     103.96
  597.80     110.74
  597.40     165.32
  597.00     190.97
  596.60     109.28
  596.20     -24.66
  595.80      74.89
  595.40       6.57
  595.01      95.28
  594.61      52.59
  594.21     130.99
  593.82     171.26
  593.42      37.50
  593.02      10.30
  592.63      64.05
  592.23      56.62
  591.84     176.65
  591.44     155.40
  591.05     104.95
  590.66     154.43
  590.26      26.95
  589.87      56.07
  589.48     -24.16
  589.09     104.97
  588.70     119.23
  588.31      87.10
  587.92      67.67
  587.53     205.96
  587.14      29.92
  586.75     129.28
  586.36     143.97
  585.97     115.86
  585.58      69.51
  585.19      -1.30
  584.81      40.71
  584.42     123.88
  584.03      46.65
  583.65     110.51
  583.26     107.57
  582.87     175.95
  582.49     191.47
  582.10     215.51
  581.72     143.27
  581.34     120.04
  580.95     139.75
  580.57     152.11
  580.19      44.23
  579.80      64.75
  579.42     122.65
  579.04     119.66
  578.66      82.39
  578.28     235.77
  577.90     398.87
  577.52     609.08
  577.14     460.56
  576.76     360.97
  576.38     170.34
  576.00     194.00
  575.62     190.80
  575.24     223.38
  574.87     155.27
  574.49     197.50
  574.11     194.29
  573.74     182.97
  573.36     153.34
  572.98     109.53
  572.61      60.52
  572.23     131.27
  571.86      31.62
  571.48     -35.30
  571.11     206.87
  570.74      16.56
  570.36      72.00
  569.99     -43.52
  569.62     130.49
  569.25      72.99
  568.87     124.44
  568.50      64.87
  568.13     123.49
  567.76      45.03
  567.39      65.85
  567.02      87.16
  566.65      53.03
  566.28      -6.90
  565.91      28.78
  565.55     145.91
  565.18     114.63
  564.81      74.61
  564.44      86.32
  564.07     -42.31
  563.71      44.60
  563.34      87.37
  562.98      36.66
  562.61     252.65
  562.25       3.68
  561.88     123.09
  561.52      77.69
  561.15      57.92
  560.79      64.65
  560.42      -0.87
  560.06      26.00
  559.70     122.82
  559.34      36.70
  558.97      13.14
  558.61      38.12
  558.25      66.22
  557.89     167.73
  557.53     186.29
  557.17      64.82
  556.81     158.26
  556.45      63.90
  556.09      82.95
  555.73      46.22
  555.37      84.49
  555.01      40.57
  554.66     150.10
  554.30      14.05
  553.94     125.59
  553.58      36.37
  553.23      91.64
  552.87     -12.69
  552.52      58.81
  552.16      85.27
  551.81      79.85
  551.45      31.27
  551.10     103.94
  550.74     126.56
  550.39     100.48
  550.04      53.18
  549.68     119.98
  549.33     276.52
  548.98     435.24
  548.63     441.99
  548.27     306.08
  547.92     117.65
  547.57     209.30
  547.22     103.91
  546.87      58.71
  546.52      -0.53
  546.17     107.62
  545.82     107.16
  545.47     148.54
  545.12      71.09
  544.78     139.62
  544.43     -23.53
  544.08      -8.24
  543.73      28.29
  543.39      20.79
  543.04     156.02
  542.69      24.58
  542.35      77.32
  542.00      54.74
  541.66     122.27
  541.31     108.84
  540.97     -14.56
  540.62      72.54
  540.28     -26.68
  539.93     149.12
  539.59      78.64
  539.25     172.73
  538.90     153.12
  538.56      72.28
  538.22      84.33
  537.88      59.03
  537.54     140.50
  537.20      98.19
  536.85      33.47
  536.51     174.53
  536.17     104.51
  535.83      48.98
  535.49      70.67
  535.16      72.71
  534.82       4.86
  534.48      23.18
  534.14     138.55
  533.80     176.37
  533.46     119.06
  533.13      82.53
  532.79     110.29
  532.45     -32.46
  532.12     -10.25
  531.78      75.67
  531.45      87.86
  531.11      82.33
  530.78     104.95
  530.44      29.70
  530.11      86.05
  529.77     132.56
  529.44       0.03
  529.11      59.57
  528.77      81.69
  528.44      41.49
  528.11      38.61
  527.77      62.73
  527.44     181.57
  527.11     178.29
  526.78     161.07
  526.45     235.46
  526.12     223.08
  525.79     419.32
  525.46     526.89
  525.13     361.74
  524.80     276.00
  524.47      88.57
  524.14      28.40
  523.81      52.37
  523.49     231.24
  523.16     312.00
  522.83     298.56
  522.50     163.42
  522.18     114.07
  521.85      34.97
  521.52      66.71
  521.20      96.97
  520.87     180.83
  520.55     130.50
  520.22     108.71
  519.90     129.60
  519.57      54.00
  519.25      48.59
  518.92     144.55
  518.60     114.39
  518.28      82.57
  517.95      41.87
  517.63     105.10
  517.31      23.90
  516.99     106.83
  516.67     160.76
  516.34      95.43
  516.02     113.44
  515.70      46.17
  515.38     125.95
  515.06      -0.69
  514.74      54.81
  514.42     143.68
  514.10      46.44
  513.78     107.63
  513.46     193.27
  513.15     161.35
  512.83      80.11
  512.51     212.46
  512.19     260.79
  511.88     223.50
  511.56     193.43
  511.24     207.66
  510.93     155.36
  510.61      31.69
  510.29     182.89
  509.98      30.81
  509.66      -8.14
  509.35      64.96
  509.03     183.96
  508.72     113.80
  508.40     107.99
  508.09     188.40
  507.78     112.45
  507.46     435.92
  507.15     244.02
  506.84     284.64
  506.53     183.21
  506.21      10.93
  505.90       8.08
  505.59     150.48
  505.28      82.41
  504.97      11.60
  504.66      78.92
  504.35       5.90
  504.04     131.56
  503.73      82.81
  503.42      48.96
  503.11      66.36
  502.80     152.05
  502.49     157.26
  502.18      99.08
  501.88     145.09
  501.57      92.87
  501.26     193.04
  500.95      86.70
  500.65     146.10
  500.34     209.55
  500.03      67.12
  499.73      -3.01
  499.42     217.24
  499.12     141.06
  498.81     219.37
  498.51     231.16
  498.20     173.90
  497.90     109.00
  497.59     103.15
  497.29     146.81
  496.99      42.30
  496.68     180.39
  496.38      18.98
  496.08      53.71
  495.77      76.59
  495.47      81.41
  495.17      -7.09
  494.87       9.45
  494.57      13.92
  494.27     -15.55
  493.97     125.14
  493.67      32.49
  493.37      88.95
  493.07       4.42
  492.77      21.21
  492.47      84.97
  492.17       3.13
  491.87      73.53
  491.57       4.71
  491.27     143.56
  490.97      26.09
  490.68     117.52
  490.38     162.26
  490.08     173.46
  489.78     239.74
  489.49     284.36
  489.19     445.37
  488.90     513.91
  488.60     552.11
  488.30     525.65
  488.01     252.86
  487.71     211.78
  487.42     132.17
  487.12      -9.01
  486.83      55.70
  486.54      55.27
  486.24      26.73
  485.95      46.65
  485.66     118.35
  485.36      90.55
  485.07      66.16
  484.78     103.26
  484.49      78.53
  484.19     -46.53
  483.90      85.69
  483.61    -108.36
  483.32     145.88
  483.03     128.39
  482.74      62.70
  482.45      46.64
  482.16      83.09
  481.87     175.75
  481.58      98.47
  481.29      95.31
  481.00      84.04
  480.71      49.24
  480.42      61.88
  480.13     149.68
  479.85      90.42
  479.56     140.17
  479.27     195.77
  478.98     328.99
  478.70     185.81
  478.41     293.68
  478.12     206.23
  477.84      81.99
  477.55      73.50
  477.27      86.54
  476.98     153.56
  476.70     127.26
  476.41      96.15
  476.13     123.56
  475.84      92.55
  475.56     217.74
  475.27     446.16
  474.99     372.85
  474.71     376.08
  474.42     254.22
  474.14     196.96
  473.86     108.86
  473.58      89.10
  473.29      72.42
  473.01      22.31
  472.73     191.70
  472.45     244.60
  472.17     267.03
  471.89     215.10
  471.61     253.00
  471.33     226.82
  471.05     223.21
  470.77     238.71
  470.49     179.08
  470.21     187.74
  469.93     122.54
  469.65     113.61
  469.37     138.90
  469.09     109.94
  468.82     -23.86
  468.54      95.13
  468.26     145.89
  467.98      80.54
  467.71     162.72
  467.43     168.26
  467.15      63.04
  466.88       5.44
  466.60     232.06
  466.32     125.50
  466.05      72.13
  465.77     116.08
  465.50      68.57
  465.22      31.07
  464.95      56.98
  464.67      70.00
  464.40      94.27
  464.13      47.74
  463.85     107.42
  463.58      36.37
  463.31     207.73
  463.03      40.78
  462.76     185.12
  462.49     172.49
  462.21     145.19
  461.94     133.06
  461.67      84.48
  461.40     106.41
  461.13     176.40
  460.86     134.26
  460.59     128.02
  460.32      99.07
  460.05     -91.44
  459.78     120.96
  459.51     123.42
  459.24      80.67
  458.97     172.94
  458.70     203.45
  458.43     107.40
  458.16     309.03
  457.89     503.57
  457.62     428.17
  457.36     502.62
  457.09     493.53
  456.82     331.77
  456.55     150.99
  456.29     135.76
  456.02     162.14
  455.75     220.93
  455.49       8.31
  455.22      -7.38
  454.95       2.36
  454.69      65.29
  454.42      32.67
  454.16      11.38
  453.89      91.73
  453.63      28.79
  453.36      60.47
  453.10      57.33
  452.84      32.82
  452.57      70.16
  452.31      13.66
  452.05      97.25
  451.78      -7.67
  451.52     113.57
  451.26      98.83
  450.99     124.34
  450.73     112.30
  450.47     190.05
  450.21       5.20
  449.95     167.50
  449.69     207.76
  449.43     188.33
  449.16     219.77
  448.90     -42.10
  448.64      94.63
  448.38      52.56
  448.12      41.34
  447.86     170.23
  447.60      95.80
  447.35     118.43
  447.09     293.93
  446.83     265.76
  446.57     393.14
  446.31     285.60
  446.05     254.27
  445.80     320.28
  445.54     280.80
  445.28     494.06
  445.02     255.91
  444.77     140.83
  444.51      85.11
  444.25     179.79
  444.00     148.60
  443.74     243.64
  443.48     327.23
  443.23     256.27
  442.97     180.79
  442.72      79.39
  442.46     173.69
  442.21     118.83
  441.95     198.09
  441.70     129.82
  441.45      82.96
  441.19     108.38
  440.94     -29.84
  440.68      16.12
  440.43      92.70
  440.18     127.30
  439.93     217.33
  439.67     144.48
  439.42      30.05
  439.17      67.99
  438.92     -10.18
  438.67      89.79
  438.41      75.17
  438.16      25.33
  437.91      24.92
  437.66     -17.34
  437.41     149.83
  437.16     128.26
  436.91     133.84
  436.66     251.85
  436.41     318.57
  436.16     303.60
  435.91     442.88
  435.66     302.73
  435.41     373.42
  435.16     273.45
  434.92     542.54
  434.67     231.53
  434.42     150.94
  434.17     175.44
  433.92     168.73
  433.68     382.05
  433.43     409.55
  433.18     218.99
  432.94     163.92
  432.69     141.90
  432.44      90.99
  432.20     217.30
  431.95     359.49
  431.70     281.50
  431.46     167.68
  431.21      63.28
  430.97     129.89
  430.72     179.07
  430.48     135.12
  430.23      70.12
  429.99     187.41
  429.75     206.48
  429.50     222.61
  429.26     228.89
  429.02     283.88
  428.77     141.38
  428.53     128.78
  428.29       1.18
  428.04      55.19
  427.80      49.20
  427.56      74.19
  427.32     117.68
  427.08     228.45
  426.83     128.92
  426.59     338.40
  426.35     334.18
  426.11     352.82
  425.87     167.55
  425.63     270.78
  425.39     291.80
  425.15     120.00
  424.91     150.20
  424.67     191.14
  424.43      68.91
  424.19     148.96
  423.95     170.58
  423.71      84.99
  423.47      75.89
  423.24      84.17
  423.00      75.08
  422.76     -44.22
  422.52      -0.45
  422.28      34.39
  422.05      14.85
  421.81     108.27
  421.57      72.66
  421.33      43.89
  421.10      13.26
  420.86      74.33
  420.62      85.55
  420.39     -14.60
  420.15      87.66
  419.92      38.70
  419.68     188.92
  419.45     225.15
  419.21      51.52
  418.98     207.49
  418.74     251.46
  418.51     216.71
  418.27     117.22
  418.04      -5.32
  417.80      51.94
  417.57     103.95
  417.34      37.09
  417.10     158.62
  416.75      84.74
  416.29      52.18
  415.82     267.40
  415.36     406.86
  414.90     459.27
  414.43     174.76
  413.97      87.28
  413.51     121.10
  413.05     200.26
  412.59     199.43
  412.13      39.36
  411.68      71.53
  411.22      42.01
  410.76     142.66
  410.31      77.92
  409.85     156.92
  409.40     144.97
  408.94     156.90
  408.49     143.35
  408.04      56.46
  407.59     118.31
  407.14      82.69
  406.69     252.47
  406.24     363.05
  405.79     287.11
  405.35      92.97
  404.90      45.18
  404.45     -11.21
  404.01      14.01
  403.56      95.83
  403.12      19.41
  402.68      61.51
  402.23      91.94
  401.79     189.85
  401.35      72.40
  400.91      76.06
  400.47     162.58
  400.03      64.12
  399.60     102.11
  399.16      -3.04
  398.72     155.91
  398.29      95.32
  397.85     -17.47
  397.42      37.59
  396.99     125.71
  396.55      16.24
  396.12      -3.97
  395.69      34.69
  395.26      42.62
  394.83      20.41
  394.40      94.84
  393.97       0.73
  393.54     142.17
  393.11      68.43
  392.69      29.63
  392.26     122.37
  391.84       4.11
  391.41       3.39
  390.99      69.30
  390.57      65.57
  390.14      78.41
  389.72     111.67
  389.30     125.21
  388.88      40.52
  388.46      92.35
  388.04     140.75
  387.62      -0.25
  387.21      82.49
  386.79     108.16
  386.37     -23.16
  385.96      97.31
  385.54      85.74
  385.13      -5.92
  384.72      81.23
  384.30     129.33
  383.89     183.51
  383.48     196.59
  383.07     195.85
  382.66     408.87
  382.25     561.82
  381.84     543.22
  381.43     305.37
  381.02     158.07
  380.62      81.74
  380.21     112.46
  379.80      74.15
  379.40     -31.05
  378.99      71.19
  378.59      70.48
  378.19      33.70
  377.78     143.95
  377.38      90.03
  376.98     376.69
  376.58     595.36
  376.18     547.42
  375.78     777.01
  375.38     444.30
  374.99     490.52
  374.59     324.51
  374.19     130.87
  373.80       8.43
  373.40      22.29
  373.01      24.53
  372.61      32.70
  372.22      63.72
  371.82     165.17
  371.43     178.26
  371.04     116.97
  370.65     146.05
  370.26     122.09
  369.87      48.81
  369.48      12.36
  369.09      90.90
  368.70      80.70
  368.32     112.00
  367.93     203.58
  367.54     348.19
  367.16     220.26
  366.77     150.76
  366.39     -49.87
  366.00     -21.24
  365.62      14.20
  365.24     -14.08
  364.86      33.67
  364.47      31.47
  364.09      23.29
  363.71      76.30
  363.33      23.39
  362.96      71.75
  362.58     137.88
  362.20      83.02
  361.82      -5.87
  361.45      54.91
  361.07      80.93
  360.69       9.64
  360.32      32.90
  359.94      96.53
  359.57      16.48
  359.20      -3.40
  358.83      46.96
  358.45     -14.95
  358.08      56.44
  357.71     171.87
  357.34     297.58
  356.97     259.26
  356.60     123.27
  356.23      62.40
  355.87      33.77
  355.50      56.30
  355.13      77.81
  354.77      78.73
  354.40      43.33
  354.03      21.21
  353.67      16.00
  353.31      85.65
  352.94      -1.78
  352.58      18.48
  352.22       2.79
  351.86      32.37
  351.49     118.58
  351.13      29.46
  350.77     205.50
  350.41      52.97
  350.06     141.44
  349.70     116.81
  349.34     415.72
  348.98     297.33
  348.63     342.78
  348.27     253.87
  347.91     158.28
  347.56     -41.04
  347.20      42.12
  346.85      71.67
  346.50      40.76
  346.14      73.55
  345.79      74.49
  345.44     137.65
  345.09      55.42
  344.74     175.31
  344.39      83.20
  344.04      85.81
  343.69      54.31
  343.34      69.72
  342.99      95.38
  342.64     171.16
  342.30     141.95
  341.95     303.79
  341.60     191.07
  341.26      32.19
  340.91      61.74
  340.57      83.97
  340.22      63.63
  339.88      31.07
  339.54      16.40
  339.20      12.65
  338.85      44.86
  338.51      57.02
  338.17      80.89
  337.83      28.62
  337.49      82.86
  337.15      -9.63
  336.81      31.33
  336.48      11.94
  336.14      14.37
  335.80      89.52
  335.46      68.90
  335.13      73.18
  334.79      27.33
  334.46      50.59
  334.12     118.62
  333.79     140.81
  333.45     273.84
  333.12     194.44
  332.79     178.78
  332.46     141.67
  332.12     140.99
  331.79     145.69
  331.46      75.78
  331.13     323.88
  330.80     587.50
  330.47     947.23
  330.14     686.15
  329.82     289.05
  329.49     164.59
  329.16      64.47
  328.83      87.27
  328.51     179.28
  328.18     214.87
  327.86     464.70
  327.53     627.24
  327.21     551.05
  326.88     216.05
  326.56     113.65
  326.24     128.89
  325.91     -10.71
  325.59     106.41
  325.27      93.62
  324.95     115.59
  324.63      60.18
  324.31      74.60
  323.99     245.74
  323.67     345.49
  323.35     242.35
  323.03     101.10
  322.72      84.90
  322.40      14.95
  322.08      87.01
  321.77     -46.40
  321.45      14.59
  321.13     128.98
  320.82     161.28
  320.50      59.98
  320.19     118.04
  319.88     282.53
  319.56     192.76
  319.25      -5.74
  318.94      35.20
  318.63     -42.35
  318.32      58.76
  318.01      99.28
  317.70      52.43
  317.39      30.32
  317.08      47.79
  316.77      16.06
  316.46      59.89
  316.15      22.85
  315.84     -28.34
  315.54      19.93
  315.23      29.06
  314.92      -3.76
  314.62       8.33
  314.31     109.11
  314.01     150.43
  313.70     100.69
  313.40     166.06
  313.09       1.92
  312.79     -16.11
  312.49      29.82
  312.19      76.43
  311.88      60.34
  311.58      13.19
  311.28      55.64
  310.98     123.58
  310.68      50.97
  310.38      79.49
  310.08     164.53
  309.78      40.63
  309.48      -5.74
  309.19      76.91
  308.89      53.89
  308.59      77.37
  308.30      59.43
  308.00     122.56
  307.70     285.65
  307.41     464.69
  307.11     676.36
  306.82     633.57
  306.52     439.15
  306.23      70.48
  305.94      66.36
  305.64      72.68
  305.35     -16.22
  305.06      73.15
  304.77      19.80
  304.48      22.48
  304.19       0.52
  303.90      54.99
  303.61     135.09
  303.32      10.05
  303.03     -13.28
  302.74      71.54
  302.45     138.14
  302.16     104.19
  301.88      31.82
  301.59      55.07
  301.30      37.32
  301.02     173.35
  300.73      42.86
  300.44     145.00
  300.16      57.09
  299.87     110.04
  299.59     172.08
  299.31     259.93
  299.02     381.21
  298.74     353.90
  298.46     318.09
  298.18     312.84
  297.89      74.86
  297.61      35.92
  297.33      31.89
  297.05     -59.40
  296.77      10.46
  296.49      62.86
  296.21     105.44
  295.93     101.13
  295.65      80.52
  295.38     -14.03
  295.10      13.39
  294.82      75.05
  294.54      17.17
  294.27      66.66
  293.99     185.07
  293.71     139.21
  293.44      41.99
  293.16     113.32
  292.89      79.63
  292.62      52.32
  292.34      51.69
  292.07      45.82
  291.79      34.79
  291.52       5.31
  291.25     131.59
  290.98      31.21
  290.71      13.54
  290.43      94.04
  290.16      -2.78
  289.89      56.66
  289.62      84.82
  289.35      10.44
  289.08     149.77
  288.81      26.25
  288.55     119.57
  288.28     155.75
  288.01     114.53
  287.74      73.18
  287.48      79.83
  287.21     145.36
  286.94     102.61
  286.68     165.89
  286.41     189.61
  286.15     164.63
  285.88     168.01
  285.62     244.91
  285.35     418.98
  285.09     734.12
  284.82     942.68
  284.56     789.54
  284.30     408.48
  284.04     228.08
  283.77     154.98
  283.51     103.92
  283.25      73.57
  282.99     -35.75
  282.73     -11.60
  282.47       1.27
  282.21      49.41
  281.95      18.90
  281.69      -7.31
  281.43      98.97
  281.17      32.78
  280.92     144.13
  280.66      -2.98
  280.40      64.98
  280.14      33.86
  279.89      31.49
  279.63     152.99
  279.38      48.05
  279.12      20.90
  278.86      52.23
  278.61      -7.83
  278.36      27.84
  278.10     111.93
  277.85     103.64
  277.59     -13.62
  277.34     102.41
  277.09     179.41
  276.84      82.27
  276.58     100.57
  276.33     140.94
  276.08     128.43
  275.83      98.73
  275.58     163.33
  275.33     345.02
  275.08     629.39
  274.83     669.95
  274.58     716.06
  274.33     347.44
  274.08     240.73
  273.83     196.55
  273.59     219.63
  273.34     203.86
  273.09     238.23
  272.84     260.15
  272.60     345.46
  272.35     377.90
  272.10     344.19
  271.86     208.76
  271.61     174.13
  271.37      32.28
  271.12     118.17
  270.88     105.82
  270.64      -8.22
  270.39      66.50
  270.15      62.17
  269.91      46.81
  269.66     134.41
  269.42     -18.06
  269.18      43.19
  268.94      22.72
  268.70      79.24
  268.45      61.69
  268.21     163.47
  267.97     254.54
  267.73     452.26
  267.49     357.42
  267.25     241.29
  267.02      96.15
  266.78     115.17
  266.54      89.14
  266.30     113.96
  266.06      66.96
  265.82     106.83
  265.59     108.20
  265.35     107.60
  265.11     191.56
  264.88     441.71
  264.64     435.45
  264.41     557.24
  264.17     306.12
  263.94     160.88
  263.70     162.38
  263.47     126.76
  263.23     110.12
  263.00     -49.18
  262.77     -25.97
  262.53     155.17
  262.30     -23.69
  262.07      81.66
  261.83     106.53
  261.60      72.77
  261.37     127.44
  261.14      43.26
  260.91      86.45
  260.68      30.99
  260.45      58.38
  260.22      42.77
  259.99      21.91
  259.76     -12.69
  259.53     -13.27
  259.30      36.70
  259.07     249.66
  258.84      77.24
  258.62     -19.10
  258.39     -33.58
  258.16      87.17
  257.93      86.58
  257.71      62.73
  257.48      93.28
  257.26       5.84
  257.03      19.79
  256.80     -42.79
  256.58       2.29
  256.35     157.95
  256.13      83.83
  255.90     163.15
  255.68     396.92
  255.46     646.27
  255.23     784.17
  255.01     856.75
  254.79     619.56
  254.56     391.07
  254.34     253.33
  254.12     141.46
  253.90     149.30
  253.68      27.69
  253.46      63.16
  253.24     112.21
  253.01     119.81
  252.79     129.56
  252.57     -36.42
  252.36      24.22
  252.14      51.97
  251.92      -2.62
  251.70      35.60
  251.48      63.74
  251.26      65.11
  251.04       2.35
  250.83      67.85
  250.61     103.15
  250.39      26.50
  250.17      24.05
  249.96     151.46
  249.74      22.90
  249.53      50.79
  249.31     189.06
  249.09     162.05
  248.88     281.72
  248.66     196.26
  248.45     184.47
  248.23      94.72
  248.02      92.12
  247.81      67.60
  247.59      51.40
  247.38     135.91
  247.17      81.76
  246.95      19.20
  246.74     -67.30
  246.53     -16.90
  246.32      71.48
  246.11      93.00
  245.90       8.88
  245.68      32.79
  245.47     120.14
  245.26      64.65
  245.05      31.08
  244.84     114.23
  244.63     105.35
  244.42      84.34
  244.21     195.23
  244.01     118.19
  243.80      58.67
  243.59      94.25
  243.38      73.42
  243.17      43.27
  242.97      92.52
  242.76      55.82
  242.55      -9.42
  242.34      21.79
  242.14      88.19
  241.93      11.20
  241.73      45.13
  241.52     111.29
  241.31      98.23
  241.11     237.85
  240.90     281.48
  240.70     351.37
  240.50     262.86
  240.29     137.64
  240.09     101.02
  239.88     127.88
  239.68     133.76
  239.48      68.62
  239.27      60.04
  239.07     241.64
  238.87     527.61
  238.67     581.06
  238.47     453.73
  238.26     206.01
  238.06      42.79
  237.86      -0.03
  237.66      -8.07
  237.46      33.28
  237.26     142.09
  237.06      55.83
  236.86     158.62
  236.66     142.57
  236.46      86.65
  236.26     179.46
  236.06     127.79
  235.87     213.19
  235.67      24.36
  235.47      96.31
  235.27      11.68
  235.07      88.92
  234.88      88.36
  234.68      73.35
  234.48      21.01
  234.29      22.39
  234.09      59.47
  233.89      29.08
  233.70       9.15
  233.50      65.90
  233.31     -22.14
  233.11     127.97
  232.92      74.46
  232.72     126.84
  232.53      15.46
  232.34      56.46
  232.14     142.74
  231.95     118.08
  231.75     -48.54
  231.56     -79.40
  231.37      14.08
  231.18     102.95
  230.98      -6.21
  230.79      72.45
  230.60      59.58
  230.41      17.15
  230.22     -10.31
  230.03     110.31
  229.83     179.05
  229.64     151.05
  229.45      91.55
  229.26     154.44
  229.07     135.94
  228.88      71.03
  228.69      83.00
  228.50       7.76
  228.32      52.93
  228.13     -29.49
  227.94     161.88
  227.75     156.75
  227.56      98.76
  227.37     119.88
  227.19      53.70
  227.00     138.71
  226.81     140.39
  226.62     229.22
  226.44     201.90
  226.25      99.17
  226.06     142.65
  225.88      91.63
  225.69      67.87
  225.51     266.14
  225.32     374.62
  225.14     534.38
  224.95     820.04
  224.77     997.95
  224.58     958.74
  224.40     875.53
  224.21     465.23
  224.03     300.98
  223.85     313.91
  223.66     232.58
  223.48     101.70
  223.30     180.45
  223.12     151.94
  222.93      45.19
  222.75     134.91
  222.57      75.35
  222.39      23.29
  222.21     126.51
  222.02       6.31
  221.84      98.92
  221.66      51.68
  221.48     102.19
  221.30     -23.04
  221.12      35.67
  220.94      74.68
  220.76     113.20
  220.58      73.59
  220.40      41.69
  220.22      72.50
  220.04      26.33
  219.87     121.60
  219.69     205.41
  219.51     209.77
  219.33     216.63
  219.15      82.07
  218.98      77.23
  218.80      85.30
  218.62       7.97
  218.44      54.42
  218.27      66.53
  218.09      42.93
  217.92      42.39
  217.74      95.11
  217.56      43.39
  217.39      80.96
  217.21     106.72
  217.04      92.94
  216.86      88.02
  216.69     -15.67
  216.51      40.16
  216.34      45.87
  216.16     112.39
  215.99     -56.06
  215.82      35.94
  215.64     -24.69
  215.47      57.91
  215.30     100.76
  215.12      44.20
  214.95      69.11
  214.78      99.14
  214.61      74.50
  214.43      82.65
  214.26     145.31
  214.09      18.28
  213.92      50.97
  213.75     164.92
  213.58     122.37
  213.41      36.78
  213.24      46.73
  213.07      91.54
  212.89      66.98
  212.72      64.29
  212.56     222.73
  212.39      89.39
  212.22       4.33
  212.05      45.11
  211.88      29.92
  211.71     102.85
  211.54      35.11
  211.37      47.22
  211.20      -0.85
  211.04      44.04
  210.87      26.74
  210.70      40.87
  210.53      -6.98
  210.37     107.60
  210.20      32.98
  210.03     299.64
  209.87      42.45
  209.70      56.87
  209.53      89.19
  209.37     118.09
  209.20     211.80
  209.04     271.61
  208.87     538.87
  208.70     578.77
  208.54     492.00
  208.37     438.08
  208.21     234.29
  208.05     254.87
  207.88      -5.28
  207.72      78.91
  207.55      35.08
  207.39      34.56
  207.23      44.67
  207.06     136.24
  206.90     131.00
  206.74     159.07
  206.57      90.85
  206.41      79.13
  206.25      67.54
  206.09      84.77
  205.93     130.16
  205.76     -18.09
  205.60      39.43
  205.44      69.32
  205.28     -43.46
  205.12      92.88
  204.96     103.75
  204.80      85.05
  204.64     137.74
  204.48     106.77
  204.32      37.39
  204.16     -15.19
  204.00     121.45
  203.84     147.07
  203.68      59.16
  203.52      41.23
  203.36      58.11
  203.20      73.09
  203.04      86.05
  202.89      90.06
  202.73     112.56
  202.57     107.39
  202.41     164.23
  202.25     181.11
  202.10     245.53
  201.94     275.05
  201.78     263.47
  201.62     227.92
  201.47     201.31
  201.31     198.22
  201.16     104.99
  201.00      61.35
  200.84     120.35
  200.69     158.41
  200.53      37.87
  200.38     -33.56
  200.22     184.31
  200.07      82.95
  199.91     -35.09
  199.76      28.82
  199.60     234.28
  199.45     239.11
  199.29     402.92
  199.14     529.19
  198.99     253.80
  198.83     174.50
  198.68     122.53
  198.53      98.46
  198.37      93.31
  198.22      54.27
  198.07     -16.80
  197.91     171.35
  197.76     141.10
  197.61     -32.62
  197.46      51.70
  197.31      57.86
  197.15      66.33
  197.00      63.56
  196.85     -31.09
  196.70       5.78
  196.55     117.64
  196.40      86.59
  196.25     -20.82
  196.10     137.82
  195.95      35.55
  195.80      89.16
  195.65      36.73
  195.50      49.49
  195.35      24.79
  195.20      87.11
  195.05      23.77
  194.90      23.27
  194.75      69.47
  194.60       2.92
  194.45     141.93
  194.30     181.71
  194.16     138.43
  194.01     281.03
  193.86     139.86
  193.71      93.65
  193.57     166.33
  193.42      20.37
  193.27      96.82
  193.12     174.98
  192.98     164.26
  192.83     213.21
  192.68     231.59
  192.54     135.22
  192.39     214.32
  192.24     184.78
  192.10      78.70
  191.95      75.87
  191.81      96.44
  191.66      47.47
  191.52      74.35
  191.37      26.44
  191.23      10.65
  191.08      45.45
  190.94      60.82
  190.79     138.96
  190.65       2.17
  190.50      91.86
  190.36     117.75
  190.22     -10.02
  190.07     141.39
  189.93     113.79
  189.79      25.32
  189.64      -1.33
  189.50      78.90
  189.36      87.81
  189.22      36.67
  189.07      68.07
  188.93      81.58
  188.79     134.30
  188.65      80.57
  188.50      47.70
  188.36     -58.02
  188.22       2.32
  188.08      85.63
  187.94      68.69
  187.80     155.95
  187.66      81.76
  187.52      88.37
  187.38     196.22
  187.24     111.47
  187.10      49.53
  186.96      72.19
  186.82      76.38
  186.68      54.92
  186.54      87.23
  186.40       4.58
  186.26      53.42
  186.12      69.18
  185.98      87.61
  185.84     126.15
  185.70     179.47
  185.56      17.03
  185.42      52.74
  185.29       2.81
  185.15      79.84
  185.01     120.64
  184.87      69.39
  184.74      43.36
  184.60     -52.82
  184.46      21.99
  184.32      58.03
  184.19      57.54
  184.05      71.11
  183.91      94.55
  183.78     126.10
  183.64      30.29
  183.50     105.25
  183.37     129.63
  183.23      63.42
  183.10     126.11
  182.96      46.13
  182.83      92.99
  182.69       2.26
  182.55      28.62
  182.42      53.43
  182.29      39.06
  182.15     132.71
  182.02      38.07
  181.88      87.09
  181.75       3.26
  181.61      45.83
  181.48     148.15
  181.35     150.24
  181.21     136.86
  181.08     236.12
  180.94     247.06
  180.81     299.85
  180.68     137.43
  180.55      84.57
  180.41     111.13
  180.28     100.71
  180.15      75.84
  180.02     109.65
  179.88     111.65
  179.75     154.67
  179.62     -32.87
  179.49      80.63
  179.36     127.34
  179.22     -14.80
  179.09     123.81
  178.96      64.24
  178.83     107.70
  178.70     104.71
  178.57      72.36
  178.44     106.22
  178.31      10.73
  178.18     110.25
  178.05      32.63
  177.92      50.84
  177.79     123.96
  177.66     170.57
  177.53     299.30
  177.40     268.50
  177.27     419.67
  177.14     600.08
  177.01     665.46
  176.88     678.66
  176.75     895.36
  176.62     769.65
  176.50     649.69
  176.37     753.36
  176.24     694.53
  176.11    1057.17
  175.98     880.24
  175.86     655.94
  175.73     385.85
  175.60     249.61
  175.47     220.17
  175.35      99.47
  175.22      47.75
  175.09      91.00
  174.97     190.11
  174.84     138.50
  174.71     222.89
  174.59     341.36
  174.46     425.87
  174.33     333.86
  174.21     366.21
  174.08     359.03
  173.96     249.00
  173.83     121.59
  173.70      16.22
  173.58     201.40
  173.45      72.35
  173.33      62.11
  173.20     145.32
  173.08     110.97
  172.95     136.42
  172.83     143.85
  172.71     162.11
  172.58      64.09
  172.46     137.10
  172.33      36.69
  172.21     162.86
  172.09     135.64
  171.96     106.61
  171.84     243.49
  171.72     359.36
  171.59     403.41
  171.47     181.87
  171.35     299.45
  171.22     364.05
  171.10     249.44
  170.98     279.27
  170.86     224.87
  170.73     154.31
  170.61     101.30
  170.49      75.62
  170.37     100.34
  170.25     -22.10
  170.13      76.67
  170.00     176.01
  169.88      90.79
  169.76      60.41
  169.64     -26.69
  169.52      89.35
  169.40      37.17
  169.28      68.36
  169.16       7.90
  169.04     150.23
  168.92      21.01
  168.80     130.51
  168.68      34.32
  168.50     116.15
  168.26      59.38
  168.02      47.41
  167.78     149.23
  167.54     114.94
  167.30     179.04
  167.07     139.59
  166.83      67.33
  166.60     113.74
  166.36      99.75
  166.13      64.50
  165.89      87.56
  165.66      71.38
  165.42      -5.70
  165.19      21.65
  164.96      78.68
  164.73     207.07
  164.50     194.50
  164.27     136.24
  164.04      24.19
  163.81      99.75
  163.58     111.96
  163.35     312.60
  163.12     637.88
  162.89     667.50
  162.66     339.67
  162.44     190.21
  162.21      30.09
  161.98     151.47
  161.76      13.71
  161.53      53.28
  161.31     148.63
  161.08      46.42
  160.86      64.38
  160.64     110.39
  160.41     150.43
  160.19     149.49
  159.97     129.21
  159.75      89.44
  159.53     104.39
  159.31      64.27
  159.09      48.13
  158.87      48.46
  158.65      26.37
  158.43      67.00
  158.21      60.94
  157.99      76.81
  157.78     104.99
  157.56      76.27
  157.34      71.44
  157.13      80.97
  156.91       0.78
  156.70      75.20
  156.48     106.18
  156.27     142.48
  156.05     119.33
  155.84     183.78
  155.63     120.23
  155.42      31.32
  155.20     114.27
  154.99      67.88
  154.78     100.18
  154.57      42.85
  154.36     128.57
  154.15     104.21
  153.94     173.95
  153.73     148.40
  153.52     116.56
  153.32      21.03
  153.11     167.32
  152.90      58.80
  152.69     143.81
  152.49     113.38
  152.28      34.19
  152.08      73.60
  151.87      79.36
  151.67      15.10
  151.46      44.70
  151.26      46.39
  151.05     140.78
  150.85     106.11
  150.65      42.40
  150.45      44.10
  150.24      62.84
  150.04      11.72
  149.84      24.74
  149.64      77.60
  149.44      21.85
  149.24      96.39
  149.04      96.95
  148.84     264.78
  148.64     370.35
  148.44     420.75
  148.25     268.92
  148.05     118.02
  147.85      63.57
  147.66      31.21
  147.46     -18.70
  147.26      21.87
  147.07      44.43
  146.87       1.23
  146.68      18.18
  146.48       2.14
  146.29      15.29
  146.10      22.18
  145.90      95.05
  145.71     248.33
  145.52     260.73
  145.32     141.23
  145.13      87.66
  144.94      60.87
  144.75      -7.58
  144.56     104.86
  144.37      92.80
  144.18     209.55
  143.99     374.73
  143.80     347.80
  143.61     346.98
  143.42     207.90
  143.24     192.92
  143.05     196.81
  142.86     138.12
  142.68      20.77
  142.49       9.60
  142.30      49.69
  142.12     124.64
  141.93     -25.74
  141.75      80.22
  141.56     191.95
  141.38     435.89
  141.19     634.33
  141.01     504.11
  140.83     304.04
  140.64     100.91
  140.46      97.25
  140.28      43.68
  140.10      42.89
  139.92      44.81
  139.73      88.39
  139.55      55.50
  139.37     109.81
  139.19      52.56
  139.01      43.59
  138.83      36.04
  138.66      47.47
  138.48      45.32
  138.30     -22.55
  138.12      42.39
  137.94     193.47
  137.77     191.08
  137.59     369.19
  137.41     422.05
  137.24     302.30
  137.06     189.52
  136.88      52.02
  136.71     121.57
  136.53      64.39
  136.36      34.60
  136.19      17.63
  136.01      93.45
  135.84      81.13
  135.66      59.10
  135.49      14.53
  135.32      27.23
  135.15     -32.68
  134.98      -6.32
  134.80     -20.10
  134.63     118.18
  134.46       5.90
  134.29      82.78
  134.12     240.66
  133.95     161.14
  133.78      84.81
  133.61      45.63
  133.44     -27.53
  133.27      11.23
  133.11      71.62
  132.94      23.25
  132.77      54.41
  132.60     107.40
  132.44     140.11
  132.27     117.90
  132.10     302.29
  131.94     475.15
  131.77     878.04
  131.60    1134.16
  131.44     849.50
  131.27     478.65
  131.11     224.93
  130.95     130.09
  130.78      82.66
  130.62     -57.07
  130.45      39.49
  130.29       5.61
  130.13      82.55
  129.97      19.13
  129.80      52.03
  129.64      64.21
  129.48      67.81
  129.32     -12.38
  129.16      57.61
  129.00      -3.14
  128.84      29.12
  128.68      25.57
  128.52      66.17
  128.36     -10.19
  128.20      58.85
  128.04      63.91
  127.88      61.70
  127.72     -61.69
  127.57      -8.55
  127.41      56.53
  127.25      88.25
  127.09      32.10
  126.94     104.93
  126.78     105.71
  126.62      48.43
  126.47      23.46
  126.31     103.45
  126.16     -41.93
  126.00      46.89
  125.85     161.32
  125.69     108.14
  125.54      -6.00
  125.38      85.26
  125.23      -7.48
  125.08     141.37
  124.92      57.69
  124.77      88.33
  124.62      47.43
  124.47      89.88
  124.32       3.25
  124.16     161.26
  124.01     209.53
  123.86     228.06
  123.71     443.35
  123.56     294.46
  123.41     210.00
  123.26     142.07
  123.11      84.72
  122.96      20.55
  122.81      81.72
  122.66     132.64
  122.51      29.82
  122.36      94.85
  122.22     116.04
  122.07       1.99
  121.92      35.58
  121.77      84.19
  121.63     143.68
  121.48     117.11
  121.33      62.24
  121.19     228.85
  121.04      48.82
  120.90      34.83
  120.75     107.08
  120.61     155.01
  120.46       8.10
  120.32      24.62
  120.17      71.52
  120.03      39.27
  119.88       6.61
  119.74       7.31
  119.60      15.20
  119.45      -2.68
  119.31      56.52
  119.17       0.13
  119.02      10.85
  118.88     108.69
  118.74      34.20
  118.60      66.56
  118.46      79.71
  118.32      55.97
  118.18      -0.65
  118.04      23.22
  117.90     119.71
  117.76       7.24
  117.62      18.13
  117.48      74.64
  117.34      69.27
  117.20     112.83
  117.06     148.43
  116.92      45.72
  116.78      -2.12
  116.64      13.10
  116.51      -4.98
  116.37      65.77
  116.23     -29.08
  116.09      38.40
  115.96      -9.28
  115.82      38.47
  115.68      21.32
  115.55      26.55
  115.41      27.32
  115.28     161.14
  115.14     254.51
  115.01     271.07
  114.87     130.16
  114.74     103.10
  114.60     105.64
  114.47       9.01
  114.33      76.92
  114.20      -8.45
  114.07      32.21
  113.93      89.13
  113.80      58.38
  113.67      87.70
  113.53     126.34
  113.40      19.65
  113.27      77.57
  113.14       7.82
  113.01      44.84
  112.87     101.26
  112.74      41.89
  112.61      18.41
  112.48      66.97
  112.35     119.93
  112.22     125.94
  112.09     198.83
  111.96     203.60
  111.83     210.25
  111.70     159.18
  111.57     183.31
  111.44     188.00
  111.31     146.60
  111.19      28.84
  111.06      88.10
  110.93      47.52
  110.80      42.15
  110.67      71.44
  110.55      82.03
  110.42     133.04
  110.29      -3.16
  110.17       2.10
  110.04      63.14
  109.91      99.86
  109.79      21.15
  109.66       9.83
  109.53      63.54
  109.41      50.12
  109.28      -2.77
  109.16      34.63
  109.03      83.42
  108.91      72.94
  108.79      41.92
  108.66      53.88
  108.54       0.57
  108.41      25.82
  108.29      82.53
  108.17      93.41
  108.04      48.82
  107.92      12.29
  107.80     113.22
  107.68      26.32
  107.55      31.87
  107.43      -2.62
  107.31      14.98
  107.19      58.38
  107.07      93.85
  106.94     -17.36
  106.82     104.27
  106.70      11.54
  106.58      64.66
  106.46       5.57
  106.34      74.76
  106.22      62.60
  106.10      55.42
  105.98      30.79
  105.86       5.21
  105.74      89.63
  105.62      41.43
  105.51       4.70
  105.39      -9.72
  105.27      25.11
  105.15     189.07
  105.03     116.25
  104.91     197.11
  104.80     259.03
  104.68     209.07
  104.56     134.57
  104.45      92.23
  104.33     106.95
  104.21      39.66
  104.10     166.16
  103.98     111.82
  103.86     134.01
  103.75     169.64
  103.63     204.79
  103.52     411.98
  103.40     634.95
  103.29    1062.17
  103.17    1223.22
  103.06    1239.66
  102.94    1304.93
  102.83     765.12
  102.71     563.18
  102.60     285.12
  102.49     237.18
  102.37     165.15
  102.26      94.71
  102.15     114.95
  102.03      12.48
  101.92      48.91
  101.81     125.34
  101.70     114.01
  101.58      61.81
  101.47     114.43
  101.36     200.79
  101.25     143.64
  101.14     219.04
  101.02     170.10
  100.91      98.77
  100.80     122.85
  100.69      95.68
  100.58     100.25
  100.47      55.12
  100.36      51.11
  100.25      45.47
  100.14     131.45
  100.03     -12.09
   99.92     -23.61
   99.81      19.91
   99.70      25.73
   99.59      39.82
   99.49      91.82
   99.38      80.73
   99.27      34.53
   99.16      63.97
   99.05     137.54
   98.94     144.26
   98.84     193.06
   98.73      18.15
   98.62     151.57
   98.51       2.33
   98.41      39.16
   98.30     -11.68
   98.19      69.98
   98.09      42.19
   97.98      11.91
   97.87      40.87
   97.77     140.65
   97.66      36.22
   97.56     130.08
   97.45     194.20
   97.35     460.96
   97.24     629.26
   97.14     710.46
   97.03     706.34
   96.93     692.10
   96.82     452.32
   96.72     307.01
   96.61     120.46
   96.51      94.48
   96.41      90.26
   96.30      24.38
   96.20      57.49
   96.10      21.42
   95.99     -22.89
   95.89     106.74
   95.79      51.45
   95.69     103.62
   95.58       8.29
   95.48      42.67
   95.38      78.41
   95.28      22.86
   95.17      87.76
   95.07      62.43
   94.97      90.04
   94.87      18.60
   94.77      83.37
   94.67     124.65
   94.57      16.66
   94.47      37.88
   94.37     -14.09
   94.27      24.75
   94.17      63.57
   94.07      25.15
   93.97      24.50
   93.87     125.05
   93.77      48.80
   93.67      25.94
   93.57      50.98
   93.47     268.11
   93.37     169.86
   93.27     215.70
   93.17     259.60
   93.07     239.60
   92.98     141.98
   92.88     145.18
   92.78     164.00
   92.68     163.35
   92.58     105.47
   92.49     146.45
   92.39      55.50
   92.29     154.89
   92.20     102.90
   92.10      -9.29
   92.00      63.54
   91.91     108.40
   91.81      32.53
   91.71      56.31
   91.62      20.99
   91.52      56.80
   91.42      33.43
   91.33      82.45
   91.23      54.89
   91.14      70.31
   91.04     112.01
   90.95      83.55
   90.85      90.25
   90.76     119.56
   90.66     157.74
   90.57      -7.86
   90.47      37.51
   90.38      81.56
   90.29      17.23
   90.19      14.89
   90.10     128.50
   90.01      37.84
   89.91     110.04
   89.82      92.52
   89.73      50.07
   89.63       0.93
   89.54      -6.43
   89.45      99.33
   89.35     115.74
   89.26      72.14
   89.17       7.97
   89.08     189.44
   88.99      15.29
   88.89     104.97
   88.80     156.97
   88.71     235.77
   88.62     312.39
   88.53     288.36
   88.44     267.16
   88.34     262.02
   88.25     159.21
   88.16     168.71
   88.07     106.92
   87.98     129.49
   87.89      84.88
   87.80      91.76
   87.71      48.79
   87.62     130.91
   87.53      38.59
   87.44      63.26
   87.35     -44.55
   87.26     101.28
   87.17      46.86
   87.09     171.40
   87.00     122.60
   86.91      91.18
   86.82      58.91
   86.73     211.01
   86.64      72.42
   86.55      68.09
   86.47      27.58
   86.38     108.51
   86.29     115.66
   86.20     111.14
   86.11      44.84
   86.03     119.67
   85.94      58.22
   85.85     185.57
   85.77      22.65
   85.68     203.49
   85.59      57.59
   85.50     180.97
   85.42     247.93
   85.33     315.25
   85.25     450.30
   85.16     248.32
   85.07     415.94
   84.99     437.23
   84.90     570.48
   84.82     714.73
   84.73     908.08
   84.65    1140.30
   84.56    1258.36
   84.48     948.22
   84.39     765.14
   84.31     380.91
   84.22     227.97
   84.14     205.30
   84.05      97.66
   83.97     134.75
   83.88      77.18
   83.80      55.84
   83.71      60.83
   83.63     -11.93
   83.55     123.62
   83.46     178.82
   83.38      -6.78
   83.30       1.40
   83.21     125.19
   83.13      28.87
   83.05      90.33
   82.96      42.33
   82.88     110.74
   82.80      71.17
   82.72      93.74
   82.63       0.10
   82.55      73.17
   82.47     111.68
   82.39      93.27
   82.31      46.77
   82.22     132.08
   82.14      97.35
   82.06      46.83
   81.98      72.77
   81.90      53.13
   81.82     122.94
   81.74      18.61
   81.66      93.72
   81.58      69.75
   81.49     145.20
   81.41     -22.97
   81.33     103.20
   81.25       7.77
   81.17      27.22
   81.09      93.45
   81.01     164.78
   80.93      42.16
   80.85      79.85
   80.77      33.49
   80.69     -43.89
   80.62       2.99
   80.54      11.45
   80.46      74.90
   80.38     151.45
   80.30      20.65
   80.22      65.34
   80.14     112.31
   80.06     -19.03
   79.99      25.67
   79.91      17.68
   79.83     116.04
   79.75     121.60
   79.67      42.04
   79.59      20.85
   79.52     103.47
   79.44      65.20
   79.36      34.00
   79.28     168.77
   79.21      -4.08
   79.13     125.09
   79.05      35.41
   78.98      16.11
   78.90      72.78
   78.82      64.35
   78.75      54.05
   78.67      90.88
   78.59      15.02
   78.52      93.73
   78.44      71.20
   78.36     102.69
   78.29     124.80
   78.21     -34.94
   78.14       9.64
   78.06      41.05
   77.99      34.74
   77.91      71.02
   77.84      96.51
   77.76      32.97
   77.69     130.57
   77.61      78.61
   77.54     -13.37
   77.46     165.40
   77.39      26.25
   77.31      78.26
   77.24     163.63
   77.16      43.63
   77.09      20.13
   77.01      77.92
   76.94     114.18
   76.87      22.16
   76.79      10.28
   76.72      63.61
   76.65      37.62
   76.57     134.49
   76.50      90.02
   76.43     181.60
   76.35     178.76
   76.28     458.78
   76.21     652.54
   76.13     749.92
   76.06     931.03
   75.99     997.91
   75.92     834.51
   75.84     954.49
   75.77     469.81
   75.70     378.39
   75.63     318.29
   75.56     249.48
   75.48     147.35
   75.41     186.99
   75.34     166.08
   75.27     119.71
   75.20     125.54
   75.13     164.33
   75.05      60.21
   74.98      18.53
   74.91      53.07
   74.84      74.62
   74.77      86.33
   74.70     -24.97
   74.63      36.96
   74.56     126.76
   74.49      41.70
   74.42      79.34
   74.35     105.82
   74.28      30.18
   74.21      73.52
   74.14      40.81
   74.07      -4.11
   74.00     164.01
   73.93      13.77
   73.86      64.54
   73.79     -39.69
   73.72      33.43
   73.65      85.41
   73.58     138.29
   73.51      27.80
   73.44     108.96
   73.37      46.44
   73.30      43.87
   73.24      51.31
   73.17      83.48
   73.10     136.47
   73.03     142.53
   72.96     -22.57
   72.89     112.96
   72.83      84.80
   72.76     111.82
   72.69      75.34
   72.62     168.40
   72.55     360.24
   72.49     342.95
   72.42     345.13
   72.35     350.10
   72.28     464.88
   72.22     516.05
   72.15     552.76
   72.08     317.64
   72.02     280.07
   71.95     305.77
   71.88      62.34
   71.82     130.04
   71.75     200.70
   71.68     295.50
   71.62     412.97
   71.55     564.87
   71.48     546.83
   71.42     807.57
   71.35     944.32
   71.29     824.78
   71.22    1014.36
   71.15     634.50
   71.09     328.04
   71.02     258.59
   70.96     210.71
   70.89     195.68
   70.83     117.14
   70.76      34.44
   70.70     -17.14
   70.63     108.87
   70.57      67.68
   70.50      50.53
   70.44     154.22
   70.37      66.00
   70.31      30.53
   70.24     143.39
   70.18      13.43
   70.11     144.55
   70.05      73.73
   69.99     168.84
   69.92      89.69
   69.86     144.58
   69.79     -40.06
   69.73      66.72
   69.67      76.75
   69.60     -45.47
   69.54     112.54
   69.47      43.67
   69.41      12.73
   69.35     106.45
   69.28      31.77
   69.22      37.35
   69.16       8.53
   69.10     126.52
   69.03      69.06
   68.97     103.11
   68.91     140.78
   68.84      73.79
   68.78     -22.22
   68.72      51.55
   68.66      57.29
   68.60     124.33
   68.53      43.65
   68.47      45.17
   68.41     212.75
   68.35      11.36
   68.29     126.09
   68.22     114.25
   68.16     -16.04
   68.10      99.78
   68.04     121.61
   67.98      -1.92
   67.92     159.82
   67.85     185.61
   67.79     229.82
   67.73     234.38
   67.67     188.82
   67.61     154.70
   67.55     180.42
   67.49     118.91
   67.43     157.76
   67.37      95.39
   67.31     248.58
   67.25     277.18
   67.19     450.58
   67.13     469.64
   67.07     679.44
   67.01    1099.53
   66.95    1223.22
   66.89    1587.91
   66.83    1455.36
   66.77    1739.87
   66.71    1543.24
   66.65    1700.72
   66.59    1226.78
   66.53    1248.71
   66.47    1019.39
   66.41     628.65
   66.35     567.04
   66.29     608.00
   66.23     536.80
   66.17     251.20
   66.11     167.22
   66.05     211.25
   66.00     156.50
   65.94     104.70
   65.88      83.97
   65.82      59.33
   65.76      60.96
   65.70      26.36
   65.64      40.57
   65.59     136.07
   65.53     103.17
   65.47       5.58
   65.41     136.80
   65.35     150.51
   65.30     131.01
   65.24     -34.70
   65.18     185.48
   65.12     141.19
   65.07     138.27
   65.01      69.24
   64.95     183.30
   64.89      59.40
   64.84     -26.56
   64.78     107.58
   64.72      79.86
   64.67     158.47
   64.61     131.59
   64.55     207.27
   64.50     121.11
   64.44     188.43
   64.38     124.73
   64.33     288.03
   64.27     116.63
   64.21     149.32
   64.16     216.37
   64.10     261.01
   64.04     322.37
   63.99     381.87
   63.93     445.45
   63.88     591.87
   63.82     838.38
   63.76     884.34
   63.71    1753.20
   63.65    1517.22
   63.60    2104.25
   63.54    1515.87
   63.49    1685.78
   63.43    2745.51
   63.38    2601.76
   63.32    1696.19
   63.26    1816.57
   63.21    1645.58
   63.15    1188.93
   63.10     801.07
   63.05     664.37
   62.99     449.45
   62.94     396.59
   62.88     232.95
   62.83     279.00
   62.77     172.32
   62.72     159.32
   62.66     238.86
   62.61     143.52
   62.55     240.49
   62.50      63.05
   62.45     115.50
   62.39      98.53
   62.34     163.06
   62.28     106.83
   62.23     229.21
   62.18     212.73
   62.12     344.97
   62.07     155.43
   62.02     192.88
   61.96     189.77
   61.91      79.92
   61.86     163.29
   61.80     138.02
   61.75      -4.98
   61.70      84.73
   61.64     141.34
   61.59      56.36
   61.54      62.59
   61.48     -22.16
   61.43      43.64
   61.38     112.09
   61.33      81.06
   61.27     182.89
   61.22      73.11
   61.17     -29.39
   61.12      95.27
   61.06      33.37
   61.01      82.55
   60.96      17.06
   60.91      56.33
   60.86      31.29
   60.80      48.54
   60.75     -49.83
   60.70      93.45
   60.65      -7.45
   60.60     116.25
   60.54      96.61
   60.49      72.72
   60.44      -3.15
   60.39      51.15
   60.34      32.74
   60.29     -17.39
   60.24      33.92
   60.19     -77.44
   60.13     -47.89
   60.08      23.54
   60.03      54.32
   59.98     114.36
   59.93     118.73
   59.88      -9.19
   59.83      98.44
   59.78      24.50
   59.73      13.03
   59.68      30.16
   59.63      -5.25
   59.58     -14.27
   59.53     206.86
   59.48     179.87
   59.43     161.27
   59.38     165.91
   59.33     362.50
   59.28     237.21
   59.23     327.19
   59.18     373.81
   59.13     329.27
   59.08     199.74
   59.03     114.74
   58.98     -13.76
   58.93     195.59
   58.88      13.46
   58.83     115.23
   58.78      46.11
   58.73     139.13
   58.68     -35.72
   58.63      35.56
   58.58      10.54
   58.53      12.25
   58.48      31.84
   58.43       2.49
   58.39      44.50
   58.34     -39.13
   58.29     -52.09
   58.24      80.37
   58.19      22.18
   58.14     123.24
   58.09     110.36
   58.05     127.26
   58.00    -107.24
   57.95     -45.10
   57.90      81.73
   57.85      74.10
   57.80      68.88
   57.76      49.69
   57.71     -28.52
   57.66      51.04
   57.61      81.22
   57.56      -6.23
   57.52      10.94
   57.47      21.66
   57.42     118.45
   57.37     -44.60
   57.33     248.70
   57.28     102.12
   57.23      89.41
   57.18     167.40
   57.14     330.88
   57.09     398.82
   57.04     498.08
   56.99     323.16
   56.95     485.90
   56.90     407.07
   56.85     379.64
   56.81     249.13
   56.76     184.40
   56.71     126.32
   56.67     216.41
   56.62     383.87
   56.57     420.89
   56.53     459.48
   56.48     642.65
   56.41     845.41
   56.32     930.34
   56.22     737.41
   56.13     532.78
   56.04     272.02
   55.95     129.90
   55.86      88.70
   55.77      30.44
   55.67      31.81
   55.58     148.18
   55.49      25.28
   55.40      53.66
   55.31      28.01
   55.22     122.28
   55.13     197.56
   55.04     332.78
   54.95     530.07
   54.86     944.85
   54.78    1058.91
   54.69    1115.58
   54.60     970.15
   54.51     753.62
   54.42     358.87
   54.33     203.06
   54.25      64.30
   54.16      46.43
   54.07      49.09
   53.98      59.05
   53.90      97.90
   53.81      34.33
   53.72      77.17
   53.64      36.03
   53.55      50.73
   53.47      -2.10
   53.38      21.38
   53.30     104.15
   53.21      67.84
   53.13      20.95
   53.04      30.71
   52.96     -70.89
   52.87       2.95
   52.79      43.58
   52.70     -15.02
   52.62      20.13
   52.54     -29.34
   52.45      21.85
   52.37      73.57
   52.29     -36.60
   52.21      94.66
   52.12      84.75
   52.04      67.37
   51.96      66.44
   51.88      26.18
   51.79     -17.11
   51.71      21.94
   51.63      57.76
   51.55      21.31
   51.47     -39.01
   51.39      35.25
   51.31     -24.89
   51.23      37.10
   51.15     -18.64
   51.07      43.91
   50.99      86.08
   50.91      10.42
   50.83     118.59
   50.75     183.12
   50.67       4.11
   50.59      -0.36
   50.51       9.49
   50.43      73.26
   50.36     -21.90
   50.28      57.39
   50.20     -23.70
   50.12     -15.24
   50.04      79.09
   49.97      17.70
   49.89     148.93
   49.81     222.54
   49.73     568.99
   49.66     498.14
   49.58     674.22
   49.51     693.22
   49.43     605.77
   49.35     363.20
   49.28     380.22
   49.20     405.00
   49.13     518.67
   49.05     797.01
   48.98    1169.52
   48.90    1491.61
   48.83    1597.26
   48.75    1658.01
   48.68    1723.09
   48.60    1517.77
   48.53     953.71
   48.45     549.07
   48.38     495.00
   48.31     510.79
   48.23     464.69
   48.16     475.90
   48.09     302.85
   48.01     247.74
   47.94     212.36
   47.87     153.29
   47.80     104.47
   47.72      84.54
   47.65      74.27
   47.58      31.66
   47.51     123.19
   47.44      87.77
   47.36      92.33
   47.29      -0.74
   47.22      41.41
   47.15      32.79
   47.08     -21.74
   47.01      28.48
   46.94      37.91
   46.87      65.96
   46.80     100.45
   46.73      34.00
   46.66      76.79
   46.59      57.14
   46.52      52.30
   46.45     376.64
   46.38     413.88
   46.31     782.30
   46.24     637.43
   46.17     724.58
   46.10     889.49
   46.04     552.01
   45.97     370.49
   45.90      91.93
   45.83      67.73
   45.76      45.42
   45.70     111.84
   45.63      38.41
   45.56       9.00
   45.49      23.61
   45.43     127.07
   45.36     126.21
   45.29     208.79
   45.23     393.19
   45.16     425.75
   45.09     508.56
   45.03     424.01
   44.96     266.77
   44.89     211.58
   44.83      58.92
   44.76      49.94
   44.70      79.25
   44.63      63.19
   44.57     -46.28
   44.50      27.83
   44.44      15.15
   44.37      68.05
   44.31     -12.30
   44.24     -16.95
   44.18      51.78
   44.11      34.72
   44.05      -4.18
   43.99      33.03
   43.92      14.93
   43.86      76.60
   43.80      26.49
   43.73     -13.53
   43.67     -54.43
   43.61      25.29
   43.54      47.43
   43.48      95.73
   43.42      44.38
   43.35      86.87
   43.29     121.00
   43.23     264.28
   43.17     322.35
   43.11     625.56
   43.04     647.90
   42.98     692.48
   42.92     547.21
   42.86     390.87
   42.80     260.11
   42.74     145.16
   42.67      32.98
   42.61      92.69
   42.55      76.00
   42.49     -27.67
   42.43     118.24
   42.37      93.73
   42.31     232.84
   42.25      42.29
   42.19      73.87
   42.13      67.33
   42.07      83.76
   42.01     -27.86
   41.95      -6.49
   41.89      34.56
   41.83      24.12
   41.77      34.29
   41.71     -29.39
   41.65      -7.96
   41.60      12.66
   41.54       7.78
   41.48      56.83
   41.42      39.09
   41.36     -38.18
   41.30      57.22
   41.25      54.97
   41.19     -64.79
   41.13      35.00
   41.07     -29.29
   41.01     -49.49
   40.96      52.31
   40.90     -23.87
   40.84      88.53
   40.79      38.52
   40.73      11.31
   40.67     -51.80
   40.61      43.16
   40.56      66.80
   40.50      30.24
   40.45      14.13
   40.39     -19.24
   40.33     -20.05
   40.28      38.29
   40.22     122.11
   40.16     101.32
   40.11     165.02
   40.05     221.29
   40.00     144.06
   39.94     138.47
   39.89     128.19
   39.83      38.97
   39.78      98.71
   39.72     -20.87
   39.67      62.66
   39.61     122.59
   39.56     101.61
   39.50      94.69
   39.45      47.76
   39.40      12.74
   39.34     -27.81
   39.29     127.23
   39.23      18.78
   39.18       3.96
   39.13      92.14
   39.07      10.76
   39.02      -8.12
   38.97      73.07
   38.91      38.33
   38.86      82.06
   38.81     -16.78
   38.75      24.42
   38.70      73.61
   38.65      75.84
   38.60      10.66
   38.54     -19.37
   38.49      82.60
   38.44      21.11
   38.39      90.24
   38.33     -44.21
   38.28      46.38
   38.23     114.49
   38.18      22.92
   38.13      46.97
   38.08      11.30
   38.02      27.80
   37.97      77.77
   37.92     122.55
   37.87      48.99
   37.82     148.76
   37.77      -0.51
   37.72      98.71
   37.67      34.01
   37.62     -11.31
   37.57       6.33
   37.52      72.25
   37.47       9.07
   37.42     -55.60
   37.36     130.16
   37.31      11.06
   37.27     177.33
   37.22     293.96
   37.17     337.18
   37.12     610.18
   37.07     738.40
   37.02    1087.66
   36.97    1187.84
   36.92    1015.74
   36.87    1151.29
   36.82    1102.78
   36.77     916.87
   36.72     595.65
   36.67     506.80
   36.63     276.80
   36.58     393.48
   36.53     250.40
   36.48     301.99
   36.43     287.35
   36.38     198.47
   36.34     159.13
   36.29     220.48
   36.24     298.11
   36.19     506.40
   36.14     523.22
   36.10     497.40
   36.05     477.05
   36.00     478.70
   35.96     530.30
   35.91     227.24
   35.86     239.58
   35.81     103.79
   35.77      33.78
   35.72     108.82
   35.67      -7.84
   35.63     142.48
   35.58      87.00
   35.53     -13.02
   35.49     108.31
   35.44     100.97
   35.40       5.21
   35.35      67.23
   35.30      47.66
   35.26      34.57
   35.21      97.17
   35.17     -71.22
   35.12      21.64
   35.07     -58.91
   35.03      63.52
   34.98      23.93
   34.94     127.68
   34.89     -10.46
   34.85      24.72
   34.80      22.45
   34.76      74.99
   34.71      14.87
   34.67      67.06
   34.62     -26.64
   34.58      -5.37
   34.53      80.96
   34.49       2.09
   34.45      17.98
   34.40      54.59
   34.36     133.33
   34.31      91.99
   34.27      63.53
   34.23       8.16
   34.18      30.44
   34.14      43.78
   34.09      32.06
   34.05     131.55
   34.01      63.89
   33.96      86.03
   33.92      43.22
   33.88      14.42
   33.83       7.56
   33.79     -30.57
   33.75      23.01
   33.71       9.93
   33.66     -53.09
   33.62      66.95
   33.58     121.64
   33.53      10.04
   33.49      86.18
   33.45      52.65
   33.41     -11.95
   33.36     104.21
   33.32      89.93
   33.28      19.57
   33.24      96.89
   33.20      30.67
   33.15      45.88
   33.11      45.15
   33.07      50.87
   33.03      81.43
   32.99     179.46
   32.95     264.34
   32.91     208.23
   32.86     242.71
   32.82     395.39
   32.78     430.53
   32.74     422.51
   32.70     208.41
   32.66     181.06
   32.62     139.98
   32.58     153.72
   32.54      91.25
   32.50       5.69
   32.46     147.89
   32.41      52.24
   32.37      58.11
   32.33      42.62
   32.29     -13.40
   32.25     -41.34
   32.21     -52.44
   32.17      51.18
   32.13      48.82
   32.09     130.52
   32.05     135.20
   32.01      17.51
   31.97      57.51
   31.93      14.48
   31.90      16.95
   31.86       5.12
   31.82     109.45
   31.78      13.20
   31.74     106.25
   31.70     105.53
   31.66     179.92
   31.62     120.07
   31.58     115.78
   31.54     145.88
   31.50     139.65
   31.47      -3.62
   31.43     114.69
   31.39      80.62
   31.35      -2.60
   31.31       4.62
   31.27     120.81
   31.24     222.94
   31.20      92.70
   31.16     149.85
   31.12      48.43
   31.08      18.04
   31.04      96.89
   31.01      41.29
   30.97      60.79
   30.93     136.29
   30.89      50.90
   30.86     134.87
   30.82      26.15
   30.78      37.04
   30.74     -20.24
   30.71     102.95
   30.67      43.28
   30.63      62.97
   30.59      -7.24
   30.56     110.92
   30.52      86.97
   30.48      77.48
   30.45      89.10
   30.41      77.82
   30.37       3.00
   30.34     -34.23
   30.30      53.20
   30.26      76.77
   30.23      -9.47
   30.19      19.14
   30.15     140.09
   30.12     191.63
   30.08     -43.78
   30.05      -6.52
   30.01      45.89
   29.97      72.92
   29.94      30.93
   29.90      55.83
   29.87     128.86
   29.83      32.22
   29.80     131.21
   29.76      20.75
   29.72      -6.31
   29.69      16.02
   29.65      42.35
   29.62      55.47
   29.58      27.36
   29.55      33.44
   29.51     107.05
   29.48      10.20
   29.44      91.05
   29.41      22.21
   29.37      62.87
   29.34      46.46
   29.30      54.47
   29.27      93.04
   29.23      88.71
   29.20      91.66
   29.16     -41.41
   29.13     138.90
   29.10      19.38
   29.06     112.90
   29.03      93.70
   28.99     145.79
   28.96      72.38
   28.92     -31.85
   28.89      13.58
   28.86      -7.14
   28.82      48.35
   28.79      -8.51
   28.75      77.28
   28.72     -35.95
   28.69      86.84
   28.65     131.20
   28.62      47.76
   28.59      36.57
   28.55      64.17
   28.52      26.55
   28.49      -3.00
   28.45     -60.47
   28.42      68.65
   28.39     248.78
   28.35     -75.02
   28.32     105.35
   28.29      18.35
   28.25      21.12
   28.22      57.37
   28.19     -28.96
   28.16     113.33
   28.12       6.42
   28.09     -14.46
   28.06     122.80
   28.03      51.52
   27.99      17.44
   27.96     -53.12
ENDDATA           4072
ENDSUBENT         4082
ENDENTRY             8
