ENTRY            10579   20210812   20220328   20220327       1490
SUBENT        10579001   20210812   20220328   20220327       1490
BIB                 11         25
TITLE      Neutron resonance spectroscopy: 139La
AUTHOR     (G.Hacken,J.Rainwater,H.I.Liou,U.N.Singh)
REFERENCE  (J,PR/C,13,1884,1976)
           #doi:10.1103/PhysRevC.13.1884
INSTITUTE  (1USACOL)
FACILITY   (SYNCH,1USACOL) Nevis synchrocyclotron.
INC-SOURCE (EVAP) Evaporation neutrons from protons on lead target
SAMPLE     (57-LA-139,NAT=0.9991)
           (57-LA-138,NAT=0.00089) Different thicknesses of
           natural lanthanum: 99.91% 139La, 0.089% 138La. Three
           sample thicknesses were used. The thick sample of La
           metal had 1/n = 13.9 b/atom. The much purer medium
           thickness sample of La2O3 had 1/n = 50.5 b/atom,
           while the thin sample had 1/n = 227 b/atom of La.
DETECTOR   (SCIN) Plastic scintillators for self-indication
            measurements.
           (NAICR) Sodium-iodide crystals for viewing boron slab
CORRECTION Data corrected for background
STATUS     (APRVD) Approved by author 1976/07/20.
HISTORY    (19760407C)
           (19780405U) Reference update.
           (19830913A) Converted to reaction formalism.
           (20040702A) Updated to new date formats, lower case.
           (20210812A) BP: Updated  entry and status, sample,
                       digitized data, added doi.
ENDBIB              25
NOCOMMON             0          0
ENDSUBENT           28
SUBENT        10579002   20210812   20220328   20220327       1490
BIB                  5          9
REACTION  1(57-LA-139(N,0),,EN)
          2(57-LA-139(N,EL),,WID/RED,,G)
METHOD     (TRN) Transmission over 205.05 meter path length and
           capture gamma measurements at 39.57 meters.
ERR-ANALYS (DATA-ERR) No information on sources of uncertainties.
FLAG       (1.) level has greater than 0.6 Bayes probability
            for being a p-level, based on S1=0.6e-04
STATUS     (DEP,10579006)
           (TABLE) Table I, page 1887.
ENDBIB               9
COMMON               1          3
MOMENTUM L
NO-DIM
         0.
ENDCOMMON            3
DATA                 5        150
DATA      1DATA-ERR  1DATA      2DATA-ERR  2FLAG
EV         EV         MILLI-EV   MILLI-EV   NO-DIM
       72.3        0.1       1.77       0.05
      248.2        0.2      0.006      0.002         1.
      339.4        0.2      0.006      0.004         1.
      617.4        0.2       0.60       0.03
      702.5        0.2       0.15       0.02         1.
      875.5        0.4       0.39       0.05
      905.3        0.4       0.12       0.03         1.
      962.8        0.4       0.28       0.02
     1178.7        0.5       26.9        1.0
     1208.0        0.6       0.20       0.04         1.
     1256.3        0.6       0.31       0.05         1.
     1426.3        0.7       0.04       0.01         1.
     1433.0        0.7       0.07       0.02         1.
     1637.5        0.9       0.35       0.05         1.
     1652.1        0.9       0.21       0.03         1.
     1826.4        0.5       0.08       0.02         1.
     1916.7        0.6       0.14       0.05         1.
     1971.3        0.6       0.10       0.02         1.
     2116.0        0.6        37.         4.
     2151.7        0.7       10.4        0.7
     2176.5        0.7       0.21       0.02         1.
     2381.1        0.8       0.70       0.05
     2469.8        0.8       10.3        1.5
     2666.0        1.0        0.7        0.1
     2856.6        1.0        3.7        0.4
     2997.5        1.1       105.         7.
     3287.7        1.3        18.         3.
     3424.8        1.4       0.17       0.09         1.
     3484.6        1.4       122.         6.
     3729.1        1.6        1.5        0.3
     3749.4        1.6        42.         4.
     4008.9        1.7        0.2        0.2         1.
     4275.2        1.9       0.44       0.12         1.
     4360.6        2.0        38.         3.
     4613.6        2.1        0.6        0.2         1.
     4650.3        2.2        26.         3.
     4729.4        2.2       0.75       0.25         1.
     4817.5        2.3        1.1        0.2
     5185.2        2.5        0.9        0.1         1.
     5352.8        2.7        8.2        1.5
     5528.5        2.8        1.7        0.2
     5833.2        3.0        7.9        4.0
     5845.5        3.0        1.0        0.7         1.
     5860.8        3.1        0.9        0.5         1.
     5979.3        3.2        3.7        0.6
     6336.4        3.5        1.2        0.6         1.
     6462.5        3.6        26.         3.
     6559.6        3.6        9.3        1.8
     6864.4        3.9        22.         2.
     6990.7        4.0        7.2        0.8
     7061.3        4.1        0.8        0.2         1.
     7100.0        4.1        1.6        0.3
     7137.0        4.1       15.4        5.0
     7448.2        4.4        1.5        1.0
     7466.0        4.4       11.6        6.0
     7550.4        4.5        1.5        0.3
     7903.7        4.8        2.0        0.5
     8035.2        4.9       14.5        3.5
     8180.1        5.1        1.5        0.3         1.
     8362.9        5.2        2.5        0.7
     8519.5        5.4        27.         3.
     8672.3        5.5         4.         2.
     8688.9        5.5        1.3        0.7         1.
     8834.9        5.7       0.96       0.10         1.
     8915.0        5.8        39.         5.
     9219.3        6.1        0.5        0.3         1.
     9310.9        6.1        1.0        0.3         1.
     9610.1        6.5        0.5        0.3         1.
     9681.4        6.5        1.7        0.8         1.
     9770.0        6.6        0.6        0.4         1.
     9826.5        6.7       0.34       0.17         1.
     9880.0        6.7        6.2        0.8
     9991.9        6.8       20.3        2.5
     10050.         7.       0.12       0.09         1.
     10071.         7.       0.12       0.09         1.
     10221.         7.        24.         3.
     10303.         7.        0.6        0.4         1.
     10379.         7.        2.9        1.5
     10588.         7.        2.8        0.3
     10739.         8.        3.0        0.6
     11171.         8.        8.5        1.5
     11417.         8.        0.5        0.4         1.
     11526.         8.        13.         3.
     11917.         9.        2.4        0.7
     11998.         9.        3.3        1.0
     12152.         9.        8.3        2.1
     12413.         9.        5.2        1.0
     12688.        10.        8.5        2.5
     13134.        10.        22.         5.
     13186.        10.        3.0        1.0
     13290.        10.        7.4        0.8
     13406.        11.        9.4        1.7
     13497.        11.        6.4        1.0
     13820.        11.        0.7        0.4         1.
     14022.        11.        0.8        0.5         1.
     14136.        12.        7.6        2.3
     14217.        12.       17.8        3.3
     14352.        12.        7.1        2.0
     14584.        12.       16.6        2.5
     14902.        12.       20.7        4.5
     15155.        13.        5.0        0.8
     15219.        13.        24.         8.
     15665.        13.        1.8        1.2         1.
     15800.        14.        7.2        1.5
     16020.        14.        3.5        3.1
     16132.        14.        0.8        0.5         1.
     16273.        14.        57.         9.
     16693.        15.        1.5        0.9         1.
     16745.        15.        3.4        2.0
     16872.        15.        4.0        2.5
     16947.        15.        3.6        3.0
     17207.        15.        35.         8.
     17362.        16.        1.1        0.9         1.
     17536.        16.        6.2        3.8
     17648.        16.        2.0        1.5         1.
     17712.        16.        8.3        3.5
     17874.        16.        30.         8.
     17973.        16.        6.8        2.4
     18056.        17.        7.4        2.0
     18410.        17.        1.7        0.9         1.
     18582.        17.        62.        16.
     18721.        18.        1.0        0.8         1.
     18880.        18.        29.        10.
     18987.        18.        1.8        1.4         1.
     19041.        18.        19.         6.
     19480.        19.       11.8        3.0
     19649.        19.         8.         4.
     19705.        19.        4.6        2.1
     20070.        19.        9.9        3.7
     20227.        20.        60.        15.
     20266.        20.         6.         4.
     20465.        20.        29.        18.
     21017.        21.        69.        21.
     21409.        21.        60.        30.
     21505.        22.        15.         8.
     21745.        22.       15.6        3.9
     21877.        22.         2.         2.         1.
     22123.        23.        11.         4.
     22281.        23.        20.         5.
     22933.        24.        26.        13.
     23016.        24.        2.5        2.0         1.
     23172.        24.       100.        45.
     23269.        24.        30.        20.
     23514.        25.        33.        10.
     24285.        26.        2.1        1.9         1.
     24666.        27.        90.        25.
     24826.        27.         5.         3.
     25509.        28.        36.        13.
     25705.        28.        13.         4.
     26018.        29.        99.        30.
ENDDATA            152
ENDSUBENT          170
SUBENT        10579003   20210812   20220328   20220327       1490
BIB                  4          7
REACTION   (57-LA-139(N,EL),,STF)
ANALYSIS   Standard analysis, ignoring intermediate structure,
           using single-channel Porter-Thomas fit to
           g*reduced neutron width data.
ERR-ANALYS (DATA-ERR) No information on sources of uncertainties.
STATUS     (DEP,10579006)
           (TABLE) pages 1884-1888.
ENDBIB               7
COMMON               2          3
EN-RES-MIN EN-RES-MAX
KEV        KEV
        6.0       26.0
ENDCOMMON            3
DATA                 4          2
MOMENTUM L DATA       +DATA-ERR  -DATA-ERR
NO-DIM     NO-DIM     NO-DIM     NO-DIM
  0.          0.76E-04   0.13E-04   0.13E-04
  1.          0.60E-04   0.30E-04   0.20E-04
ENDDATA              4
ENDSUBENT           20
SUBENT        10579004   20210812   20220328   20220327       1490
BIB                  4          6
REACTION   (57-LA-139(N,0),,D)
ANALYSIS   Single-channel Porter-Thomas fit ignoring intermediate
            structure.
ERR-ANALYS (DATA-ERR) No information on sources of uncertainties.
STATUS     (DEP,10579006)
           (TABLE) pages 1884-1888.
ENDBIB               6
COMMON               2          3
EN-RES-MIN EN-RES-MAX
KEV        KEV
        6.0       26.0
ENDCOMMON            3
DATA                 2          1
DATA       DATA-ERR
EV         EV
       208.        10.
ENDDATA              3
ENDSUBENT           18
SUBENT        10579005   20210812   20220328   20220327       1490
BIB                  3          4
REACTION   (57-LA-139(N,EL),,STF)
ANALYSIS   Analysis made also accounted for intermediate structure
STATUS     (DEP,10579006)
           (TABLE) pages 1885-1888.
ENDBIB               4
COMMON               1          3
MOMENTUM L
NO-DIM
         0.
ENDCOMMON            3
DATA                 3          2
EN-RES-MIN EN-RES-MAX DATA
KEV        KEV        NO-DIM
         6.        18.   0.50E-04
         6.        26.   0.76E-04
ENDDATA              4
ENDSUBENT           17
SUBENT        10579006   20210812   20220328   20220327       1490
BIB                  4          4
REACTION   (57-LA-139(N,TOT),,SIG)
METHOD     (TOF) Time-of-flight over 205.05 meter path length.
STATUS     (CURVE) Fig.1, page 1886.
HISTORY    (20210812A) BP: Digitized data.
ENDBIB               4
NOCOMMON             0          0
DATA                 2        969
EN         DATA
KEV        B
      0.021  4.438E+01
      0.024  3.816E+01
      0.027  3.344E+01
      0.033  2.875E+01
      0.039  2.426E+01
      0.046  2.126E+01
      0.054  1.862E+01
      0.065  1.760E+01
      0.075  2.249E+01
      0.075  8.598E+02
      0.075  7.819E+01
      0.081  2.047E+01
      0.088  1.862E+01
      0.098  1.793E+01
      0.108  1.513E+01
      0.124  1.403E+01
      0.130  1.485E+01
      0.139  1.403E+01
      0.149  1.326E+01
      0.162  1.277E+01
      0.175  1.403E+01
      0.182  1.253E+01
      0.192  1.326E+01
      0.199  1.277E+01
      0.204  1.162E+01
      0.212  1.162E+01
      0.220  1.277E+01
      0.235  1.253E+01
      0.241  1.140E+01
      0.250  1.971E+01
      0.252  1.206E+01
      0.262  1.162E+01
      0.271  1.037E+01
      0.277  1.098E+01
      0.288  1.077E+01
      0.302  1.119E+01
      0.318  1.119E+01
      0.333  1.077E+01
      0.339  1.485E+01
      0.345  1.077E+01
      0.359  1.098E+01
      0.372  1.098E+01
      0.380  9.802E+00
      0.385  1.119E+01
      0.397  1.018E+01
      0.408  1.057E+01
      0.425  9.802E+00
      0.435  9.989E+00
      0.445  1.057E+01
      0.454  9.262E+00
      0.462  9.439E+00
      0.471  1.037E+01
      0.484  1.037E+01
      0.500  1.018E+01
      0.502  9.262E+00
      0.518  9.619E+00
      0.527  9.989E+00
      0.534  8.919E+00
      0.550  9.439E+00
      0.566  8.919E+00
      0.589  9.089E+00
      0.598  9.802E+00
      0.610  9.439E+00
      0.618  1.829E+02
      0.622  1.206E+01
      0.624  1.018E+01
      0.628  8.919E+00
      0.645  9.089E+00
      0.660  9.262E+00
      0.674  9.439E+00
      0.687  8.270E+00
      0.699  9.262E+00
      0.701  1.078E+02
      0.707  8.919E+00
      0.712  7.964E+00
      0.724  8.919E+00
      0.732  8.428E+00
      0.737  1.018E+01
      0.749  8.752E+00
      0.759  7.669E+00
      0.774  9.262E+00
      0.780  8.116E+00
      0.792  8.270E+00
      0.800  1.162E+01
      0.811  8.752E+00
      0.820  7.964E+00
      0.831  1.326E+01
      0.832  7.964E+00
      0.842  8.270E+00
      0.848  1.162E+01
      0.854  8.589E+00
      0.860  7.964E+00
      0.870  1.140E+01
      0.873  1.404E+02
      0.877  9.989E+00
      0.879  8.428E+00
      0.894  7.526E+00
      0.903  6.234E+01
      0.905  8.919E+00
      0.907  2.207E+01
      0.915  8.116E+00
      0.926  7.669E+00
      0.932  8.589E+00
      0.946  7.964E+00
      0.953  7.815E+00
      0.963  8.433E+01
      0.966  1.206E+01
      0.968  7.247E+00
      0.981  7.247E+00
      0.991  7.247E+00
      1.006  6.128E+00
      1.018  6.016E+00
      1.029  6.128E+00
      1.042  6.128E+00
      1.054  6.242E+00
      1.061  5.691E+00
      1.073  6.128E+00
      1.086  6.016E+00
      1.098  6.128E+00
      1.104  5.285E+00
      1.113  5.587E+00
      1.124  5.285E+00
      1.139  5.093E+00
      1.149  5.906E+00
      1.158  7.105E+00
      1.159  8.871E+00
      1.164  1.087E+01
      1.165  1.603E+01
      1.168  3.120E+01
      1.174  1.876E+02
      1.177  5.906E+02
      1.183  1.422E+02
      1.183  5.434E+01
      1.183  2.897E+01
      1.187  2.364E+01
      1.193  1.965E+01
      1.197  1.489E+01
      1.206  1.333E+01
      1.212  1.128E+01
      1.219  1.010E+01
      1.227  9.377E+00
      1.240  8.549E+00
      1.251  2.155E+01
      1.254  8.708E+00
      1.272  8.087E+00
      1.294  7.939E+00
      1.313  7.105E+00
      1.332  7.651E+00
      1.346  7.373E+00
      1.361  7.511E+00
      1.370  6.975E+00
      1.383  7.651E+00
      1.400  6.599E+00
      1.414  7.373E+00
      1.421  9.036E+00
      1.430  1.067E+01
      1.434  6.975E+00
      1.441  7.511E+00
      1.450  6.478E+00
      1.463  7.105E+00
      1.474  6.599E+00
      1.487  6.478E+00
      1.495  7.651E+00
      1.506  6.722E+00
      1.523  6.599E+00
      1.538  6.599E+00
      1.550  6.599E+00
      1.558  6.478E+00
      1.570  6.847E+00
      1.580  6.847E+00
      1.592  6.359E+00
      1.605  6.359E+00
      1.621  6.599E+00
      1.633  2.039E+01
      1.637  7.794E+00
      1.639  6.599E+00
      1.646  1.357E+01
      1.652  7.939E+00
      1.655  6.847E+00
      1.667  6.359E+00
      1.687  6.478E+00
      1.703  6.722E+00
      1.715  6.128E+00
      1.731  7.373E+00
      1.731  6.016E+00
      1.747  6.242E+00
      1.764  5.906E+00
      1.773  6.478E+00
      1.786  6.128E+00
      1.800  6.478E+00
      1.811  5.906E+00
      1.823  9.377E+00
      1.829  6.359E+00
      1.842  7.238E+00
      1.846  6.016E+00
      1.852  5.384E+00
      1.868  6.242E+00
      1.877  5.188E+00
      1.880  6.359E+00
      1.895  6.359E+00
      1.900  5.285E+00
      1.911  6.128E+00
      1.914  1.067E+01
      1.916  5.384E+00
      1.924  5.285E+00
      1.934  6.128E+00
      1.941  5.285E+00
      1.957  5.484E+00
      1.971  8.549E+00
      1.971  5.587E+00
      1.985  4.908E+00
      2.001  5.000E+00
      2.022  4.908E+00
      2.042  5.093E+00
      2.058  4.312E+00
      2.066  5.000E+00
      2.074  4.643E+00
      2.082  5.285E+00
      2.090  6.722E+00
      2.096  1.010E+01
      2.098  1.759E+01
      2.101  2.408E+01
      2.108  1.947E+02
      2.112  4.312E+02
      2.118  1.475E+02
      2.121  9.291E+01
      2.123  5.334E+01
      2.128  2.593E+01
      2.133  1.965E+01
      2.140  1.462E+01
      2.144  2.196E+01
      2.146  4.516E+01
      2.147  2.216E+02
      2.155  6.911E+01
      2.159  2.741E+01
      2.161  1.545E+01
      2.168  1.215E+01
      2.177  1.859E+01
      2.178  1.128E+01
      2.182  1.010E+01
      2.216  7.864E+00
      2.255  7.189E+00
      2.286  6.948E+00
      2.317  6.589E+00
      2.347  6.249E+00
      2.377  3.097E+01
      2.386  6.516E+00
      2.414  5.731E+00
      2.448  5.972E+00
      2.470  2.088E+02
      2.478  1.073E+01
      2.481  8.250E+00
      2.492  7.242E+00
      2.523  6.868E+00
      2.551  6.271E+00
      2.587  6.064E+00
      2.623  5.975E+00
      2.648  6.459E+00
      2.658  3.135E+01
      2.668  6.005E+00
      2.693  5.585E+00
      2.724  5.397E+00
      2.760  4.933E+00
      2.785  4.337E+00
      2.819  5.059E+00
      2.835  4.280E+00
      2.853  9.707E+01
      2.855  6.608E+00
      2.872  5.696E+00
      2.902  5.402E+00
      2.922  6.657E+00
      2.938  8.200E+00
      2.952  1.130E+01
      2.957  1.586E+01
      2.970  4.551E+01
      2.994  5.251E+02
      3.003  1.044E+02
      3.009  4.835E+01
      3.024  2.861E+01
      3.046  1.727E+01
      3.074  1.282E+01
      3.108  9.710E+00
      3.145  8.388E+00
      3.186  7.251E+00
      3.223  6.383E+00
      3.242  5.301E+00
      3.259  5.514E+00
      3.270  1.439E+01
      3.279  1.891E+02
      3.289  2.222E+01
      3.298  1.089E+01
      3.315  8.388E+00
      3.329  7.228E+00
      3.373  5.907E+00
      3.404  7.153E+00
      3.426  1.064E+01
      3.445  2.261E+01
      3.458  6.862E+01
      3.465  2.330E+02
      3.479  4.856E+02
      3.485  2.249E+02
      3.492  6.759E+01
      3.512  3.509E+01
      3.543  2.201E+01
      3.604  1.170E+01
      3.658  9.569E+00
      3.677  8.895E+00
      3.708  6.860E+00
      3.719  1.099E+01
      3.726  3.593E+01
      3.739  2.897E+02
      3.748  9.391E+01
      3.754  4.601E+01
      3.762  3.474E+01
      3.774  2.301E+01
      3.788  1.738E+01
      3.836  1.343E+01
      3.906  1.165E+01
      3.961  1.107E+01
      3.995  1.268E+01
      4.006  1.013E+01
      4.037  9.790E+00
      4.048  1.161E+01
      4.067  9.824E+00
      4.090  9.308E+00
      4.106  1.005E+01
      4.132  9.177E+00
      4.165  9.211E+00
      4.199  9.072E+00
      4.226  9.100E+00
      4.246  9.120E+00
      4.268  1.462E+01
      4.282  8.819E+00
      4.299  8.195E+00
      4.324  9.732E+00
      4.343  2.449E+01
      4.348  6.040E+01
      4.352  2.338E+02
      4.365  4.921E+01
      4.379  2.368E+01
      4.396  1.540E+01
      4.438  1.124E+01
      4.477  9.898E+00
      4.527  7.918E+00
      4.554  7.606E+00
      4.581  7.307E+00
      4.627  6.302E+00
      4.634  1.142E+01
      4.670  1.077E+02
      4.681  1.419E+01
      4.694  1.113E+01
      4.741  9.092E+00
      4.742  2.986E+01
      4.780  8.619E+00
      4.828  1.584E+01
      4.847  8.174E+00
      4.920  7.964E+00
      4.993  7.866E+00
      5.060  7.460E+00
      5.113  7.266E+00
      5.194  1.301E+01
      5.213  7.180E+00
      5.286  6.902E+00
      5.326  6.455E+00
      5.366  8.933E+00
      5.369  7.973E+01
      5.400  8.021E+00
      5.439  7.204E+00
      5.479  6.922E+00
      5.534  1.496E+01
      5.559  6.930E+00
      5.599  6.749E+00
      5.652  6.664E+00
      5.699  6.851E+00
      5.772  6.767E+00
      5.854  2.799E+01
      5.867  1.842E+01
      5.873  1.332E+01
      5.946  8.889E+00
      5.980  2.112E+01
      5.999  7.984E+00
      6.052  7.076E+00
      6.098  7.081E+00
      6.145  8.221E+00
      6.185  7.090E+00
      6.232  6.906E+00
      6.278  6.372E+00
      6.325  1.023E+01
      6.338  6.553E+00
      6.371  6.045E+00
      6.398  5.428E+00
      6.425  6.132E+00
      6.461  9.028E+01
      6.473  2.015E+01
      6.492  1.054E+01
      6.498  8.153E+00
      6.525  7.624E+00
      6.561  7.186E+01
      6.572  1.041E+01
      6.591  8.055E+00
      6.658  7.536E+00
      6.711  6.862E+00
      6.758  6.418E+00
      6.811  6.085E+00
      6.854  6.931E+01
      6.865  1.700E+01
      6.871  1.046E+01
      6.871  1.213E+01
      6.904  8.658E+00
      6.944  8.432E+00
      7.005  2.203E+01
      7.031  7.376E+00
      7.051  1.122E+01
      7.077  8.449E+00
      7.085  1.320E+01
      7.134  8.296E+01
      7.145  1.472E+01
      7.158  1.218E+01
      7.177  9.428E+00
      7.197  8.579E+00
      7.237  7.810E+00
      7.290  7.816E+00
      7.330  7.115E+00
      7.397  6.839E+00
      7.424  1.381E+01
      7.451  1.191E+01
      7.459  3.912E+01
      7.477  1.041E+01
      7.490  9.472E+00
      7.537  1.384E+01
      7.544  8.624E+00
      7.597  8.176E+00
      7.663  7.754E+00
      7.716  7.352E+00
      7.783  7.163E+00
      7.856  7.367E+00
      7.890  1.468E+01
      7.903  7.273E+00
      7.956  6.990E+00
      7.996  1.021E+01
      8.023  8.923E+00
      8.031  3.135E+01
      8.069  8.015E+00
      8.109  7.701E+00
      8.183  7.606E+00
      8.183  1.220E+01
      8.229  7.018E+00
      8.282  7.216E+00
      8.357  1.739E+01
      8.382  7.526E+00
      8.415  6.667E+00
      8.455  5.908E+00
      8.498  5.569E+01
      8.503  1.366E+01
      8.511  3.518E+01
      8.536  1.565E+01
      8.556  1.101E+01
      8.569  9.496E+00
      8.609  8.761E+00
      8.656  1.351E+01
      8.669  1.074E+01
      8.702  7.982E+00
      8.755  7.267E+00
      8.802  9.401E+00
      8.835  6.443E+00
      8.868  7.894E+00
      8.876  1.825E+01
      8.904  5.527E+01
      8.929  1.851E+01
      8.935  1.201E+01
      8.982  1.064E+01
      9.008  8.933E+00
      9.075  8.472E+00
      9.141  8.254E+00
      9.201  9.330E+00
      9.248  8.267E+00
      9.301  1.070E+01
      9.321  7.841E+00
      9.381  8.510E+00
      9.434  7.542E+00
      9.474  7.247E+00
      9.521  7.654E+00
      9.567  7.660E+00
      9.594  8.537E+00
      9.654  7.465E+00
      9.668  1.105E+01
      9.707  7.676E+00
      9.747  7.475E+00
      9.801  8.680E+00
      9.840  7.486E+00
      9.875  2.178E+01
      9.887  8.346E+00
      9.900  6.725E+00
      9.960  6.822E+00
     10.025      9.423
     10.061      7.832
     10.097      6.241
     10.146      6.245
     10.182      8.857
     10.234     36.251
     10.255      9.298
     10.303      7.998
     10.365     13.365
     10.388      8.005
     10.485      7.579
     10.558     11.353
     10.594      7.443
     10.667      7.305
     10.727     10.498
     10.812      7.317
     10.933      7.183
     11.030      6.757
     11.090      5.747
     11.153     26.621
     11.199      7.641
     11.272      6.923
     11.345      8.088
     11.405      6.644
     11.492     24.912
     11.526      8.104
     11.599      7.386
     11.720      7.396
     11.805      6.534
     11.890      9.875
     11.926      7.124
     11.962     11.330
     12.010      7.421
     12.047      7.425
     12.132     11.779
     12.180      7.001
     12.265      7.733
     12.313      7.158
     12.386     10.932
     12.434      7.458
     12.555      6.889
     12.616      7.184
     12.665     17.912
     12.713      7.627
     12.834      7.203
     12.930      7.066
     13.003      6.058
     13.124      9.547
     13.126     22.300
     13.149     11.433
     13.221      7.671
     13.270     10.719
     13.318      7.245
     13.380     18.409
     13.439      7.835
     13.488     12.332
     13.548      7.700
     13.657      7.274
     13.790      8.155
     13.887      7.149
     14.008      7.160
     14.130     13.692
     14.141      7.027
     14.203     20.075
     14.214      8.627
     14.274      7.473
     14.335     10.232
     14.383      6.613
     14.480      6.766
     14.565      8.947
     14.568     34.163
     14.638      7.649
     14.759      7.225
     14.831      6.797
     14.868     17.089
     14.929     12.167
     14.940      7.820
     15.037      6.669
     15.122      7.112
     15.134     12.765
     15.208     26.103
     15.243     10.455
     15.291      7.996
     15.400      7.570
     15.497      7.434
     15.618      9.473
     15.715      7.888
     15.776     12.530
     15.812      7.461
     15.897      7.324
     15.981      8.345
     16.066      6.469
     16.102      7.052
     16.163      6.767
     16.238     35.468
     16.285     16.197
     16.321     10.839
     16.345      8.812
     16.466      8.243
     16.587      7.818
     16.684      8.986
     16.756      8.123
     16.817      9.867
     16.877      8.133
     16.998      7.129
     17.095      7.428
     17.156      9.317
     17.170     26.998
     17.216      9.032
     17.217     15.699
     17.325      8.317
     17.446      7.748
     17.483      9.780
     17.555      8.192
     17.604      9.356
     17.677     10.666
     17.688      7.334
     17.773      7.486
     17.798     11.401
     17.836     26.476
     17.882     10.394
     17.955      9.386
     17.955     12.574
     18.052     11.134
     18.064      8.091
     18.136      7.518
     18.233      7.237
     18.294      6.662
     18.366      8.118
     18.427      6.819
     18.488      9.867
     18.488     15.519
     18.574     26.975
     18.597     12.195
     18.609     17.269
     18.669      9.448
     18.730      7.859
     18.815     11.200
     18.852     17.434
     18.887     11.206
     18.911      9.759
     19.009     13.970
     19.056      9.047
     19.129      7.604
     19.262      6.891
     19.395      7.337
     19.481     11.982
     19.553      8.655
     19.589      8.948
     19.626     11.995
     19.710      9.828
     19.746      6.788
     19.831      6.940
     19.940      6.515
     20.048      5.113
     20.109      9.463
     20.145      6.401
     20.193      7.429
     20.266     31.321
     20.290     17.147
     20.314      9.870
     20.351      7.958
     20.399      7.069
     20.459     14.101
     20.508     22.409
     20.544     11.940
     20.556      7.599
     20.641      6.842
     20.713      6.978
     20.810      6.351
     20.895      6.233
     20.992     15.184
     21.064     26.560
     21.088     13.663
     21.100      9.833
     21.137      8.177
     21.233      7.038
     21.342      6.923
     21.403     14.977
     21.463     25.584
     21.487     15.114
     21.511     13.329
     21.548     11.545
     21.572      8.993
     21.644      7.852
     21.705      7.604
     21.790     13.616
     21.826      8.129
     21.886      8.774
     21.959      7.505
     22.056      8.027
     22.140     11.358
     22.164      7.785
     22.177      6.509
     22.237      7.027
     22.310     10.994
     22.346      7.805
     22.443      6.923
     22.551      6.935
     22.600      6.430
     22.696      6.697
     22.805      6.454
     22.926      7.745
     22.926     10.555
     22.999     15.927
     23.011     10.437
     23.059      8.527
     23.144     19.904
     23.204     33.577
     23.241     22.980
     23.253     29.623
     23.289     18.388
     23.313     14.559
     23.349     10.859
     23.398      9.204
     23.507      8.834
     23.543     16.246
     23.567     13.950
     23.603      9.611
     23.664      8.724
     23.748      7.840
     23.894      8.112
     24.015      7.743
     24.148      6.992
     24.244      7.386
     24.329      8.801
     24.341      7.398
     24.426      6.002
     24.534      7.037
     24.595      7.938
     24.655     11.904
     24.667     20.463
     24.704     26.342
     24.728     21.619
     24.764     14.088
     24.776     12.429
     24.813     10.901
     24.933     10.276
     24.970      8.492
     25.115      7.998
     25.224      7.883
     25.381      7.390
     25.490      9.957
     25.538     10.729
     25.562      8.688
     25.599      7.160
     25.671      7.168
     25.707     10.493
     25.744      8.965
     25.828      7.314
     25.901      7.195
     25.961     10.650
     26.046     27.136
     26.094     14.370
     26.106     12.327
     26.167     10.930
     26.276      9.282
     26.336     10.055
     26.421      8.915
     26.518     10.076
     26.554     11.230
     26.614     12.259
     26.638     12.517
     26.675     10.350
     26.687      9.074
     26.784      8.830
     26.904      8.205
     26.989      8.598
     27.074     10.651
     27.110     15.764
     27.158     12.321
     27.231     13.479
     27.255     10.928
     27.304      9.912
     27.352     10.556
     27.473      9.803
     27.594      9.179
     27.678      8.805
     27.751      8.558
     27.872     12.148
     27.872     10.233
     27.993      9.863
     28.017      8.589
     28.162      8.223
     28.283      8.109
     28.392      7.994
     28.452     10.428
     28.501     17.458
     28.549     13.504
     28.585     11.848
     28.694      9.689
     28.755     10.718
     28.791      9.189
     28.888      9.073
     29.008     11.130
     29.057      8.965
     29.093      9.863
     29.202      9.876
     29.238      8.475
     29.347      8.487
     29.383      7.981
     29.516      8.507
     29.589      9.282
     29.625     11.202
     29.710     10.828
     29.710      8.657
     29.782      7.899
     29.879      8.677
     29.952      8.302
     30.327      8.278
     30.604     10.464
     30.884      7.651
     31.103     12.836
     31.440      8.116
     31.885      8.578
     32.053      7.036
     32.385      8.405
     32.776      7.140
     33.161     12.691
     33.443      7.606
     33.608      9.518
     33.716     14.428
     33.940     12.251
     34.161     13.527
     34.387      9.077
     34.610      8.536
     34.830     12.721
     34.831     10.358
     35.108     11.726
     35.221     10.637
     35.499      9.915
     35.943     11.196
     35.990     22.468
     36.166     11.018
     36.168      8.836
     36.500     10.206
     36.613      8.026
     36.997     14.941
     37.111     11.307
     37.169      9.218
     37.504      7.315
     37.782      7.320
     37.834     11.957
     38.059      9.052
     38.447     10.331
     38.615      8.880
     38.834     13.883
     38.838      9.066
     39.337     10.165
     39.554     17.441
     39.726     10.445
     39.950      9.631
     40.284      8.182
     40.449     10.822
     40.618      8.825
     40.950     10.740
     41.119      8.561
     41.342      7.656
     41.730      8.754
     42.007     10.304
     42.064      8.578
     42.288      7.309
     42.620      9.133
     42.897     10.229
     43.066      8.050
     43.288      8.054
     43.676      9.970
     43.734      7.517
     44.179      7.979
     44.679      8.715
     44.957      8.720
     45.014      6.994
     45.181      6.543
     45.401     10.001
     45.624      8.459
     46.070      7.195
     46.511     13.202
     46.681      8.751
     46.904      8.482
     47.236     10.215
     47.405      7.855
     47.795      7.407
     48.351      7.326
     48.740      7.606
     49.184      9.068
     49.407      8.527
     49.463      7.437
     49.965      6.719
     50.075      8.084
     50.520      7.729
     50.686      9.550
     50.906     11.735
     51.131      8.739
     51.299      7.470
     51.518     11.837
     51.688      7.931
     52.022      7.937
     52.298     10.306
     52.634      7.403
     53.133      9.502
     53.301      8.142
     53.691      7.149
     53.857      8.697
     54.246      9.431
     54.470      7.799
     54.859      7.352
     55.359      7.906
     55.583      7.001
     56.028      6.009
     56.360      9.287
     56.862      7.478
     57.308      6.304
     57.529      7.854
     57.862      8.587
     58.197      7.138
     58.586      7.963
     58.865      6.878
     59.084     11.426
     59.420      7.706
     59.753      8.802
     60.142      9.082
     60.199      7.356
     60.533      7.180
     60.812      6.640
     60.866      8.822
     60.975     11.187
     61.256      7.738
     61.589      9.108
     61.702      6.746
     62.091      7.208
     62.368      7.940
     62.592      7.126
     62.815      6.221
     63.146      9.045
     63.259      7.592
     63.482      6.596
     63.761      5.874
     64.149      7.608
     64.591     10.706
     64.760      8.437
     64.927      7.713
     64.982      9.350
     65.262      6.537
     65.594      9.452
     65.928      8.731
     66.319      6.829
     66.708      7.017
     67.042      7.114
     67.429      9.212
     67.820      7.310
     68.044      6.223
     68.432      7.321
     68.989      6.785
     69.601      5.978
     69.934      7.711
     70.155      9.169
     70.434      7.811
     70.491      6.448
     70.825      6.545
     70.935      7.911
     71.378     10.009
     71.658      8.015
     71.882      6.019
     72.215      6.661
     72.772      6.126
     73.105      7.313
     73.495      6.138
     73.773      6.598
     74.158     12.422
     74.272      8.607
     74.773      7.797
     74.885      6.890
     75.108      6.167
     75.442      6.264
     75.719      7.360
ENDDATA            971
ENDSUBENT          980
ENDENTRY             6
