ENTRY            20923     801024              20050926       0000
SUBENT        20923001     801024              20050926       0000
BIB                 12         22
INSTITUTE  (2FR STR) NUCLEAR RESEARCH CENTRE, STRASBOURG.
REFERENCE  (J,JPR/C,27,88,6601)
           .PROCEEDINGS OF NUCLEAR PHYSICS COLLOQUIUM ON LIGHT
            NUCLEI HELD AT LYON, 26 TO 28 JANUARY, 1966.
AUTHOR     (A.HUCK,G.WALTER,A.COCHE)
TITLE      -REACTIONS INDUCED IN CARBON BY FAST NEUTRONS-
            (IN FRENCH)
FACILITY   (VDG  ) VAN DER GRAAFF.
INC-SOURCE (D-T  ) DEUTERIUM BEAM ON TRITIUM TARGET.
SAMPLE     .STILBENE SCINTILLATOR ALSO USED AS SAMPLE.
METHOD     .DIRECT DETECTION OF REACTION PRODUCTS AND SEPARATION
            OR ALPHAS BY PULSE SHAPE DISCRIMINATION.
DETECTOR   (SCIN ) STILBENE SCINTILLATOR.
MONITOR    (6-C-12(N,A)4-BE-9,PAR,SIG)
            THE C-12(N,A0) CROSS SECTION TO THE GROUND STATE OF
            BE-9 AS GIVEN BY CHATTERJEE +,J,NP,51,583,(1964) WAS
            USED.
STATUS     .DATA FROM PUBLICATION.
HISTORY    (790515C)
           (790628E)
           (800123A) NEW DATA SET ADDED.
           (800129E)
ENDBIB              22
COMMON               3          3
EN-NRM     MONIT      MONIT-ERR
MEV        MB         MB
 1.5000E+01 6.9000E+01 1.3000E+01
ENDCOMMON            3
ENDSUBENT           29
SUBENT        20923002     791010              20050926       0000
BIB                  2          2
REACTION   (6-C-12(N,A)4-BE-9,PAR,SIG)
STATUS     .DATA FROM PUBLICATION.
ENDBIB               2
COMMON               1          3
E-LVL
MEV
 0.0000E+00
ENDCOMMON            3
DATA                 3          2
EN         DATA       DATA-ERR
MEV        MB         MB
 1.6000E+01 4.9000E+01 1.6000E+01
 1.7000E+01 5.4000E+01 1.8000E+01
ENDDATA              4
ENDSUBENT           15
SUBENT        20923003     801024              20050926       0000
BIB                  3          4
REACTION   ((6-C-12(N,A)4-BE-9,,DE)+(6-C-12(N,N+A)4-BE-8,,DE,A))
             TOTAL ALPHA EMISSION SPECTRA.
STATUS     (NDD  )
HISTORY    (800123A) ADDED DATA SET.
ENDBIB               4
NOCOMMON             0          0
DATA                 3         90
EN         E          DATA
MEV        MEV        MB/MEV
 1.5000E+01 6.0000E+00 7.5300E+02
 1.5000E+01 6.1400E+00 6.2200E+02
 1.5000E+01 6.2800E+00 6.5800E+02
 1.5000E+01 6.4200E+00 5.7500E+02
 1.5000E+01 6.5600E+00 5.2600E+02
 1.5000E+01 6.7000E+00 4.3800E+02
 1.5000E+01 6.8500E+00 3.9400E+02
 1.5000E+01 7.0000E+00 3.6800E+02
 1.5000E+01 7.1700E+00 3.4800E+02
 1.5000E+01 7.3400E+00 3.2000E+02
 1.5000E+01 7.5000E+00 3.0800E+02
 1.5000E+01 7.6700E+00 3.2900E+02
 1.5000E+01 7.8400E+00 2.8200E+02
 1.5000E+01 8.0000E+00 2.6900E+02
 1.5000E+01 8.1400E+00 2.5000E+02
 1.5000E+01 8.2800E+00 2.1300E+02
 1.5000E+01 8.4200E+00 1.5500E+02
 1.5000E+01 8.5600E+00 1.1400E+02
 1.5000E+01 8.7000E+00 8.3000E+01
 1.5000E+01 8.8500E+00 4.1000E+01
 1.5000E+01 9.0000E+00 2.0000E+01
 1.5000E+01 9.1700E+00 6.0000E+00
 1.6000E+01 6.0000E+00 1.4520E+03
 1.6000E+01 6.1400E+00 1.2870E+03
 1.6000E+01 6.2800E+00 9.6500E+02
 1.6000E+01 6.4200E+00 7.7000E+02
 1.6000E+01 6.5600E+00 6.0300E+02
 1.6000E+01 6.7000E+00 5.2200E+02
 1.6000E+01 6.8500E+00 5.1500E+02
 1.6000E+01 7.0000E+00 4.1900E+02
 1.6000E+01 7.1700E+00 4.8600E+02
 1.6000E+01 7.3400E+00 3.8200E+02
 1.6000E+01 7.5000E+00 3.6400E+02
 1.6000E+01 7.6700E+00 3.1200E+02
 1.6000E+01 7.8400E+00 2.8300E+02
 1.6000E+01 8.0000E+00 2.2600E+02
 1.6000E+01 8.1400E+00 1.5300E+02
 1.6000E+01 8.2800E+00 1.1300E+02
 1.6000E+01 8.4200E+00 1.2100E+02
 1.6000E+01 8.5600E+00 1.1200E+02
 1.6000E+01 8.7000E+00 1.1600E+02
 1.6000E+01 8.8500E+00 1.2700E+02
 1.6000E+01 9.0000E+00 1.1000E+02
 1.6000E+01 9.1700E+00 1.0300E+02
 1.6000E+01 9.3400E+00 1.1900E+02
 1.6000E+01 9.5000E+00 1.2300E+02
 1.6000E+01 9.6700E+00 1.0200E+02
 1.6000E+01 9.8400E+00 8.9000E+01
 1.6000E+01 1.0000E+01 6.7000E+01
 1.6000E+01 1.0170E+01 3.8000E+01
 1.6000E+01 1.0340E+01 2.9000E+01
 1.6000E+01 1.0500E+01 8.0000E+00
 1.6000E+01 1.0670E+01 3.0000E+00
 1.7000E+01 6.0000E+00 1.1120E+03
 1.7000E+01 6.1400E+00 1.0490E+03
 1.7000E+01 6.2800E+00 9.7400E+02
 1.7000E+01 6.4200E+00 9.7700E+02
 1.7000E+01 6.5600E+00 8.3400E+02
 1.7000E+01 6.7000E+00 6.8400E+02
 1.7000E+01 6.8500E+00 6.2000E+02
 1.7000E+01 7.0000E+00 5.3900E+02
 1.7000E+01 7.1700E+00 4.7100E+02
 1.7000E+01 7.3400E+00 3.9300E+02
 1.7000E+01 7.5000E+00 3.4000E+02
 1.7000E+01 7.6700E+00 3.0800E+02
 1.7000E+01 7.8400E+00 2.8000E+02
 1.7000E+01 8.0000E+00 2.1600E+02
 1.7000E+01 8.1400E+00 1.9500E+02
 1.7000E+01 8.2800E+00 2.0000E+02
 1.7000E+01 8.4200E+00 1.9500E+02
 1.7000E+01 8.5600E+00 1.6200E+02
 1.7000E+01 8.7000E+00 1.6100E+02
 1.7000E+01 8.8500E+00 1.3700E+02
 1.7000E+01 9.0000E+00 9.8000E+01
 1.7000E+01 9.1700E+00 1.3100E+02
 1.7000E+01 9.3400E+00 1.0100E+02
 1.7000E+01 9.5000E+00 9.0000E+01
 1.7000E+01 9.6700E+00 1.0000E+02
 1.7000E+01 9.8400E+00 9.5000E+01
 1.7000E+01 1.0000E+01 8.4000E+01
 1.7000E+01 1.0170E+01 9.3000E+01
 1.7000E+01 1.0340E+01 7.3000E+01
 1.7000E+01 1.0500E+01 7.3000E+01
 1.7000E+01 1.0670E+01 6.1000E+01
 1.7000E+01 1.0840E+01 5.0000E+01
 1.7000E+01 1.1000E+01 4.6000E+01
 1.7000E+01 1.1140E+01 3.8000E+01
 1.7000E+01 1.1280E+01 2.2000E+01
 1.7000E+01 1.1420E+01 7.0000E+00
 1.7000E+01 1.1560E+01 3.0000E+00
ENDDATA             92
ENDSUBENT          101
ENDENTRY             3
