ENTRY            20973   20060807   20061116   20061102       2178
SUBENT        20973001   20060807   20061116   20061102       2178
BIB                 13         41
INSTITUTE  (2ITYCAT)
           (2GERFRK) LAST AUTHOR.
REFERENCE  (J,NP,48,408,196310)
AUTHOR     (G.CALVI,R.RICAMO,A.RUBBINO,D.ZUBKE)
TITLE      -TOTAL CROSS SECTIONS OF NA, MG AND SI FOR 2.8-5.2 MEV
            NEUTRONS-
FACILITY   (VDG,2GERKFK)  VAN DE GRAAFF PRODUCING A 2 MEV BEAM OF
                   DEUTERONS. BEAM CURRENT MEASURED WITH NUCLEAR
                   RESONANCE GAUSSMETER TO 0.1 PERCENT PRECISION,
                   ENERGY STABILIZED TO 0.1 PERCENT.
INC-SOURCE (D-D)   HEAVY ICE TARGET CONDENSED ONTO A COPPER
                   BACKING. NEUTRON ENERGY VARIED BY USING
                   DIFFERENT ANGLES.
METHOD     .TRANSMISSION METHOD USING TWO DIFFERENT EXPERIMENTAL
            ARRANGEMENTS.
DETECTOR   (SCIN)  TRANSMITTED NEUTRONS DETECTED IN TWO DIFFERENT
                   WAYS-
                   1.EMMERICH SCINTILLATOR, 25 MM IN DIAMETER AND
                     20 MM THICK, COUPLED TO A DUMONT 6342 PHOTO-
                     MULTIPLIER TUBE. GAMMA RAYS ELIMINATED BY A
                     SUITABLE CHOICE OF DISCRIMINATOR BIAS.
                   2.STILBENE ORGANIC SCINTILLATOR COUPLED TO A
                     56AVP PHILIPS PHOTOMULTIPLIER WITH PULSE
                     SHAPE DISCRIMINATION TO ELIMINATE GAMMAS.
COMMENT    .THE FLUCTUATIONS IN THE TOTAL CROSS SECTIONS ARE
            INTERPRETED AS BEING DUE TO FLUCTUATIONS IN THE
            LEVEL DENSITY OF THE INTERMEDIATE NUCLEUS.
CORRECTION .CORRECTION FOR SMALL BACKGROUND EFFECT BY REPLACING
            THE D2-O TARGET BY THE SAME THICKNESS OF H2-O. THIS
            CORRECTION HAS A MAXIMUM VALUE OF 3 PERCENT AT THE
            HIGHER NEUTRON ENERGIES.
           .NO CORRECTION FOR INSCATTERING WHICH WAS ESTIMATED TO
            BE LESS THAN 0.8 PERCENT AT ANY ENERGY.
ERR-ANALYS (ERR-S) STATISTICAL ERRORS ALL ABOUT +-3 PERCENT.
           .MEAN NEUTRON ENERGY ACCURATE TO ABOUT +-5 KEV.
           .ALL CROSS-SECTIONS ARE THE AVERAGE VALUES OF FIVE
            MEASUREMENTS.
STATUS     (NDD)   GRAPHICAL DATA GIVEN IN THE PUBLICATION.
HISTORY    (19790618C)
           (19790716E)
           (20060807A) DATE AND REFERENCE CODES ARE CORRECTED
ENDBIB              41
COMMON               2          3
EN-ERR     ERR-S
KEV        PER-CENT
   5.       3.0000E+00
ENDCOMMON            3
ENDSUBENT           48
SUBENT        20973002   20060807   20061116   20061102       2178
BIB                  1          1
REACTION   (11-NA-23(N,TOT),,SIG)
ENDBIB               1
NOCOMMON             0          0
DATA                 3        114
EN         EN-RSL     DATA
MEV        MEV        B
 2.7500E+00 2.0000E-02 2.6400E+00
 2.7800E+00 2.0000E-02 2.6100E+00
 2.8000E+00 2.0000E-02 2.5700E+00
 2.8200E+00 2.1000E-02 2.5800E+00
 2.8500E+00 2.1000E-02 2.5800E+00
 2.8800E+00 2.2000E-02 2.5600E+00
 2.9000E+00 2.2000E-02 2.5100E+00
 2.9200E+00 2.3000E-02 2.4700E+00
 2.9500E+00 2.3000E-02 2.4600E+00
 2.9700E+00 2.3000E-02 2.4200E+00
 2.9900E+00 2.5000E-02 2.3200E+00
 3.0100E+00 2.5000E-02 2.2200E+00
 3.0300E+00 2.5000E-02 2.0900E+00
 3.0500E+00 2.6000E-02 2.0100E+00
 3.0700E+00 2.6000E-02 1.9200E+00
 3.1000E+00 2.6000E-02 1.9300E+00
 3.1200E+00 2.6000E-02 1.9900E+00
 3.1400E+00 2.7000E-02 2.1000E+00
 3.1600E+00 2.7000E-02 2.1700E+00
 3.1800E+00 2.7000E-02 2.2200E+00
 3.2000E+00 2.7000E-02 2.2400E+00
 3.2200E+00 2.7000E-02 2.2700E+00
 3.2400E+00 2.7000E-02 2.3100E+00
 3.2600E+00 2.7000E-02 2.2700E+00
 3.2800E+00 2.7000E-02 2.1900E+00
 3.3000E+00 2.7000E-02 2.2100E+00
 3.3200E+00 2.7000E-02 2.2900E+00
 3.3400E+00 2.7000E-02 2.4000E+00
 3.3600E+00 2.7000E-02 2.4400E+00
 3.3800E+00 2.7000E-02 2.4100E+00
 3.4000E+00 2.8000E-02 2.3800E+00
 3.4200E+00 2.8000E-02 2.2700E+00
 3.4400E+00 2.8000E-02 2.2600E+00
 3.4600E+00 2.9000E-02 2.3800E+00
 3.4800E+00 2.9000E-02 2.4900E+00
 3.5000E+00 2.9000E-02 2.4800E+00
 3.5200E+00 2.9000E-02 2.4500E+00
 3.5400E+00 2.9000E-02 2.4100E+00
 3.5600E+00 2.9000E-02 2.4800E+00
 3.5800E+00 2.9000E-02 2.5500E+00
 3.6000E+00 2.9000E-02 2.5100E+00
 3.6200E+00 2.9000E-02 2.4300E+00
 3.6400E+00 2.9000E-02 2.3900E+00
 3.6600E+00 3.0000E-02 2.4400E+00
 3.6800E+00 3.0000E-02 2.4800E+00
 3.7000E+00 3.0000E-02 2.5200E+00
 3.7200E+00 3.0000E-02 2.4800E+00
 3.7400E+00 3.0000E-02 2.4100E+00
 3.7600E+00 3.0000E-02 2.3300E+00
 3.7800E+00 3.0000E-02 2.2700E+00
 3.8000E+00 3.0000E-02 2.2000E+00
 3.8200E+00 3.0000E-02 2.1300E+00
 3.8400E+00 3.0000E-02 2.0600E+00
 3.8600E+00 3.0000E-02 2.0300E+00
 3.8900E+00 3.0000E-02 2.0300E+00
 3.9100E+00 2.8000E-02 2.0600E+00
 3.9400E+00 2.8000E-02 2.1200E+00
 3.9600E+00 2.8000E-02 2.1600E+00
 3.9800E+00 2.8000E-02 2.2300E+00
 4.0000E+00 2.8000E-02 2.2700E+00
 4.0200E+00 2.8000E-02 2.2300E+00
 4.0400E+00 2.8000E-02 2.1800E+00
 4.0600E+00 2.8000E-02 2.2000E+00
 4.0800E+00 2.8000E-02 2.2200E+00
 4.1000E+00 2.8000E-02 2.1700E+00
 4.1300E+00 2.8000E-02 2.0600E+00
 4.1600E+00 2.8000E-02 2.0700E+00
 4.1800E+00 2.8000E-02 2.0900E+00
 4.2000E+00 2.8000E-02 2.1300E+00
 4.2300E+00 2.8000E-02 2.1900E+00
 4.2600E+00 2.8000E-02 2.2600E+00
 4.2900E+00 2.8000E-02 2.3200E+00
 4.3200E+00 2.8000E-02 2.3800E+00
 4.3400E+00 2.8000E-02 2.3300E+00
 4.3600E+00 2.8000E-02 2.2800E+00
 4.3800E+00 2.8000E-02 2.2300E+00
 4.4000E+00 2.8000E-02 2.1900E+00
 4.4200E+00 2.8000E-02 2.1500E+00
 4.4400E+00 2.8000E-02 2.0900E+00
 4.4600E+00 2.9000E-02 2.0300E+00
 4.4800E+00 2.9000E-02 1.9800E+00
 4.5000E+00 2.9000E-02 1.8800E+00
 4.5200E+00 3.0000E-02 1.8600E+00
 4.5400E+00 3.0000E-02 1.8900E+00
 4.5600E+00 3.1000E-02 1.9400E+00
 4.5800E+00 3.1000E-02 1.9900E+00
 4.6000E+00 3.1000E-02 2.0700E+00
 4.6200E+00 3.1000E-02 2.1200E+00
 4.6400E+00 2.7000E-02 2.1700E+00
 4.6600E+00 2.7000E-02 2.2000E+00
 4.6800E+00 2.8000E-02 2.1200E+00
 4.7000E+00 2.8000E-02 2.0400E+00
 4.7200E+00 2.8000E-02 2.0100E+00
 4.7400E+00 2.8000E-02 2.0400E+00
 4.7600E+00 2.8000E-02 2.1400E+00
 4.7800E+00 3.0000E-02 2.1800E+00
 4.8000E+00 3.0000E-02 2.1400E+00
 4.8200E+00 3.0000E-02 2.0900E+00
 4.8400E+00 3.0000E-02 2.0800E+00
 4.8600E+00 3.0000E-02 2.0700E+00
 4.8900E+00 3.0000E-02 2.0800E+00
 4.9100E+00 3.0000E-02 2.0400E+00
 4.9300E+00 3.0000E-02 2.0000E+00
 4.9500E+00 3.0000E-02 1.9400E+00
 4.9700E+00 2.7000E-02 1.9000E+00
 5.0100E+00 2.8000E-02 1.9300E+00
 5.0300E+00 2.8000E-02 1.9400E+00
 5.0500E+00 2.4000E-02 1.9700E+00
 5.0900E+00 2.4000E-02 1.9900E+00
 5.1200E+00 2.5000E-02 2.0300E+00
 5.1400E+00 2.5000E-02 2.0700E+00
 5.1600E+00 2.5000E-02 2.0900E+00
 5.1900E+00 2.5000E-02 2.1300E+00
 5.2100E+00 2.5000E-02 2.2200E+00
ENDDATA            116
ENDSUBENT          122
SUBENT        20973003   20060807   20061116   20061102       2178
BIB                  1          1
REACTION   (12-MG-0(N,TOT),,SIG)
ENDBIB               1
NOCOMMON             0          0
DATA                 3         92
EN         EN-RSL     DATA
MEV        MEV        B
 2.7800E+00 2.0000E-02 2.2800E+00
 2.8000E+00 2.0000E-02 2.4000E+00
 2.8100E+00 2.1000E-02 2.4200E+00
 2.8300E+00 2.1000E-02 2.4200E+00
 2.8400E+00 2.1000E-02 2.3800E+00
 2.8600E+00 2.2000E-02 2.2700E+00
 2.8900E+00 2.2000E-02 2.0900E+00
 2.9200E+00 2.3000E-02 2.0000E+00
 2.9300E+00 2.3000E-02 1.9900E+00
 2.9600E+00 2.3000E-02 2.0200E+00
 2.9900E+00 2.5000E-02 2.1600E+00
 3.0200E+00 2.5000E-02 2.3200E+00
 3.0500E+00 2.6000E-02 2.4400E+00
 3.0800E+00 2.6000E-02 2.3100E+00
 3.1100E+00 2.6000E-02 2.0500E+00
 3.1400E+00 2.7000E-02 1.8400E+00
 3.1700E+00 2.7000E-02 1.5900E+00
 3.2000E+00 2.7000E-02 1.4300E+00
 3.2300E+00 2.7000E-02 1.4100E+00
 3.2400E+00 2.7000E-02 1.4300E+00
 3.2700E+00 2.7000E-02 1.5800E+00
 3.3000E+00 2.7000E-02 1.7800E+00
 3.3300E+00 2.7000E-02 1.9700E+00
 3.3400E+00 2.7000E-02 2.0100E+00
 3.3600E+00 2.7000E-02 2.0600E+00
 3.4000E+00 2.8000E-02 1.9300E+00
 3.4300E+00 2.8000E-02 1.9200E+00
 3.4700E+00 2.9000E-02 2.2200E+00
 3.5000E+00 2.9000E-02 2.1900E+00
 3.5300E+00 2.9000E-02 2.1100E+00
 3.5600E+00 2.9000E-02 2.0200E+00
 3.5900E+00 2.9000E-02 1.9700E+00
 3.6300E+00 2.9000E-02 1.9200E+00
 3.6600E+00 2.9000E-02 1.8800E+00
 3.6900E+00 3.0000E-02 1.8200E+00
 3.7200E+00 3.0000E-02 1.7900E+00
 3.7300E+00 3.0000E-02 1.7700E+00
 3.7800E+00 3.0000E-02 1.6400E+00
 3.8200E+00 3.0000E-02 1.5900E+00
 3.8500E+00 3.0000E-02 1.5400E+00
 3.8800E+00 3.0000E-02 1.4800E+00
 3.9200E+00 2.8000E-02 1.3000E+00
 3.9500E+00 2.8000E-02 1.3400E+00
 3.9800E+00 2.8000E-02 1.4900E+00
 4.0200E+00 2.8000E-02 1.7200E+00
 4.0500E+00 2.8000E-02 1.8400E+00
 4.0800E+00 2.8000E-02 1.9700E+00
 4.1200E+00 2.8000E-02 2.1000E+00
 4.1500E+00 2.8000E-02 2.0800E+00
 4.1800E+00 2.8000E-02 2.0200E+00
 4.2200E+00 2.8000E-02 2.0300E+00
 4.2600E+00 2.8000E-02 1.9100E+00
 4.2900E+00 2.8000E-02 1.8400E+00
 4.3100E+00 2.8000E-02 1.8600E+00
 4.3500E+00 2.8000E-02 2.1500E+00
 4.3800E+00 2.8000E-02 2.4200E+00
 4.4100E+00 2.8000E-02 2.3800E+00
 4.4400E+00 2.8000E-02 2.1400E+00
 4.4700E+00 2.9000E-02 2.0100E+00
 4.5000E+00 2.9000E-02 1.9000E+00
 4.5300E+00 3.0000E-02 1.8000E+00
 4.5600E+00 3.1000E-02 1.7000E+00
 4.5700E+00 3.1000E-02 1.7200E+00
 4.6000E+00 3.1000E-02 1.8700E+00
 4.6200E+00 3.1000E-02 1.9700E+00
 4.6500E+00 2.7000E-02 2.0600E+00
 4.6800E+00 2.8000E-02 2.0000E+00
 4.7000E+00 2.8000E-02 2.0100E+00
 4.7300E+00 2.8000E-02 2.0500E+00
 4.7600E+00 2.8000E-02 1.8700E+00
 4.7900E+00 3.0000E-02 1.9200E+00
 4.8100E+00 3.0000E-02 1.9700E+00
 4.8400E+00 3.0000E-02 2.1300E+00
 4.8600E+00 3.0000E-02 2.2800E+00
 4.8800E+00 3.0000E-02 2.2200E+00
 4.9000E+00 3.0000E-02 2.1300E+00
 4.9200E+00 3.0000E-02 2.0300E+00
 4.9400E+00 3.0000E-02 1.9300E+00
 4.9600E+00 2.7000E-02 1.9400E+00
 4.9800E+00 2.7000E-02 1.9800E+00
 5.0000E+00 2.7000E-02 1.9300E+00
 5.0200E+00 2.8000E-02 1.8800E+00
 5.0300E+00 2.8000E-02 1.8600E+00
 5.0600E+00 2.4000E-02 2.0000E+00
 5.0700E+00 2.4000E-02 2.0600E+00
 5.0900E+00 2.4000E-02 2.1100E+00
 5.1000E+00 2.5000E-02 2.1400E+00
 5.1100E+00 2.5000E-02 2.1500E+00
 5.1300E+00 2.5000E-02 2.0800E+00
 5.1500E+00 2.5000E-02 1.9000E+00
 5.1900E+00 2.5000E-02 1.9400E+00
 5.2100E+00 2.5000E-02 1.9800E+00
ENDDATA             94
ENDSUBENT          100
SUBENT        20973004   20060807   20061116   20061102       2178
BIB                  1          1
REACTION   (14-SI-0(N,TOT),,SIG)
ENDBIB               1
NOCOMMON             0          0
DATA                 3         63
EN         EN-RSL     DATA
MEV        MEV        B
 2.7600E+00 2.0000E-01 2.4600E+00
 2.7800E+00 2.0000E-01 2.6500E+00
 2.8100E+00 2.1000E-01 2.8800E+00
 2.8400E+00 2.1000E-01 3.1300E+00
 2.8700E+00 2.2000E-01 3.0600E+00
 2.8900E+00 2.2000E-01 2.8600E+00
 2.9200E+00 2.3000E-01 2.5500E+00
 2.9500E+00 2.3000E-01 2.2600E+00
 2.9800E+00 2.5000E-01 2.0900E+00
 3.0200E+00 2.5000E-01 2.3200E+00
 3.0500E+00 2.6000E-01 2.5300E+00
 3.0800E+00 2.6000E-01 2.4100E+00
 3.1200E+00 2.6000E-01 2.7200E+00
 3.1400E+00 2.7000E-01 2.8300E+00
 3.1700E+00 2.7000E-01 2.5000E+00
 3.2000E+00 2.7000E-01 2.5300E+00
 3.2300E+00 2.7000E-01 2.4500E+00
 3.2600E+00 2.7000E-01 2.3400E+00
 3.3000E+00 2.7000E-01 2.3000E+00
 3.3300E+00 2.7000E-01 2.3700E+00
 3.3600E+00 2.7000E-01 2.4300E+00
 3.4000E+00 2.8000E-01 2.4500E+00
 3.4300E+00 2.8000E-01 2.4800E+00
 3.4600E+00 2.9000E-01 2.5200E+00
 3.5100E+00 2.9000E-01 2.3700E+00
 3.5400E+00 2.9000E-01 2.3900E+00
 3.5700E+00 2.9000E-01 2.3500E+00
 3.6000E+00 2.9000E-01 1.9400E+00
 3.6400E+00 3.0000E-01 1.6900E+00
 3.6700E+00 3.0000E-01 1.6100E+00
 3.7000E+00 3.0000E-01 1.8000E+00
 3.7400E+00 3.0000E-01 2.0700E+00
 3.7800E+00 3.0000E-01 2.2800E+00
 3.8100E+00 3.0000E-01 2.2800E+00
 3.8500E+00 3.0000E-01 2.0800E+00
 3.8800E+00 3.0000E-01 2.0300E+00
 3.9100E+00 2.8000E-01 2.1400E+00
 3.9500E+00 2.8000E-01 2.3400E+00
 3.9800E+00 2.8000E-01 2.4500E+00
 4.0100E+00 2.8000E-01 2.4700E+00
 4.0500E+00 2.8000E-01 2.3200E+00
 4.0800E+00 2.8000E-01 2.2200E+00
 4.1100E+00 2.8000E-01 2.1100E+00
 4.1500E+00 2.8000E-01 2.0000E+00
 4.1800E+00 2.8000E-01 2.2300E+00
 4.2100E+00 2.8000E-01 2.4900E+00
 4.2400E+00 2.8000E-01 2.7500E+00
 4.2900E+00 2.8000E-01 2.6700E+00
 4.3200E+00 2.8000E-01 2.5500E+00
 4.3500E+00 2.8000E-01 2.3500E+00
 4.3800E+00 2.8000E-01 2.2900E+00
 4.4100E+00 2.8000E-01 2.3700E+00
 4.4400E+00 2.8000E-01 2.4900E+00
 4.4700E+00 2.9000E-01 2.5800E+00
 4.5000E+00 2.9000E-01 2.6600E+00
 4.5300E+00 3.0000E-01 2.5100E+00
 4.5600E+00 3.1000E-01 2.3200E+00
 4.5900E+00 3.1000E-01 2.3100E+00
 4.6200E+00 3.1000E-01 2.4700E+00
 4.6500E+00 2.7000E-01 2.6800E+00
 4.6800E+00 2.8000E-01 2.7700E+00
 4.7000E+00 2.8000E-01 2.7900E+00
 4.7300E+00 2.8000E-01 3.0700E+00
ENDDATA             65
ENDSUBENT           71
ENDENTRY             4
