ENTRY            F0808   20061016   20070320   20070315       F026
SUBENT        F0808001   20061016   20070320   20070315       F026
BIB                  8         13
TITLE      Capture reactions in the helium burning of stars.
AUTHOR     (R.Kunz,A.Mayer,K.D.Joos,H.Knee,A.Muller,J.Nickel,
           Ch.Plettner,J.W.Hammer,D.Baye,P.Descouvemont,M.Jaeger,
           V.Kolle,S.Wilmes,G.Staudt,P.Mohr,Ch.Chronidou,
           S.Harissopulos,K.Spyrou,Th.Paradellis)
INSTITUTE  (2GERIFS,2BLGBRU,2GERTUE,2AUSTHV,2GRCATH)
REFERENCE  (J,NP/A,621,149,1997)
FACILITY   (DYNAM,2GERIFS)
DETECTOR   (HPGE,BGO)3,4 or 5 large volume HPGe-detectors with
           BGO-anticompton suppression on a turnable table.
ERR-ANALYS (ERR-DIG)Digitizing error
           (DATA-ERR)Error from the graphic bars
HISTORY    (20061016C)
ENDBIB              13
NOCOMMON             0          0
ENDSUBENT           16
SUBENT        F0808002   20061016   20070320   20070315       F026
BIB                  4          5
REACTION   (6-C-12(A,G)8-O-16,,DA,,REL)
SAMPLE     Optimized targets with implantation of 12C and
           depleted in 13C.
ERR-ANALYS (ANG-ERR-D)Digitizing error
STATUS     (CURVE)Fig.1
ENDBIB               5
COMMON               2          3
ANG-ERR-D  ERR-DIG
ADEG       ARB-UNITS
 0.222      0.0069
ENDCOMMON            3
DATA                 4         36
EN-CM      ANG-CM     DATA-CM    DATA-ERR
MEV        ADEG       ARB-UNITS  ARB-UNITS
 2.2500     15.311    0.19389    0.42314E-01
 2.2500     30.092    0.78821    0.72539E-01
 2.2500     44.857     1.3523    0.90749E-01
 2.2500     70.075     1.3088    0.96569E-01
 2.2500     84.917     1.5283    0.10873
 2.2500     99.713     1.1734    0.11493
 2.2500     114.89    0.55847    0.84704E-01
 2.2500     130.33    0.40897    0.72464E-01
 2.2500     145.20    0.19917    0.48359E-01
 2.4000     15.076    0.51230    0.12241
 2.4000     29.676     1.5455    0.18356
 2.4000     44.679     2.1912    0.21391
 2.4000     69.842     2.6082    0.27517
 2.4000     84.656     2.5711    0.24471
 2.4000     99.606     2.1059    0.29566
 2.4000     115.10    0.84536    0.19341
 2.4000     129.56    0.44147    0.12241
 2.4000     145.10    0.26135    0.81419E-01
 2.4800     14.980    0.61086    0.15522
 2.4800     30.081     1.1617    0.21713
 2.4800     50.150     2.2375    0.21713
 2.4800     65.107     3.1504    0.24828
 2.4800     85.251     2.7887    0.26870
 2.4800     100.08     2.4297    0.26883
 2.4800     114.93     1.3054    0.31019
 2.4800     129.97    0.80152    0.23756
 2.4800     150.05    0.21238    0.17577
 2.6800     15.153     3.9337    0.31238
 2.6800     29.716     11.881    0.89776
 2.6800     49.497     10.490     1.0549
 2.6800     65.125     5.0027    0.89876
 2.6800     85.271    0.83782    0.19491
 2.6800     100.44     1.0919    0.31238
 2.6800     115.03     4.8223    0.70253
 2.6800     129.71     10.232    0.93648
 2.6800     150.04     4.6997    0.78062
ENDDATA             38
ENDSUBENT           52
SUBENT        F0808003   20061016   20070320   20070315       F026
BIB                  4          4
REACTION   (8-O-16(A,G)10-NE-20,,MLT,,REL)
SAMPLE     A gas target
ERR-ANALYS (EN-ERR-DIG)Digitizing error
STATUS     (CURVE)Fig.5
ENDBIB               4
COMMON               2          3
EN-ERR-DIG ERR-DIG
MEV        PER-CENT
 0.001      0.017
ENDCOMMON            3
DATA                 3        122
EN         DATA       DATA-ERR
MEV        ARB-UNITS  ARB-UNITS
 1.1045    0.12146E-030.16165E-04
 1.1051    0.24123E-030.19828E-04
 1.1063    0.18383E-030.17505E-04
 1.1070    0.35992E-030.29585E-04
 1.1072    0.47225E-030.26246E-04
 1.1074    0.57688E-030.39722E-04
 1.1134    0.69432E-030.56985E-04
 1.1176    0.57633E-030.47301E-04
 1.1188    0.46504E-030.32020E-04
 1.1200    0.37523E-030.35777E-04
 1.1226    0.25868E-030.24665E-04
 1.1251    0.18090E-030.14869E-04
 1.1257    0.75624E-040.72012E-05
 1.1263    0.14185E-030.15312E-04
 1.1269    0.56811E-040.82599E-05
 1.1281    0.43915E-040.94653E-05
 1.2984    0.66416E-050.80261E-06
 1.2987    0.20861E-050.35379E-06
 1.3025    0.23698E-040.68825E-05
 1.3041    0.28534E-040.27136E-05
 1.3046    0.21116E-030.22819E-04
 1.3074    0.84482E-030.58171E-04
 1.3078    0.12607E-020.13624E-03
 1.3084    0.25038E-020.20612E-03
 1.3096    0.19355E-020.15861E-03
 1.3117    0.35277E-020.28953E-03
 1.3119    0.43714E-020.30155E-03
 1.3164    0.54146E-020.37283E-03
 1.3217    0.34250E-020.37013E-03
 1.3220    0.44301E-020.42240E-03
 1.3263    0.93208E-030.10073E-03
 1.3269    0.16991E-020.20492E-03
 1.3273    0.27233E-020.46123E-03
 1.3288    0.61559E-030.58619E-04
 1.3289    0.70011E-030.48295E-04
 1.3295    0.12581E-020.15189E-03
 1.3310    0.30986E-030.45124E-04
 1.3311    0.34247E-030.23625E-04
 1.3342    0.93213E-040.88647E-05
 1.3377    0.91933E-050.87316E-06
 1.3398    0.40688E-050.68959E-06
 1.3467    0.26480E-050.41713E-06
 1.3554    0.29664E-050.39515E-06
 1.4947    0.10459E-050.37425E-06
 1.5945    0.10662E-050.42873E-06
 1.9990    0.29564E-050.21962E-05
 2.1077    0.37851E-050.73011E-06
 2.2078    0.22715E-040.85431E-05
 2.2853    0.52419E-040.76214E-05
 2.3367    0.11784E-030.21374E-04
 2.3748    0.21405E-030.25842E-04
 2.4000    0.37294E-030.54223E-04
 2.4222    0.65931E-030.62783E-04
 2.4312    0.94178E-030.10178E-03
 2.4430    0.12168E-020.13150E-03
 2.4492    0.17386E-020.18768E-03
 2.4553    0.24141E-020.16623E-03
 2.4615    0.40367E-020.33231E-03
 2.4634    0.62868E-020.59944E-03
 2.4708    0.75657E-020.81760E-03
 2.4726    0.10068E-010.14639E-02
 2.4728    0.12476E-010.13483E-02
 2.4775    0.18610E-010.22467E-02
 2.4821    0.24408E-010.20062E-02
 2.4882    0.35885E-010.29407E-02
 2.4934    0.19396E-010.28224E-02
 2.4952    0.27331E-010.36375E-02
 2.5004    0.14356E-010.27676E-02
 2.5015    0.10041E-010.13387E-02
 2.5067    0.55053E-020.45252E-03
 2.5084    0.72224E-020.96038E-03
 2.5109    0.46356E-020.38161E-03
 2.5119    0.31508E-020.38076E-03
 2.5135    0.37399E-020.20689E-03
 2.5160    0.25056E-020.20626E-03
 2.5272    0.16772E-020.18146E-03
 2.5426    0.95899E-030.11600E-03
 2.5753    0.54742E-030.59158E-04
 2.6064    0.25584E-030.46377E-04
 2.6220    0.18921E-030.29849E-04
 2.6537    0.16826E-030.32493E-04
 2.7022    0.78509E-040.25904E-04
 2.7310    0.67866E-040.18307E-04
 2.7784    0.48630E-040.11033E-04
 2.8205    0.61764E-040.18566E-04
 2.8868    0.48829E-040.23890E-04
 2.9188    0.54582E-040.18524E-04
 2.9548    0.49925E-040.14504E-04
 2.9841    0.73243E-040.14136E-04
 2.9960    0.98780E-040.17917E-04
 3.0078    0.12947E-030.10642E-04
 3.0112    0.21654E-030.23401E-04
 3.0176    0.39451E-030.42682E-04
 3.0193    0.51756E-030.35703E-04
 3.0197    0.84149E-030.10179E-03
 3.0217    0.14485E-020.22817E-03
 3.0237    0.25656E-020.27726E-03
 3.0286    0.10419E-020.99086E-04
 3.0293    0.20693E-020.30087E-03
 3.0334    0.36154E-030.61316E-04
 3.0354    0.63129E-030.11436E-03
 3.0360    0.26016E-030.37826E-04
 3.0430    0.21283E-030.48331E-04
 3.0518    0.24534E-030.44500E-04
 3.0566    0.37657E-030.68260E-04
 3.0583    0.52309E-030.82579E-04
 3.0604    0.10095E-020.96129E-04
 3.0613    0.26307E-020.21591E-03
 3.0631    0.38694E-020.60952E-03
 3.0726    0.19187E-020.18295E-03
 3.0732    0.35479E-020.42791E-03
 3.0737    0.13420E-020.16201E-03
 3.0743    0.24815E-020.39060E-03
 3.0759    0.64713E-030.78204E-04
 3.0797    0.39221E-030.57025E-04
 3.0802    0.14010E-030.33310E-04
 3.0815    0.11970E-030.21725E-04
 3.0913    0.82464E-040.18709E-04
 3.0997    0.67452E-040.17492E-04
 3.1097    0.58411E-040.15756E-04
 3.1303    0.83345E-040.17031E-04
 3.1406    0.10318E-030.22249E-04
ENDDATA            124
ENDSUBENT          137
ENDENTRY             3
