ENTRY            F0801   20070126   20070320   20070315       F026
SUBENT        F0801001   20070126   20070320   20070315       F026
BIB                 11         20
TITLE      Neutron hole states in 91Mo and 93Mo studied by the
            (p,d) reaction.
AUTHOR     (M.A.Moinester,G.Finkel,J.Alster,P.Martin)
INSTITUTE  (3ISLTEL) Department of Physics and Astronomy
           (2FR GRE)
REFERENCE  (J,NP/A,202,473,1973)
FACILITY   (CYCLO,2FR GRE)
INC-SOURCE Beam currents ranged from 5 to 100 nA.
DETECTOR   The deuteron and triton reaction products were
           measured with a Gouling type deltaE-E particle
           identifying system.
SAMPLE     The 92Mo target was 1 mg/cm2 thick, enriched to 97.6%
           and the 94Mo target was 0.82 mg/cm2 thick, enriched to
           93.9 %.
METHOD     (EDE)
ERR-ANALYS The estimated uncertainty in the excitation energies in
           91Mo and 93Mo is about 20 keV for the low-lying states
           and 40 keV for higher-lying states.
           (DATA-ERR) Absolute cross section error
HISTORY    (20061011C)
ENDBIB              20
COMMON               3          3
EN         EN-RSL     DATA-ERR
MEV        KEV        PER-CENT
 40.        100.       15.
ENDCOMMON            3
ENDSUBENT           27
SUBENT        F0801002   20070126   20070320   20070315       F026
BIB                  3          6
REACTION   (42-MO-92(P,D)42-MO-91,PAR,DA)
ERR-ANALYS (ANG-ERR-D)  Digitizing error
           (ERR-DIG)    Digitizing error
           (DATA-ERR1) Errors from the graphic bars include
           statistical errors
STATUS     (CURVE)Fig.2,3,8
ENDBIB               6
COMMON               2          3
ANG-ERR-D  ERR-DIG
ADEG       PER-CENT
 0.080      0.01
ENDCOMMON            3
DATA                 4        279
E-LVL      ANG-CM     DATA-CM    DATA-ERR1
MEV        ADEG       MB/SR      MB/SR
 0.0000     10.420     1.7726
 0.0000     13.391     2.1972
 0.0000     16.429     2.7071
 0.0000     19.605     3.0256
 0.0000     22.646     3.5287
 0.0000     26.628     3.3470
 0.0000     30.687     2.6444
 0.0000     33.687     2.0009
 0.0000     37.753     1.3825
 0.0000     41.755    0.92658
 0.0000     45.740    0.82691
 1.3700     10.438    0.28878    0.29964E-01
 1.3700     13.595    0.36226    0.46889E-01
 1.3700     16.578    0.29496    0.27367E-01
 1.3700     19.637    0.20009
 1.3700     22.561    0.14424
 1.3700     26.572    0.59795E-010.61153E-02
 1.3700     30.664    0.62899E-010.81413E-02
 1.3700     33.578    0.54096E-010.55325E-02
 1.3700     37.680    0.47408E-010.51676E-02
 1.3700     41.530    0.32765E-010.33510E-02
 1.3700     45.616    0.37991E-010.57080E-02
 1.5400     10.709    0.51171
 1.5400     13.865    0.63933    0.74711E-01
 1.5400     16.831    0.70640
 1.5400     19.999    0.73410
 1.5400     23.041    0.67883
 1.5400     26.902    0.40113
 1.5400     30.781    0.17545
 1.5400     33.843    0.11646
 1.5400     38.118    0.15671
 1.5400     42.078    0.16293
 1.5400     46.111    0.15260
 1.9100     10.256    0.10674    0.16789E-01
 1.9100     13.563    0.12607    0.27941E-01
 1.9100     16.297    0.91847E-010.10567E-01
 1.9100     19.394    0.13850
 1.9100     22.565    0.17600
 1.9100     26.401    0.21305
 1.9100     30.518    0.18886    0.22747E-01
 1.9100     33.711    0.15269
 1.9100     37.642    0.10343    0.11900E-01
 1.9100     41.580    0.60501E-010.66326E-02
 1.9100     45.766    0.50145E-010.54973E-02
 2.3100     10.229    0.29656    0.33903E-01
 2.3100     13.272    0.27115    0.44434E-01
 2.3100     16.243    0.86742E-010.13603E-01
 2.3100     19.230    0.66506E-010.95015E-02
 2.3100     22.258    0.78943E-010.68702E-02
 2.3100     26.340    0.98419E-010.96494E-02
 2.3100     30.442    0.85764E-01
 2.3100     33.352    0.79852E-010.70824E-02
 2.3100     37.529    0.59068E-010.98337E-02
 2.3100     41.424    0.61003E-010.62218E-02
 2.3100     45.515    0.64165E-01
 2.5200     10.777    0.12797E-010.10180E-01
 2.5200     16.806    0.13953E-010.52227E-02
 2.5200     19.856    0.14139E-010.10138E-01
 2.5200     22.765    0.16850E-010.57209E-02
 2.5200     26.944    0.16377E-010.62525E-02
 2.5200     30.995    0.14285E-010.35804E-02
 2.5200     34.043    0.15097E-010.43151E-02
 2.5200     38.048    0.84902E-020.13153E-02
 2.5200     42.155    0.93061E-020.41429E-02
 2.5200     46.221    0.59024E-020.22534E-02
 2.7500     10.657    0.53069E-010.21000E-01
 2.7500     13.776    0.12873    0.38914E-01
 2.7500     17.009    0.13460    0.14816E-01
 2.7500     19.854    0.12369    0.13614E-01
 2.7500     22.882    0.14622
 2.7500     27.004    0.89636E-010.92570E-02
 2.7500     30.821    0.35960E-010.47005E-02
 2.7500     33.860    0.35575E-010.56508E-02
 2.7500     38.007    0.44745E-010.61606E-02
 2.7500     42.042    0.39652E-010.51832E-02
 2.7500     45.940    0.38528E-010.42408E-02
 2.8800     10.288    0.22716    0.26479E-01
 2.8800     13.263    0.21530    0.37170E-01
 2.8800     16.215    0.98439E-010.16290E-01
 2.8800     19.260    0.87223E-010.13196E-01
 2.8800     22.211    0.12386
 2.8800     26.363    0.14377
 2.8800     30.399    0.12437
 2.8800     33.384    0.10052    0.90008E-02
 2.8800     37.427    0.77878E-010.90780E-02
 2.8800     41.400    0.65334E-010.67275E-02
 2.8800     45.493    0.21471E-010.33841E-02
 4.1200     10.291    0.75370E-010.22732E-01
 4.1200     13.332    0.23359E-010.19287E-01
 4.1200     16.223    0.40068E-010.92735E-02
 4.1200     19.394    0.50966E-010.11561E-01
 4.1200     22.438    0.58206E-010.68722E-02
 4.1200     26.470    0.75857E-010.89562E-02
 4.1200     30.514    0.76435E-010.65607E-02
 4.1200     33.511    0.58115E-010.71672E-02
 4.1200     37.512    0.36720E-010.45286E-02
 4.1200     45.613    0.29347E-010.33096E-02
 4.6700     10.917    0.18023    0.22028E-01
 4.6700     10.917    0.18023    0.22028E-01
 4.6700     13.959    0.11330    0.22126E-01
 4.6700     13.959    0.11330    0.22126E-01
 4.6700     17.080    0.56609E-010.93260E-02
 4.6700     17.080    0.56609E-010.93260E-02
 4.6700     20.042    0.45332E-010.11048E-01
 4.6700     20.042    0.45332E-010.11048E-01
 4.6700     23.100    0.21154E-010.63959E-02
 4.6700     23.100    0.21154E-010.63959E-02
 4.6700     27.292    0.39673E-010.91051E-02
 4.6700     27.292    0.39673E-010.91051E-02
 4.6700     31.394    0.31589E-010.55298E-02
 4.6700     31.394    0.31589E-010.55298E-02
 4.6700     34.469    0.38108E-010.74419E-02
 4.6700     34.469    0.38108E-010.74419E-02
 4.6700     38.604    0.16311E-010.39752E-02
 4.6700     38.604    0.16311E-010.39752E-02
 4.6700     42.675    0.23568E-010.58543E-02
 4.6700     42.675    0.23568E-010.58543E-02
 4.6700     46.849    0.17419E-010.33144E-02
 4.6700     46.849    0.17419E-010.33144E-02
 4.8100     10.825    0.12266    0.22884E-01
 4.8100     10.825    0.12266    0.22884E-01
 4.8100     13.923    0.90083E-010.22780E-01
 4.8100     13.923    0.90083E-010.22780E-01
 4.8100     17.094    0.57188E-010.10386E-01
 4.8100     17.094    0.57188E-010.10386E-01
 4.8100     20.127    0.40252E-010.11431E-01
 4.8100     20.127    0.40252E-010.11431E-01
 4.8100     23.238    0.22087E-010.65577E-02
 4.8100     23.238    0.22087E-010.65577E-02
 4.8100     27.301    0.41599E-010.97551E-02
 4.8100     27.301    0.41599E-010.97551E-02
 4.8100     31.467    0.34721E-010.54298E-02
 4.8100     31.467    0.34721E-010.54298E-02
 4.8100     34.562    0.27263E-010.72618E-02
 4.8100     34.562    0.27263E-010.72618E-02
 4.8100     38.681    0.13998E-010.41559E-02
 4.8100     38.681    0.13998E-010.41559E-02
 4.8100     42.815    0.24215E-010.68761E-02
 4.8100     42.815    0.24215E-010.68761E-02
 4.8100     46.933    0.12739E-010.35619E-02
 4.8100     46.933    0.12739E-010.35619E-02
 4.9100     10.871    0.16481    0.22675E-01
 4.9100     10.871    0.16481    0.22675E-01
 4.9100     13.961    0.14406    0.22847E-01
 4.9100     13.961    0.14406    0.22847E-01
 4.9100     17.087    0.55102E-010.95891E-02
 4.9100     17.087    0.55102E-010.95891E-02
 4.9100     20.130    0.30140E-010.11044E-01
 4.9100     20.130    0.30140E-010.11044E-01
 4.9100     23.157    0.24017E-010.62639E-02
 4.9100     23.157    0.24017E-010.62639E-02
 4.9100     27.289    0.44566E-010.90930E-02
 4.9100     27.289    0.44566E-010.90930E-02
 4.9100     31.454    0.36866E-010.58469E-02
 4.9100     31.454    0.36866E-010.58469E-02
 4.9100     34.543    0.33439E-010.77894E-02
 4.9100     34.543    0.33439E-010.77894E-02
 4.9100     38.589    0.19581E-010.43750E-02
 4.9100     38.589    0.19581E-010.43750E-02
 4.9100     42.746    0.20100E-010.69667E-02
 4.9100     42.746    0.20100E-010.69667E-02
 4.9100     46.909    0.17576E-010.34125E-02
 4.9100     46.909    0.17576E-010.34125E-02
 5.1700     10.711    0.18848    0.24888E-01
 5.1700     10.711    0.18848    0.24888E-01
 5.1700     13.757    0.92941E-010.22492E-01
 5.1700     13.757    0.92941E-010.22492E-01
 5.1700     16.811    0.39050E-010.92674E-02
 5.1700     16.811    0.39050E-010.92674E-02
 5.1700     19.906    0.30558E-010.10943E-01
 5.1700     19.906    0.30558E-010.10943E-01
 5.1700     22.872    0.20754E-010.54995E-02
 5.1700     22.872    0.20754E-010.54995E-02
 5.1700     27.074    0.36175E-010.94216E-02
 5.1700     27.074    0.36175E-010.94216E-02
 5.1700     31.178    0.26301E-010.57417E-02
 5.1700     31.178    0.26301E-010.57417E-02
 5.1700     34.260    0.27659E-010.78238E-02
 5.1700     34.260    0.27659E-010.78238E-02
 5.1700     38.433    0.18909E-010.42187E-02
 5.1700     38.433    0.18909E-010.42187E-02
 5.1700     42.516    0.23060E-010.65229E-02
 5.1700     42.516    0.23060E-010.65229E-02
 5.1700     46.682    0.18964E-010.32952E-02
 5.1700     46.682    0.18964E-010.32952E-02
 5.5200     10.595    0.16991    0.27328E-01
 5.5200     10.595    0.16991    0.27328E-01
 5.5200     13.690    0.13159    0.25236E-01
 5.5200     13.690    0.13159    0.25236E-01
 5.5200     16.797    0.79825E-010.98370E-02
 5.5200     16.797    0.79825E-010.98370E-02
 5.5200     19.906    0.44638E-010.11589E-01
 5.5200     19.906    0.44638E-010.11589E-01
 5.5200     22.953    0.22865E-010.68642E-02
 5.5200     22.953    0.22865E-010.68642E-02
 5.5200     27.090    0.36630E-010.10346E-01
 5.5200     27.090    0.36630E-010.10346E-01
 5.5200     31.191    0.28557E-010.61883E-02
 5.5200     31.191    0.28557E-010.61883E-02
 5.5200     34.281    0.25225E-010.82235E-02
 5.5200     34.281    0.25225E-010.82235E-02
 5.5200     38.467    0.13255E-010.46506E-02
 5.5200     38.467    0.13255E-010.46506E-02
 5.5200     42.539    0.20196E-010.72491E-02
 5.5200     42.539    0.20196E-010.72491E-02
 5.5200     46.706    0.16348E-010.39374E-02
 5.5200     46.706    0.16348E-010.39374E-02
 5.9900     10.575    0.16398    0.25268E-01
 5.9900     10.575    0.16398    0.25268E-01
 5.9900     13.606    0.12116    0.24231E-01
 5.9900     13.606    0.12116    0.24231E-01
 5.9900     16.659    0.52865E-010.92410E-02
 5.9900     16.659    0.52865E-010.92410E-02
 5.9900     19.747    0.49437E-010.11800E-01
 5.9900     19.747    0.49437E-010.11800E-01
 5.9900     22.788    0.28685E-010.71158E-02
 5.9900     22.788    0.28685E-010.71158E-02
 5.9900     26.918    0.53727E-010.10477E-01
 5.9900     26.918    0.53727E-010.10477E-01
 5.9900     31.011    0.51205E-010.62492E-02
 5.9900     31.011    0.51205E-010.62492E-02
 5.9900     34.108    0.38308E-010.82257E-02
 5.9900     34.108    0.38308E-010.82257E-02
 5.9900     38.172    0.15048E-010.44784E-02
 5.9900     38.172    0.15048E-010.44784E-02
 5.9900     42.357    0.37717E-010.77293E-02
 5.9900     42.357    0.37717E-010.77293E-02
 5.9900     46.424    0.13754E-010.39122E-02
 5.9900     46.424    0.13754E-010.39122E-02
 7.0100     10.748    0.82463E-010.23846E-01
 7.0100     13.612    0.67184E-010.21741E-01
 7.0100     16.742    0.47454E-010.65669E-02
 7.0100     19.873    0.47744E-010.11409E-01
 7.0100     22.872    0.55405E-010.67700E-02
 7.0100     26.938    0.78417E-010.10431E-01
 7.0100     34.135    0.10237    0.10820E-01
 7.0100     38.197    0.61915E-010.68866E-02
 7.0100     42.259    0.33697E-010.94452E-02
 7.0100     46.189    0.31273E-010.39912E-02
 7.1400     10.514    0.39815    0.96657E-01
 7.1400     13.645    0.27311    0.89794E-01
 7.1400     16.709    0.16763
 7.1400     19.638    0.78394E-010.12859E-01
 7.1400     22.635    0.37119E-010.66586E-02
 7.1400     26.833    0.55801E-010.10292E-01
 7.1400     30.765    0.61594E-010.71595E-02
 7.1400     37.891    0.23637E-010.58473E-02
 7.1400     42.088    0.18921E-010.98504E-02
 7.1400     46.154    0.35094E-010.50226E-02
 8.3400     10.444    0.22082    0.23115E-01
 8.3400     13.508    0.20511    0.25928E-01
 8.3400     22.698    0.45248E-010.69154E-02
 8.3400     26.829    0.42028E-010.99539E-02
 8.3400     30.827    0.46650E-010.68861E-02
 8.3400     33.959    0.63417E-010.10348E-01
 8.3400     38.088    0.28184E-010.57301E-02
 8.3400     42.218    0.19138E-010.10312E-01
 8.3400     46.083    0.23726E-010.41139E-02
 8.6400     10.577    0.45854    0.45236E-01
 8.6400     13.574    0.41325
 8.6400     16.571    0.27107
 8.6400     19.632    0.14357    0.13371E-01
 8.6400     22.562    0.96504E-010.10050E-01
 8.6400     30.824    0.94142E-010.77178E-02
 8.6400     33.889    0.10380    0.12499E-01
 8.6400     37.884    0.59519E-010.68461E-02
 8.6400     42.081    0.47759E-010.98952E-02
 8.6400     46.145    0.48044E-010.47397E-02
 8.8600     10.291    0.67006E-010.22374E-01
 8.8600     13.422    0.66182E-010.22099E-01
 8.8600     16.555    0.92277E-010.11451E-01
 8.8600     19.553    0.10058    0.14589E-01
 8.8600     22.618    0.10372    0.73863E-02
 8.8600     26.749    0.91129E-010.11052E-01
 8.8600     30.680    0.87279E-010.90352E-02
 8.8600     33.810    0.62204E-010.11384E-02
 8.8600     37.874    0.39439E-010.58337E-02
 8.8600     41.937    0.29709E-010.10283E-01
 8.8600     45.934    0.25785E-010.42904E-02
ENDDATA            281
ENDSUBENT          296
SUBENT        F0801003   20070126   20070320   20070315       F026
BIB                  3          5
REACTION   (42-MO-94(P,D)42-MO-93,PAR,DA)
ERR-ANALYS (ANG-ERR-D)  Digitizing error
           (ERR-DIG)    Digitizing error
           (DATA-ERR1) Errors from the graphic bars
STATUS     (CURVE)Fig.5,6,7,9
ENDBIB               5
COMMON               2          3
ANG-ERR-D  ERR-DIG
ADEG       PER-CENT
0.078       0.01
ENDCOMMON            3
DATA                 4        283
E-LVL      ANG-CM     DATA-CM    DATA-ERR1
MEV        ADEG       MB/SR      MB/SR
 0.0000     6.3645     6.6202
 0.0000     10.511     6.5845
 0.0000     13.542     5.3422
 0.0000     16.513     3.4077
 0.0000     19.486     2.0438
 0.0000     22.587     1.3529
 0.0000     25.550     1.2964
 0.0000     29.432     1.3054
 0.0000     30.881     1.2276
 0.0000     33.455    0.89680
 0.0000     37.615    0.46112
 0.0000     41.698    0.39798
 0.0000     45.708    0.48217
 0.0000     50.715    0.37712
0.94000     6.4580    0.82325    0.81664E-01
0.94000     10.502    0.15967    0.26064E-01
0.94000     13.260    0.22398
0.94000     16.544    0.32802
0.94000     19.509    0.26304
0.94000     22.354    0.11550
0.94000     25.137    0.40652E-010.49217E-02
0.94000     29.463    0.10226
0.94000     30.646    0.11637
0.94000     33.539    0.13164
0.94000     37.625    0.95111E-01
0.94000     41.657    0.36941E-01
0.94000     45.818    0.15733E-010.17338E-02
0.94000     50.618    0.20382E-01
 1.3600     6.3295    0.43833E-010.35835E-01
 1.3600     10.404    0.55016E-010.17139E-01
 1.3600     13.476    0.14127    0.12390E-01
 1.3600     16.502    0.14845    0.19490E-01
 1.3600     19.398    0.14583
 1.3600     22.559    0.13477
 1.3600     25.658    0.10302
 1.3600     29.556    0.53238E-01
 1.3600     30.682    0.40186E-010.44110E-02
 1.3600     33.650    0.29611E-010.30884E-02
 1.3600     37.676    0.18163E-010.20923E-02
 1.3600     41.752    0.21708E-010.23800E-02
 1.3600     45.704    0.18873E-01
 1.3600     50.722    0.96367E-020.11222E-02
 1.4900     7.1571    0.77806    0.86108E-01
 1.4900     11.366    0.92040
 1.4900     14.380    0.86080
 1.4900     17.534    0.66078
 1.4900     20.420    0.53287
 1.4900     23.504    0.44872
 1.4900     26.518    0.41708
 1.4900     30.474    0.33233
 1.4900     31.548    0.29748
 1.4900     34.638    0.21468
 1.4900     39.073    0.13039
 1.4900     42.759    0.11257
 1.4900     46.976    0.10795
 1.4900     52.075    0.74199E-01
 2.2900     14.017    0.55261E-010.12442E-01
 2.2900     17.026    0.57587E-010.15743E-01
 2.2900     20.232    0.69101E-010.15986E-01
 2.2900     23.237    0.82912E-010.19868E-01
 2.2900     26.379    0.90563E-010.13476E-01
 2.2900     30.468    0.73644E-010.14043E-01
 2.2900     31.601    0.82576E-010.16409E-01
 2.2900     34.617    0.70356E-010.11746E-01
 2.2900     38.705    0.58376E-010.11600E-01
 2.2900     42.799    0.38811E-010.67848E-02
 2.2900     46.818    0.33751E-010.64361E-02
 2.2900     51.985    0.21131E-010.33842E-02
 2.4200     6.5671    0.40580    0.70579E-01
 2.4200     10.764    0.71228
 2.4200     13.827     1.1382
 2.4200     16.965     1.3829
 2.4200     19.973     1.5302
 2.4200     23.116     1.6159
 2.4200     26.128     1.5644
 2.4200     30.217     1.2316
 2.4200     31.159     1.0494
 2.4200     34.313    0.79877
 2.4200     38.347    0.43836
 2.4200     42.435    0.35683
 2.4200     46.591    0.29047    0.34630E-01
 2.4200     51.687    0.20693
 2.5500     6.8817     1.9471
 2.5500     11.122     2.1094
 2.5500     14.182     1.5687
 2.5500     17.114    0.99650
 2.5500     20.097     1.0095
 2.5500     23.141     1.1829
 2.5500     26.055     1.2810
 2.5500     30.239     1.0564
 2.5500     31.303    0.94180
 2.5500     34.169    0.60922
 2.5500     38.296    0.38015
 2.5500     42.344    0.33714
 2.5500     46.325    0.30820
 2.5500     51.312    0.20192
 2.7100     6.6709    0.28953    0.59260E-01
 2.7100     10.660    0.21792    0.24242E-01
 2.7100     13.788    0.15895
 2.7100     16.722    0.10051
 2.7100     19.721    0.68052E-01
 2.7100     22.828    0.84654E-01
 2.7100     25.873    0.94172E-01
 2.7100     29.856    0.82776E-01
 2.7100     31.122    0.70909E-010.93722E-02
 2.7100     33.788    0.48302E-010.67246E-02
 2.7100     37.782    0.31911E-010.33318E-02
 2.7100     41.765    0.27361E-010.36164E-02
 2.7100     45.943    0.26895E-010.37443E-02
 2.7100     50.861    0.19508E-01
 2.8700     6.1882    0.41535    0.69047E-01
 2.8700     10.223    0.27535    0.34137E-01
 2.8700     13.271    0.17266    0.17857E-01
 2.8700     16.260    0.86226E-010.14088E-01
 2.8700     19.306    0.56447E-010.69983E-02
 2.8700     22.137    0.66695E-010.78090E-02
 2.8700     25.364    0.77846E-010.81593E-02
 2.8700     29.196    0.62829E-010.62383E-02
 2.8700     30.377    0.77947E-010.80617E-02
 2.8700     33.428    0.42954E-010.47351E-02
 2.8700     37.465    0.26941E-010.29699E-02
 2.8700     41.551    0.29576E-010.30590E-02
 2.8700     45.506    0.32669E-010.29380E-02
 2.8700     50.731    0.19512E-010.21509E-02
 2.9700     6.1339     1.0134    0.13412
 2.9700     10.131    0.88473
 2.9700     12.957    0.57660
 2.9700     16.318    0.24783    0.22527E-01
 2.9700     19.212    0.14442
 2.9700     22.281    0.20090
 2.9700     25.153    0.27773
 2.9700     29.416    0.20759
 2.9700     30.337    0.17665
 2.9700     33.298    0.97954E-01
 2.9700     37.240    0.57811E-01
 2.9700     41.161    0.74654E-01
 2.9700     45.480    0.81017E-01
 2.9700     50.082    0.38955E-01
 3.0800     6.0540     1.1850
 3.0800     9.9858     1.0614
 3.0800     12.754    0.61279
 3.0800     15.865    0.21182
 3.0800     19.158    0.11932
 3.0800     22.151    0.20960
 3.0800     25.152    0.28400
 3.0800     29.352    0.21134
 3.0800     30.406    0.17562
 3.0800     33.176    0.95315E-01
 3.0800     37.246    0.67090E-01
 3.0800     41.233    0.82878E-01
 3.0800     45.228    0.78971E-01
 3.0800     50.156    0.45904E-01
 3.3400     6.3480    0.50326    0.74311E-01
 3.3400     10.451    0.62855
 3.3400     13.442    0.49197
 3.3400     16.510    0.27296    0.28200E-01
 3.3400     19.494    0.26167
 3.3400     22.477    0.26675
 3.3400     25.459    0.27699
 3.3400     29.312    0.21289
 3.3400     30.575    0.19302
 3.3400     33.638    0.12260
 3.3400     37.892    0.85411E-01
 3.3400     41.738    0.84454E-01
 3.3400     45.848    0.83002E-01
 3.3400     50.836    0.49907E-01
 3.4600     6.4920    0.88540    0.12916
 3.4600     10.576    0.83339
 3.4600     13.649    0.93257
 3.4600     16.670    0.72428
 3.4600     19.621    0.60963
 3.4600     22.839    0.52279
 3.4600     25.926    0.41621
 3.4600     30.087    0.29837
 3.4600     31.162    0.26372
 3.4600     34.184    0.20230
 3.4600     38.212    0.14412
 3.4600     42.359    0.14886
 3.4600     46.374    0.14541
 3.4600     51.472    0.10623
 3.6100     6.7107    0.76716
 3.6100     10.680    0.96388
 3.6100     13.666    0.87999
 3.6100     16.660    0.67245
 3.6100     19.775    0.67727
 3.6100     22.886    0.78069
 3.6100     26.000    0.82079
 3.6100     29.981    0.74044
 3.6100     31.112    0.67146
 3.6100     34.177    0.43746
 3.6100     38.304    0.28163
 3.6100     42.159    0.21527
 3.6100     46.535    0.21294
 3.6100     51.255    0.15126
 3.7500     6.4766    0.37021    0.68927E-01
 3.7500     10.622    0.37702    0.49046E-01
 3.7500     13.764    0.28531    0.26363E-01
 3.7500     16.773    0.19243    0.24016E-01
 3.7500     19.782    0.18783    0.17355E-01
 3.7500     22.991    0.19479    0.21135E-01
 3.7500     26.066    0.18671
 3.7500     30.145    0.12217
 3.7500     31.215    0.94720E-010.10277E-01
 3.7500     34.224    0.74786E-010.86183E-02
 3.7500     38.236    0.51679E-010.56073E-02
 3.7500     42.448    0.56942E-010.57971E-02
 3.7500     46.593    0.53596E-01
 3.7500     51.742    0.27191E-010.31335E-02
 4.2500     6.3979    0.37282    0.65031E-01
 4.2500     10.545    0.17107    0.30710E-01
 4.2500     13.621    0.14840    0.21625E-01
 4.2500     16.831    0.86664E-010.17295E-01
 4.2500     19.773    0.78992E-010.92997E-02
 4.2500     22.848    0.84557E-010.10541E-01
 4.2500     25.924    0.91076E-010.11354E-01
 4.2500     30.136    0.65632E-010.91003E-02
 4.2500     31.139    0.66450E-010.92137E-02
 4.2500     34.150    0.31643E-010.58406E-02
 4.2500     38.295    0.28842E-010.41310E-02
 4.2500     42.239    0.32042E-010.44428E-02
 4.2500     46.518    0.33051E-010.34370E-02
 4.2500     51.668    0.13737E-010.24960E-02
 4.3800     6.4164    0.62130    0.85704E-01
 4.3800     10.362    0.24385    0.37073E-01
 4.3800     13.438    0.16146    0.16929E-01
 4.3800     16.380    0.89993E-010.21767E-01
 4.3800     19.523    0.78601E-010.97484E-02
 4.3800     22.732    0.92241E-010.10172E-01
 4.3800     25.740    0.11232
 4.3800     29.885    0.90560E-010.99923E-02
 4.3800     30.955    0.10055    0.11777E-01
 4.3800     33.964    0.52696E-010.52339E-02
 4.3800     37.976    0.37337E-010.45261E-02
 4.3800     42.121    0.30104E-010.38115E-02
 4.3800     46.199    0.39224E-010.37928E-02
 4.3800     51.214    0.21728E-010.28456E-02
 4.6500     6.0587    0.55778    0.71000E-01
 4.6500     10.210    0.25111    0.36626E-01
 4.6500     13.150    0.29867
 4.6500     16.367    0.10760    0.20358E-01
 4.6500     19.377    0.86660E-010.10813E-01
 4.6500     22.518    0.95699E-010.99612E-02
 4.6500     25.594    0.90532E-01
 4.6500     29.742    0.67701E-010.70468E-02
 4.6500     30.745    0.59087E-010.81555E-02
 4.6500     33.758    0.35358E-010.58090E-02
 4.6500     37.837    0.30298E-010.48515E-02
 4.6500     41.981    0.34087E-010.47308E-02
 4.6500     45.992    0.41052E-010.48375E-02
 4.6500     51.142    0.28680E-010.33797E-02
 10.920     6.2297    0.28620    0.80711E-01
 10.920     10.180    0.20672    0.31557E-01
 10.920     13.274    0.16573    0.19137E-01
 10.920     16.235    0.10144    0.17052E-01
 10.920     19.328    0.57678E-010.69722E-02
 10.920     22.293    0.68060E-010.89568E-02
 10.920     25.323    0.79331E-010.87286E-02
 10.920     29.210    0.95932E-010.89693E-02
 10.920     30.659    0.96516E-010.14627E-01
 10.920     33.425    0.89654E-010.92469E-02
 10.920     37.572    0.57985E-010.63742E-02
 10.920     41.587    0.38435E-010.55539E-02
 11.620     6.0567    0.19520    0.80088E-01
 11.620     10.272    0.17477    0.30295E-01
 11.620     13.236    0.13840    0.18229E-01
 11.620     16.331    0.12316    0.17527E-01
 11.620     19.294    0.62674E-010.79200E-02
 11.620     22.389    0.16534E-010.68431E-02
 11.620     29.371    0.39059E-010.63715E-02
 11.620     30.623    0.39299E-010.89342E-02
 11.620     33.521    0.39058E-010.57637E-02
 11.620     37.472    0.14712E-010.49623E-02
 11.620     41.555    0.12312E-010.46857E-02
 12.250     16.063    0.11732    0.16075E-01
 12.250     16.261    0.16648    0.18317E-01
 12.250     19.225    0.86305E-010.10905E-01
 12.250     22.189    0.72673E-010.89928E-02
 12.250     25.284    0.85779E-010.99129E-02
 12.250     29.170    0.72676E-010.80028E-02
 12.250     30.685    0.72676E-010.99582E-02
 12.250     33.254    0.60450E-010.63252E-02
 12.250     37.403    0.32714E-010.49978E-02
 12.250     41.355    0.35433E-010.52283E-02
ENDDATA            285
ENDSUBENT          299
SUBENT        F0801004   20070126   20070320   20070315       F026
BIB                  2          2
REACTION   (42-MO-92(P,D)42-MO-91,PAR,DA)
STATUS     (TABLE)Tbl.2
ENDBIB               2
COMMON               1          3
ANG
ADEG
 22.
ENDCOMMON            3
DATA                 2         52
E-EXC      DATA-MAX
MEV        MU-B/SR
 0.0000     3900.0
0.65000     4470.0
 1.1600     5830.0
 1.3700     380.00
 1.5400     750.00
 1.9100     220.00
 2.1000     380.00
 2.1000     380.00
 2.3100     300.00
 2.3100     300.00
 2.3100     300.00
 2.3100     300.00
 2.5200     17.000
 2.5200     17.000
 2.7500     150.00
 2.8800     230.00
 2.8800     230.00
 2.8800     230.00
 2.8800     230.00
 2.9700     30.000
 3.2000     30.000
 3.3600     170.00
 3.3600     170.00
 3.4700     190.00
 3.4700     190.00
 3.6500     80.000
 3.8300     180.00
 3.8300     180.00
 3.9800     25.000
 4.1200     80.000
 4.1200     80.000
 4.3100     40.000
 4.4500     30.000
 4.6700     180.00
 4.6700     180.00
 4.8100     120.00
 4.8100     120.00
 4.9100     160.00
 4.9100     160.00
 5.1700     190.00
 5.1700     190.00
 5.5200     160.00
 5.5200     160.00
 5.7100     70.000
 5.8600     70.000
 5.9900     160.00
 5.9900     160.00
 7.0100     100.00
 7.1400     390.00
 8.3400     220.00
 8.6400     450.00
 8.8600     100.00
ENDDATA             54
ENDSUBENT           65
SUBENT        F0801005   20070126   20070320   20070315       F026
BIB                  2          2
REACTION   (42-MO-94(P,D)42-MO-93,PAR,DA)
STATUS     (TABLE)Tbl.3
ENDBIB               2
COMMON               1          3
ANG
ADEG
 30.
ENDCOMMON            3
DATA                 2         51
E-EXC      DATA-MAX
MEV        MU-B/SR
 0.0000     6700.0
0.94000     320.00
 1.3600     140.00
 1.4900     930.00
 1.4900     930.00
 1.4900     930.00
 2.2900     900.00
 2.4200     1790.0
 2.5500     1320.0
 2.5500     1320.0
 2.7100     290.00
 2.7100     290.00
 2.7100     290.00
 2.8700     410.00
 2.8700     410.00
 2.9700     1000.0
 2.9700     1000.0
 3.0800     1200.0
 3.0800     1200.0
 3.2300     2800.0
 3.3400     600.00
 3.3400     600.00
 3.3400     600.00
 3.4600     900.00
 3.4600     900.00
 3.4600     900.00
 3.6100     950.00
 3.6100     950.00
 3.6100     950.00
 3.7500     380.00
 3.7500     380.00
 3.7500     380.00
 4.0000     590.00
 4.0000     590.00
 4.1200     170.00
 4.2500     370.00
 4.2500     370.00
 4.2500     370.00
 4.3800     630.00
 4.3800     630.00
 4.3800     630.00
 4.5000     1800.0
 4.6500     570.00
 4.6500     570.00
 4.6500     570.00
 4.7600     300.00
 10.920     280.00
 10.920     280.00
 11.620     190.00
 12.250     140.00
 12.250     140.00
ENDDATA             53
ENDSUBENT           64
ENDENTRY             5
