ENTRY            F0862   20081013   20090323   20090318       F034
SUBENT        F0862001   20081013   20090323   20090318       F034
BIB                 10         18
TITLE      Study of states in 25Al and 26Al by the 24Mg(d,n) and
           25Mg(d,n) reactions.
AUTHOR     (H.Fuchs,K.Grabisch,P.Kraaz,G.Roschert)
INSTITUTE  (2GERBER)
REFERENCE  (J,NP/A,110,65,1968)
FACILITY   (VDG)
DETECTOR   (SCIN) NE213 liquid scintillators mounted onto XP 1040
           photomultipliers.
SAMPLE     The targets consisted of layers of enriched 24Mg or
           25Mg on 0.3 mm tungsten backings obtained by
           evaporation from a mixture of magnesium oxide and
           tantalum powder.
METHOD     (TOF)
           (PSD)
ERR-ANALYS (ANG-ERR-D) Angle digitizing error
           (ERR-DIG)   Data digitizing error
           (DATA-ERR)  Error from the graphic bars
HISTORY    (20080929C)
ENDBIB              18
COMMON               1          3
ERR-DIG
PER-CENT
 0.2
ENDCOMMON            3
ENDSUBENT           25
SUBENT        F0862002   20081013   20090323   20090318       F034
BIB                  4          5
REACTION   (12-MG-24(D,N)13-AL-25,PAR,DA,,REL)
SAMPLE     The target thickness was 100 mu-g/cm2.
FLAG       (1.) Data values are obtained after correction for the
            16O(d,n0) contribution.
STATUS     (CURVE) Fig.2
ENDBIB               5
COMMON               2          3
EN         ANG-ERR-D
MEV        ADEG
  5.5       0.312
ENDCOMMON            3
DATA                 5        136
E-LVL      ANG-CM     DATA-CM    DATA-ERR   FLAG
MEV        ADEG       ARB-UNITS  ARB-UNITS  NO-DIM
         0.    0.63093      1.562
         0.     8.5155       2.52    0.52121
         0.     17.331     6.0958    0.64939
         0.     24.668     13.517     1.2253
         0.     32.571     19.425     1.1568
         0.     37.539       20.3
         0.     43.023     18.898
         0.      48.52      16.13
         0.     53.514     14.378
         0.     58.535     10.774     0.6416
         0.     63.553     8.1908
         0.     68.581     5.8771    0.34999
         0.     73.604     4.3407
         0.     79.127     3.1602    0.23697
         0.     83.586     3.5499
         0.     89.063     3.4512
         0.     94.508     4.1082
       0.45     1.2608     441.66
       0.45     9.2173     378.17
       0.45     17.199     217.91
       0.45     24.718     74.394
       0.45     32.266     16.151    0.94026
       0.45     37.279     7.8525    0.45713
       0.45     41.728     10.874      0.797
       0.45     48.154      17.35       1.01
       0.45     53.108     21.155
       0.45     58.078     19.996
       0.45     63.552     16.879
       0.45     68.044     12.023
       0.45     73.035     8.2081
       0.45     78.506      7.332    0.99548
       0.45     82.987     6.1018
       0.45     88.459     5.3739
       0.45     92.927     5.5294    0.40525
       0.95    0.96987     8.4829
       0.95     8.4286     8.7392    0.72632
       0.95     16.368     10.255    0.71534
       0.95     24.299     12.751    0.71665
       0.95      32.76     12.399     1.0305
       0.95     37.255     10.891    0.75972
       0.95      42.76     8.5228     0.5945
       0.95      47.77     6.5732    0.45851
       0.95     53.258     5.8587    0.56404
       0.95     58.771     4.3269    0.41657
       0.95     63.746     4.3293     0.4168
       0.95     68.765     3.1061    0.33933
       0.95     73.797     2.0139    0.19389
       0.95     78.742     2.5396     0.2302
       0.95     83.732     2.2634    0.13479
       0.95     88.726     1.9598    0.16288
       0.95     94.161     2.6187    0.27897
       1.61    0.32244     1.5565    0.17322
       1.61     8.2876     1.1938    0.30492
       1.61     16.738     1.7519    0.40176
       1.61     24.698     1.7012    0.27034
       1.61      32.17     1.0771     0.2264
       1.61     37.649    0.75611    0.15006
       1.61     42.617     1.0773    0.17474
       1.61     48.093    0.91607     0.1818
       1.61     52.565     1.2487    0.20254
       1.61     58.534     1.2862    0.23994
       1.61     64.004     1.5129    0.20745
       1.61     68.485     1.2127    0.15074
       1.61     73.954     1.5132    0.16456
       1.61     79.428     1.3449    0.16717
       1.61     83.904     1.5134    0.14844
       1.61     89.374     1.7284    0.18797
       1.61     94.343     2.2876    0.28434
       1.81    0.16087      8.052    0.85649
       1.81     6.3106     7.8285     1.0865
       1.81     14.751     8.9236     1.0928
       1.81     23.173     11.584     1.0484
       1.81     30.631     13.393              1.
       1.81     36.102     13.596              1.
       1.81     42.076     13.218              1.
       1.81      46.57     11.613              1.
       1.81     52.548     10.968              1.
       1.81     57.544     9.3625              1.
       1.81     63.024     8.8423              1.
       1.81     68.031     6.9214              1.
       1.81     73.023     5.5777    0.68305
       1.81      77.53     4.4937    0.40671
       1.81      82.51     4.3056    0.38969
       1.81     87.493     4.0662    0.43252
       1.81     92.964     4.1279    0.43909
        2.5    0.61004     173.78     12.984
        2.5     9.0579     152.68
        2.5     16.529     84.579
        2.5     24.011     35.631
        2.5     32.007     8.9348    0.80697
        2.5     38.466     8.3153    0.75102
        2.5      42.46     4.8094    0.51049
        2.5     47.924     4.6067    0.41607
        2.5     52.886     5.2455    0.47376
        2.5     58.853      7.522
        2.5      63.32     4.7436    0.42843
        2.5     68.298     3.4058    0.30761
        2.5     73.778     2.1791    0.16281
        2.5      78.75     1.8869    0.14098
        2.5     83.234     1.2606    0.15404
        2.5     87.701     1.3746    0.14591
        2.5     93.169     1.2076    0.16724
       2.69    0.95093     11.891
       2.69     7.0166       11.4    0.79402
       2.69     15.432      14.59    0.86744
       2.69     23.855      17.88
       2.69     31.342     15.493
       2.69     36.327     14.634
       2.69     42.315     13.238    0.92206
       2.69     46.827     10.822
       2.69     52.849     7.9985
       2.69     58.814       8.24    0.46243
       2.69     62.859     5.6642    0.54452
       2.69     68.378     4.3086    0.35756
       2.69     73.371     3.8972    0.21871
       2.69     78.836     4.0729      0.338
       2.69     83.323     3.8468    0.26794
       2.69     88.283      4.198    0.23559
       2.69     94.199     5.7727    0.47906
       3.08    0.72037     185.88
       3.08     8.1722     167.65
       3.08     17.115     144.67
       3.08     25.069     94.306
       3.08     32.529     57.101
       3.08     37.999     38.906
       3.08     43.966     26.509     1.6122
       3.08     47.449     19.445
       3.08     53.911     14.055     1.0765
       3.08      58.88     12.308    0.94266
       3.08     64.349     9.4368    0.57393
       3.08     68.822     8.0232
       3.08      74.29     6.0617    0.46428
       3.08      79.26     5.0781    0.30884
       3.08     84.232     3.8937    0.29822
       3.08     88.206     3.6707    0.28114
       3.08     94.664     3.4606    0.26505
ENDDATA            138
ENDSUBENT          152
SUBENT        F0862003   20081013   20090323   20090318       F034
BIB                  5          8
REACTION   (12-MG-25(D,N)13-AL-26,PAR,DA)
SAMPLE     The target thickness was 130 mu-g/cm2.
MONITOR    An additional measurement with a 425 mu-g/cm2 target
           of natural magnesium was used for the determination of
           absolute cross sections.
ERR-ANALYS The uncertainty of the absolute normalization is
           about 20%.
STATUS     (CURVE) Fig.4-7
ENDBIB               8
COMMON               2          3
EN         ANG-ERR-D
MEV        ADEG
  6.        0.478
ENDCOMMON            3
DATA                 4        560
E-LVL      ANG-CM     DATA-CM    DATA-ERR
MEV        ADEG       MB/SR      MB/SR
         0.     8.5091    0.30912
         0.     15.497    0.49933
         0.     23.461     1.0028
         0.     30.977      1.381
         0.     39.533     1.5302
         0.     47.145     1.0971
         0.     54.747     0.8458
         0.     61.866    0.56396
         0.      69.98    0.41028
         0.     76.577    0.30721
         0.     85.121    0.37135
         0.     92.671     0.4055
         0.     100.22    0.43012
         0.     107.78    0.45623
         0.     115.33    0.49101
         0.     122.38    0.54395
         0.     130.95    0.52133
       0.23      8.755 7.9053E-02 1.6705E-02
       0.23     15.722    0.15363 4.0882E-02
       0.23     24.279    0.17051
       0.23     31.303    0.21927
       0.23     39.372    0.21627 2.3518E-02
       0.23     47.488    0.15195 2.1566E-02
       0.23     55.128 8.6842E-02 1.9914E-02
       0.23     62.269 4.8186E-02 1.8467E-02
       0.23     70.391 3.2391E-02 1.3754E-02
       0.23     77.964 3.0115E-02 9.1551E-03
       0.23     85.474 4.4227E-02 9.3458E-03
       0.23     93.055 3.8765E-02 1.5653E-02
       0.23     100.62 3.7121E-02 1.4989E-02
       0.23     108.15 4.7041E-02 1.4300E-02
       0.23      115.2 5.1436E-02 1.4655E-02
       0.23     122.76 5.1482E-02 1.1805E-02
       0.23     131.34 5.0036E-02 2.2306E-02
       0.42      1.066     14.157
       0.42     12.184     11.396
       0.42     18.771     6.2043
       0.42     26.893     1.9483
       0.42     33.505    0.52168
       0.42     41.071    0.66744
       0.42     49.646     0.9181
       0.42     57.224    0.84188
       0.42     64.809    0.63951
       0.42     72.894    0.56149
       0.42     80.479    0.43275
       0.42     87.548    0.44556
       0.42      95.64    0.32407
       0.42     102.72     0.2534
       0.42      110.3    0.21303 3.3196E-02
       0.42     117.37    0.22253 3.0979E-02
       0.42     124.94    0.28471
       0.42     133.51    0.39735
       1.06     1.1964    0.13108
       1.06     9.2213    0.18203 2.1969E-02
       1.06     17.235    0.27536
       1.06     24.213    0.51567
       1.06     31.224    0.74734
       1.06     39.794    0.75872
       1.06     47.897    0.57113
       1.06        55.    0.40606
       1.06     62.609    0.28464
       1.06     70.714    0.21123
       1.06     77.806    0.16358
       1.06     86.374    0.16845 1.7661E-02
       1.06     93.434    0.16619
       1.06     100.47    0.19452 1.7354E-02
       1.06     107.52    0.20607 1.5211E-02
       1.06     115.58    0.22787 1.6819E-02
       1.06     122.13     0.2248 1.6592E-02
       1.06     132.23    0.21257 1.8964E-02
       1.76    0.28574     4.8698
       1.76     11.402     3.9827
       1.76     18.995     2.2088
       1.76     27.108    0.70918
       1.76     35.211    0.32624
       1.76     42.781    0.39338
       1.76     50.354    0.41675
       1.76     58.448    0.26688 3.2545E-02
       1.76     66.538    0.19175 2.3383E-02
       1.76     73.107    0.16849 1.7847E-02
       1.76     80.175    0.18108 2.2082E-02
       1.76     88.252    0.20321
       1.76     95.839    0.13587
       1.76     102.91    0.14602 1.7807E-02
       1.76     110.48    0.15921 1.9415E-02
       1.76     117.55    0.17865
       1.76     125.12    0.17869
       1.76     133.71    0.20052
       1.85    0.51323    0.24014
       1.85     11.127    0.13817      0.102
       1.85     18.701      0.153 4.0101E-02
       1.85     26.778    0.19595 3.4007E-02
       1.85      34.35    0.24733 3.4601E-02
       1.85     41.929     0.1849 2.2823E-02
       1.85     50.012    0.16223 2.0024E-02
       1.85     57.088    0.10954 1.3520E-02
       1.85     64.666 9.1998E-02 1.4407E-02
       1.85     72.242 8.8077E-02 1.2322E-02
       1.85     79.816 9.2014E-02 1.2873E-02
       1.85     87.392 9.2023E-02 1.7553E-02
       1.85     94.966    0.10339 1.2762E-02
       1.85     102.04 8.4345E-02 1.1800E-02
       1.85     110.12 8.5589E-02 1.1974E-02
       1.85     117.19 9.3404E-02 1.3067E-02
       1.85     124.26 7.6198E-02 1.8583E-02
       1.85     133.35    0.10964 2.2826E-02
       2.37    0.72898    0.92706
       2.37     11.373    0.77305
       2.37     18.978    0.54566
       2.37     26.582    0.41547
       2.37     34.692    0.35709
       2.37     42.291    0.42188
       2.37     50.402     0.3311
       2.37     57.501    0.21019
       2.37     65.105    0.16496 2.9912E-02
       2.37     72.704    0.19489 3.8852E-02
       2.37     80.811    0.21671 3.5446E-02
       2.37     88.412    0.22339 3.2631E-02
       2.37     96.012    0.24467 3.5738E-02
       2.37     104.12    0.22343 2.8786E-02
       2.37     111.72    0.20403 2.6287E-02
       2.37     118.31    0.19796 2.5504E-02
       2.37     125.91    0.18633 2.4007E-02
       2.37     135.04    0.16508 1.8467E-02
       2.55    0.70683     1.8912
       2.55     10.338     1.5668
       2.55     18.454    0.98586
       2.55     25.556     0.6203
       2.55     33.161    0.51391
       2.55     40.762    0.49211
       2.55     48.365     0.4512
       2.55     56.477    0.34771
       2.55      64.59    0.27186
       2.55     71.688     0.2188 2.3343E-02
       2.55     79.798    0.19208 1.4424E-02
       2.55     86.386    0.18394 1.9624E-02
       2.55     94.492    0.21262 1.9301E-02
       2.55      102.6    0.20959 1.9026E-02
       2.55      109.7    0.18399 2.2600E-02
       2.55     116.79    0.20963 1.9029E-02
       2.55     124.39    0.21271 1.9309E-02
       2.55       133.    0.23543 2.5118E-02
       2.66    0.92853    0.36613 4.0745E-02
       2.66     10.556    0.29782 7.3739E-02
       2.66     18.664    0.24586 2.2747E-02
       2.66     25.758    0.19418 2.1117E-02
       2.66     34.373    0.19133 1.7702E-02
       2.66     41.467    0.15564 2.2092E-02
       2.66     49.068    0.14672 2.0826E-02
       2.66     57.175     0.1266 1.7970E-02
       2.66     64.777    0.12848 1.6089E-02
       2.66     71.871    0.13831 2.9230E-02
       2.66     79.979    0.11086 1.5736E-02
       2.66     87.073    0.10606 1.5055E-02
       2.66     94.674    0.11086 1.5736E-02
       2.66     102.28 9.0178E-02 8.3432E-03
       2.66     109.88 9.5656E-02 1.3578E-02
       2.66     116.46 9.7076E-02 1.3779E-02
       2.66     124.07 9.8518E-02 1.0714E-02
       2.66     133.19    0.11587 1.0720E-02
       2.74     9.1812    0.12172 1.7568E-02
       2.74     16.888    0.11234 2.1622E-02
       2.74     23.254     0.1043 2.4325E-02
       2.74     32.613    0.12738 2.0271E-02
       2.74     39.645    0.12475 2.1622E-02
       2.74     47.701 9.3754E-02 1.4865E-02
       2.74     55.412 7.7619E-02 1.7568E-02
       2.74     63.116 7.2296E-02 1.8920E-02
       2.74     70.479 7.5078E-02 1.4865E-02
       2.74     79.169 9.8146E-02 1.7568E-02
       2.74     85.541 8.0646E-02 1.8920E-02
       2.74     93.597 4.9650E-02 1.8920E-02
       2.74     101.29 6.0544E-02 1.3514E-02
       2.74     108.66 4.8460E-02 1.3514E-02
       2.74     115.67 8.6375E-02 1.3514E-02
       2.74     122.71 7.4288E-02 1.3514E-02
       2.74     132.07 8.5200E-02 1.4865E-02
       2.91    0.45447     2.0039
       2.91     8.5603     1.6599
       2.91     16.662    0.94358
       2.91     24.253    0.36279
       2.91     32.357       0.26 4.4898E-02
       2.91     38.947    0.32777
       2.91     47.561    0.29615 3.1596E-02
       2.91     55.667    0.25621
       2.91     62.252     0.1863 3.5358E-02
       2.91     70.863    0.13743 1.9132E-02
       2.91     78.463     0.1189 1.6552E-02
       2.91     85.555 9.9924E-02 1.8965E-02
       2.91     93.664    0.10899 1.6983E-02
       2.91     101.26 9.7058E-02 1.5124E-02
       2.91     108.87    0.11056 1.5391E-02
       2.91     115.96    0.11056 1.7228E-02
       2.91     123.06    0.11714 1.6307E-02
       2.91     132.18    0.14983 2.0857E-02
       3.07     8.7352    0.10425 5.2778E-02
       3.07     17.335     0.2849 1.8056E-02
       3.07     25.063    0.23636 1.6667E-02
       3.07     32.098    0.22949 1.3889E-02
       3.07     40.154    0.19346 1.3889E-02
       3.07     47.522    0.18936 1.2500E-02
       3.07     55.242    0.15472 1.2500E-02
       3.07     63.298    0.11869 1.2500E-02
       3.07     70.654    0.13543 1.3889E-02
       3.07     78.369     0.1105 1.5278E-02
       3.07     85.076 9.1127E-02 1.6667E-02
       3.07     93.102    0.10649 1.8056E-02
       3.07      100.8    0.10795 1.6667E-02
       3.07     108.17    0.10941 1.5278E-02
       3.07      118.2    0.12618 1.5278E-02
       3.07     123.55    0.14429 1.3889E-02
       3.07     131.91    0.14993 1.3889E-02
       3.16    0.82526      11.47
       3.16      9.033     8.8489
       3.16     16.757     4.4272
       3.16     24.525     1.1402
       3.16     32.305     0.2434
       3.16     40.963    0.47993
       3.16     46.572    0.66912
       3.16      56.81    0.67921
       3.16      63.49    0.46013 4.8927E-02
       3.16     71.703    0.33027
       3.16     79.404    0.23366 2.1141E-02
       3.16     87.095    0.19657 1.6310E-02
       3.16     95.305    0.14523
       3.16     102.47    0.13912 1.1543E-02
       3.16     110.17    0.10579 9.5718E-03
       3.16     117.34    0.11052 8.2719E-03
       3.16      124.5    0.10897 8.1564E-03
       3.16      133.7    0.14138 1.7307E-02
       3.41    0.16351    0.18889
       3.41     8.8625    0.20008 1.3889E-02
       3.41     16.558    0.20987 1.6667E-02
       3.41     22.919    0.20992 1.3889E-02
       3.41     31.958    0.21139 1.5278E-02
       3.41     39.328    0.20173 1.2500E-02
       3.41     47.366    0.19625 1.5278E-02
       3.41     55.073    0.18103 1.3889E-02
       3.41     62.773    0.18249 1.3889E-02
       3.41     70.142    0.17561 1.6667E-02
       3.41      79.19    0.15763 1.5278E-02
       3.41     84.877     0.1674 1.6667E-02
       3.41     93.594    0.14248 1.5278E-02
       3.41     100.29     0.1467 1.5278E-02
       3.41     108.65    0.16483 1.3889E-02
       3.41     115.34    0.17878 1.3889E-02
       3.41     122.03    0.18439 1.5278E-02
       3.41      131.4    0.19142 1.3889E-02
       3.51     7.9546    0.15898 2.0547E-02
       3.51     15.662    0.14673 1.9177E-02
       3.51     22.692    0.14816 1.7808E-02
       3.51     31.394    0.15235 1.3698E-02
       3.51     39.453    0.10997 1.5068E-02
       3.51     46.816    0.11414 1.7808E-02
       3.51     54.505    0.13339 1.3698E-02
       3.51     61.866    0.14168 1.6438E-02
       3.51     69.556    0.15956 1.7808E-02
       3.51       78.6    0.15143 1.5068E-02
       3.51     84.954    0.16382 1.6438E-02
       3.51     92.986    0.17074 1.3698E-02
       3.51     99.681     0.1708 1.5068E-02
       3.51     107.39     0.1517 1.3698E-02
       3.51     114.42    0.16409 1.3698E-02
       3.51     122.13    0.14636 1.3698E-02
       3.51     130.83     0.1437 1.5068E-02
       3.59     1.6688      1.486
       3.59     9.8757     1.1856
       3.59     18.092    0.83278
       3.59      27.35    0.44713
       3.59     34.542    0.31406
       3.59     42.232    0.26892
       3.59     49.918    0.24367
       3.59      58.12    0.20865
       3.59     65.295    0.18639
       3.59     72.972    0.19182
       3.59     81.173    0.16425 1.9681E-02
       3.59     88.339    0.16666 1.7347E-02
       3.59     96.001    0.21205
       3.59     103.69    0.18944
       3.59     111.88    0.18687
       3.59     119.05    0.17917
       3.59     126.71     0.2185
       3.59     134.91    0.20367
       3.68     2.1341     3.5862
       3.68     10.331     2.9252
       3.68     18.023     1.9458
       3.68     26.231     1.1353
       3.68     33.408     0.8485
       3.68     41.603    0.72302
       3.68     49.288     0.5984
       3.68     56.461    0.50252
       3.68     64.655     0.4539
       3.68     72.335    0.44095
       3.68     80.016    0.41006
       3.68     87.185    0.37581
       3.68     95.378    0.35982
       3.68     102.55    0.34955
       3.68     109.71    0.35995
       3.68     117.39    0.32989
       3.68     125.07    0.33971
       3.68     133.77    0.36546
       3.92     15.812 9.8722E-02 3.8571E-02
       3.92     23.197 5.8790E-02 3.1429E-02
       3.92     31.222 8.0292E-02 2.8571E-02
       3.92     38.902    0.11893 2.0000E-02
       3.92     46.582      0.159 2.0000E-02
       3.92     54.645    0.10479 2.4286E-02
       3.92      62.67    0.12487 2.2857E-02
       3.92     70.364    0.13637 2.0000E-02
       3.92     77.716    0.16358 1.8571E-02
       3.92     85.085     0.1565 1.4286E-02
       3.92     92.133    0.12228 1.2857E-02
       3.92     100.16    0.14378 1.4286E-02
       3.92     107.17     0.1767 1.5714E-02
       3.92     114.89    0.13677 1.7143E-02
       3.92     121.91     0.1597 1.4286E-02
       3.92     130.99 7.4065E-02 1.2857E-02
       3.96    0.78196        0.2
       3.96     8.6088    0.21402 1.5277E-02
       3.96      16.82    0.18499 1.5277E-02
       3.96     23.965      0.199 1.3888E-02
       3.96     32.814    0.21303 1.6666E-02
       3.96     40.332     0.1951 1.6666E-02
       3.96     48.212    0.15635 2.3610E-02
       3.96     56.056     0.1537 2.0832E-02
       3.96     63.896    0.15383 1.9443E-02
       3.96      71.42    0.13034 1.8055E-02
       3.96     79.655 7.7705E-02 1.3888E-02
       3.96     86.421     0.1292 1.6666E-02
       3.96     94.592    0.14045 1.2499E-02
       3.96     101.44    0.11279 1.3888E-02
       3.96     108.87    0.18513 1.3888E-02
       3.96     116.39    0.15609 1.3888E-02
       3.96     123.56    0.15065 1.3888E-02
       3.96     133.06    0.19109 1.5277E-02
       4.34      8.603    0.14873 2.2221E-02
       4.34      16.78     0.1544 1.9444E-02
       4.34     24.259    0.17812 1.2499E-02
       4.34     32.454    0.16296 1.5277E-02
       4.34     39.939    0.18112 1.5277E-02
       4.34     47.793    0.16595 1.5277E-02
       4.34     55.993    0.14385 1.3888E-02
       4.34     63.493    0.14396 1.5277E-02
       4.34      70.99    0.14823 1.5277E-02
       4.34     79.176    0.14279 1.5277E-02
       4.34     86.346    0.13039 1.6666E-02
       4.34     94.535    0.12218 1.3888E-02
       4.34     102.02    0.14034 1.5277E-02
       4.34     109.54    0.11823 1.3888E-02
       4.34     116.01     0.1211 1.3888E-02
       4.34     123.84    0.13926 1.3888E-02
      4.699    0.87111    0.15071
      4.699     9.4424    0.15083
      4.699     16.998    0.15973
      4.699     24.533    0.20329
      4.699     33.087    0.23437
      4.699     40.163    0.20359 2.7640E-02
      4.699     48.252    0.16952
      4.699     55.349    0.12253 1.6634E-02
      4.699     70.521 8.3750E-02 1.0034E-02
      4.699     78.105 6.9732E-02
      4.699     86.169 7.1788E-02
      4.699     93.727 7.4953E-02
      4.699     100.78 7.6071E-02
      4.699     108.36 6.7026E-02
      4.699      115.4 8.0610E-02 8.3901E-03
      4.699     123.46 8.1821E-02
      4.699     132.02 9.3004E-02
      4.766     1.1204    0.14247
      4.766     8.7014    0.12123
      4.766     16.722    0.18335
      4.766     24.254    0.24282
      4.766     32.314    0.25777
      4.766     39.885    0.23962
      4.766     47.976    0.19507
      4.766     55.046    0.17605
      4.766     63.108    0.18416
      4.766     78.229    0.19277
      4.766     85.281    0.20462
      4.766      93.35    0.20178
      4.766     100.92    0.18483
      4.766     107.98    0.19049
      4.766     115.05    0.16692
      4.766     122.62    0.15982
      4.766     131.71    0.13802
       4.94     0.6597    0.24525
       4.94     8.5045    0.23588 2.1429E-02
       4.94     16.681    0.24796 2.1429E-02
       4.94      24.85    0.27908 2.3810E-02
       4.94     32.681    0.30305 2.8571E-02
       4.94     40.176    0.31272 2.3809E-02
       4.94     48.679    0.36052 2.6190E-02
       4.94     55.531    0.27971 2.3810E-02
       4.94     64.059    0.26798 2.1429E-02
       4.94     72.244    0.25862 2.3810E-02
       4.94     79.745    0.25639 2.6190E-02
       4.94     87.215    0.32798 2.3810E-02
       4.94     94.747    0.25194 2.3810E-02
       4.94     102.58    0.26401 2.3809E-02
       4.94     108.75    0.19746 2.3810E-02
       4.94     117.25    0.23574 2.1429E-02
       4.94     124.42    0.21922 2.1429E-02
       4.94      132.6      0.217 2.6191E-02
         5.    0.41084    0.23055
         5.     8.2478     0.2362 1.3888E-02
         5.     16.111    0.20435 1.3888E-02
         5.     24.299    0.19472 1.2500E-02
         5.     32.135    0.20175 1.2500E-02
         5.     39.984    0.19073 1.3888E-02
         5.     48.511    0.18389 1.5277E-02
         5.     55.691    0.15342 1.6666E-02
         5.     64.233    0.12574 1.2500E-02
         5.     71.729    0.13138 1.3888E-02
         5.     79.575    0.12453 1.3888E-02
         5.     86.752 9.8221E-02 1.3888E-02
         5.     94.539    0.17609 1.2500E-02
         5.     101.74     0.1095 1.2499E-02
         5.     109.58    0.12348 1.8055E-02
         5.     116.74    0.10829 1.3888E-02
         5.     123.89    0.12365 1.3888E-02
         5.     132.75    0.13486 1.5277E-02
       5.13     1.2872     2.8143
       5.13      7.167     2.3284
       5.13     15.121     1.3579
       5.13     25.561    0.68448
       5.13     31.525     0.3934
       5.13     38.488    0.35009
       5.13     46.445    0.32076
       5.13     53.906     0.2982
       5.13     61.365    0.24315
       5.13     69.323    0.22278
       5.13     76.284    0.17903 2.5091E-02
       5.13     83.745    0.16403
       5.13     91.206    0.16643
       5.13     98.666    0.15473
       5.13     105.63    0.12616 9.5364E-03
       5.13     113.59    0.15247
       5.13     120.05    0.15247
       5.13     128.51    0.14593 1.5673E-02
       5.24    0.82007    0.20057
       5.24     8.3563    0.25312
       5.24     16.398    0.31486
       5.24     23.906    0.50842
       5.24     32.476    0.51627
       5.24     40.055    0.44691
       5.24     47.638    0.37581
       5.24     55.254    0.23647
       5.24     62.876    0.14246
       5.24     70.943    0.14257
       5.24     78.015    0.12704 1.3571E-02
       5.24     85.561    0.14697
       5.24     94.136    0.14289
       5.24     101.17    0.17516
       5.24     108.73    0.18308
       5.24     115.77    0.20874
       5.24     122.81    0.25962
       5.24     131.41    0.19727
       5.39     1.1914    0.83962
       5.39     8.7287    0.97183
       5.39     16.774     1.0612
       5.39     24.835    0.94492
       5.39      32.42    0.60174
       5.39      40.51    0.37221
       5.39     48.081    0.27824
       5.39      56.15    0.22701
       5.39     63.692    0.24788
       5.39     71.748    0.23397
       5.39     78.307    0.19087
       5.39     86.364    0.17755
       5.39     94.426     0.1581
       5.39     100.97    0.14492
       5.39     108.53    0.13879
       5.39     115.56    0.16782
       5.39     122.11    0.14513
       5.39     131.16    0.16081
       5.45    0.71569 8.3958E-02
       5.45      8.767 8.5218E-02
       5.45      16.82 8.4014E-02
       5.45     23.868 7.9279E-02
       5.45     32.454 4.2380E-02 5.2405E-03
       5.45     40.524 2.9882E-02 4.1879E-03
       5.45     48.087 2.2334E-02
       5.45      56.15 1.7954E-02
       5.45     63.693 2.0181E-02
       5.45     72.247 2.0484E-02 2.8709E-03
       5.45       79.3 1.7712E-02
       5.45     86.353 1.5314E-02
       5.45     94.918 1.2492E-02
       5.45     100.95 1.4883E-02 1.5984E-03
       5.45     108.49 1.6013E-02 1.4632E-03
       5.45     116.04 1.8263E-02
       5.45     122.58 1.6496E-02
       5.45     130.13 1.6263E-02
      5.485     1.9463    0.80364
      5.485     7.0083    0.69471
      5.485      14.97    0.50419
      5.485     22.931    0.39357
      5.485      30.89    0.35028
      5.485      38.85    0.29842
      5.485     46.312    0.25797
      5.485     53.774    0.23296
      5.485     61.234    0.25427
      5.485     69.193    0.24341
      5.485     76.157    0.25062
      5.485     83.619    0.21983
      5.485     91.579     0.1819
      5.485     99.039    0.19283
      5.485      106.5    0.21355
      5.485     112.47    0.23997
      5.485     120.43    0.23309 2.1299E-02
      5.485     129.38    0.22641 2.0689E-02
       5.58    0.13893    0.28169
       5.58     8.3987    0.26067 1.2676E-02
       5.58     16.238    0.26358 1.2676E-02
       5.58     24.095    0.23973 1.9718E-02
       5.58     32.278    0.23842 1.2676E-02
       5.58     40.473    0.22021 1.4085E-02
       5.58      48.32    0.21186 1.2676E-02
       5.58     56.169    0.19928 1.8310E-02
       5.58     63.673    0.19373 1.4085E-02
       5.58     71.523    0.18115 1.2676E-02
       5.58     79.015    0.19251 1.4085E-02
       5.58     86.193    0.16584 1.4085E-02
       5.58     95.047    0.18003 1.1268E-02
       5.58     102.23    0.14913 1.4085E-02
       5.58     109.03    0.17598 1.4085E-02
       5.58     116.53    0.17184 1.5493E-02
       5.58     123.37    0.14376 1.4085E-02
       5.58     132.25    0.12274 1.5493E-02
       5.91    0.57435    0.86442
       5.91     8.6283    0.81565
       5.91     16.678     0.8775
       5.91     24.231    0.78109
       5.91     32.794    0.60101
       5.91     40.349    0.49738
       5.91     48.912    0.39981
       5.91     56.464    0.36111 2.7295E-02
       5.91     64.007    0.43021 3.2518E-02
       5.91     79.122      0.251 3.1038E-02
       5.91     86.682    0.17696
       5.91     94.228      0.196 1.4815E-02
       5.91     100.78    0.16458 1.5039E-02
       5.91     108.83    0.16224 1.4825E-02
       5.91     114.86    0.19611 1.7920E-02
       5.91     122.41    0.19903 1.5044E-02
       5.91     130.96    0.21412 2.6478E-02
       6.02     0.3405 9.5948E-02
       6.02     8.2059 7.9101E-02 7.4324E-03
       6.02     16.395 7.3742E-02 5.4054E-03
       6.02     23.886 7.9866E-02 8.1081E-03
       6.02     31.731 7.7208E-02 7.4324E-03
       6.02     39.905 8.2661E-02 6.7568E-03
       6.02     48.444 7.1223E-02 7.4324E-03
       6.02     55.938 7.5320E-02 8.1081E-03
       6.02     63.816 4.9689E-02 7.4324E-03
       6.02     71.652 5.3112E-02 7.4324E-03
       6.02     79.174 3.8290E-02 7.4324E-03
       6.02     108.53 1.4133E-02 6.7568E-03
       6.02     115.65 3.6472E-02 6.7568E-03
       6.02     123.53 1.2868E-02 9.4595E-03
ENDDATA            562
ENDSUBENT          579
SUBENT        F0862004   20081013   20090323   20090318       F034
BIB                  5          8
REACTION   (12-MG-25(D,N)13-AL-26,PAR,DA)
SAMPLE     The target thickness was 130 mu-g/cm2.
MONITOR    An additional measurement with a 425 mu-g/cm2 target
           of natural magnesium was used for the determination of
           absolute cross sections.
ERR-ANALYS The uncertainty of the absolute normalization is
           about 20%.
STATUS     (CURVE) Fig.4-6
ENDBIB               8
COMMON               2          3
EN         ANG-ERR-D
MEV        ADEG
  6.        0.186
ENDCOMMON            3
DATA                 5        106
E-LVL-MIN  E-LVL-MAX  ANG-CM     DATA-CM    DATA-ERR
MEV        MEV        ADEG       MB/SR      MB/SR
       2.07       2.09    0.55336     1.2758
       2.07       2.09     10.151     1.0706
       2.07       2.09     17.732    0.72136
       2.07       2.09     25.815    0.63245
       2.07       2.09     33.389    0.69052
       2.07       2.09     39.955    0.64187
       2.07       2.09     48.542    0.57947
       2.07       2.09     55.616    0.47221
       2.07       2.09     63.192    0.45198
       2.07       2.09      70.77    0.37926
       2.07       2.09     78.345    0.38488
       2.07       2.09     85.919     0.4081
       2.07       2.09     93.494    0.42645
       2.07       2.09     101.07    0.30465
       2.07       2.09     108.65    0.34755
       2.07       2.09     115.72    0.36317
       2.07       2.09     123.29    0.34761
       2.07       2.09     131.38    0.29598
       3.72       3.75     2.1639     6.3378
       3.72       3.75     8.8289     5.1006
       3.72       3.75     17.052     2.5445
       3.72       3.75     25.289    0.92278
       3.72       3.75     32.486    0.48078
       3.72       3.75     40.669    0.57229
       3.72       3.75     48.343    0.62446
       3.72       3.75      56.54    0.54826
       3.72       3.75     64.745    0.40451
       3.72       3.75     71.923    0.31625
       3.72       3.75     79.103    0.24018
       3.72       3.75     86.774    0.28178
       3.72       3.75     93.941    0.28185 2.1185E-02
       3.72       3.75     102.13    0.26994 2.8826E-02
       3.72       3.75     109.31    0.22691
       3.72       3.75     116.99    0.21418
       3.72       3.75     124.16    0.20513 1.8638E-02
       3.72       3.75     132.86    0.23042
       4.19        4.2     1.2908     12.086
       4.19        4.2     7.1636     9.4334
       4.19        4.2     14.621     5.1148
       4.19        4.2     22.574     1.8986
       4.19        4.2     30.527    0.75802
       4.19        4.2     37.989     0.8394
       4.19        4.2     45.947    0.88975
       4.19        4.2     53.905    0.72551
       4.19        4.2     61.365     0.6844
       4.19        4.2     68.825    0.58301
       4.19        4.2     75.788    0.52645
       4.19        4.2     83.249    0.46172
       4.19        4.2     90.211    0.37649
       4.19        4.2     98.666    0.31608
       4.19        4.2     105.63     0.2896 2.6463E-02
       4.19        4.2     113.09    0.28959
       4.19        4.2     120.55    0.26534
       4.19        4.2     129.01    0.28125
      5.536      5.558    0.49523    0.27849
      5.536      5.558     8.5427    0.32739 3.5307E-02
      5.536      5.558     16.563    0.47932
      5.536      5.558     24.093    0.63342
      5.536      5.558     31.657     0.6247
      5.536      5.558     40.253    0.50944
      5.536      5.558     47.839    0.42153 6.6413E-02
      5.536      5.558     55.472    0.23843
      5.536      5.558     62.058    0.18335
      5.536      5.558     70.628    0.18621
      5.536      5.558     78.191    0.18636
      5.536      5.558     85.761     0.1759
      5.536      5.558     93.833    0.16849
      5.536      5.558     100.88    0.18141
      5.536      5.558     107.97    0.14365
      5.536      5.558     115.99    0.20726
      5.536      5.558     123.07    0.17401
      5.536      5.558     131.68     0.1319
      5.665      5.715     1.0486     4.3252
      5.665      5.715     9.0986     4.7191
      5.665      5.715     16.646     5.0017    0.61516
      5.665      5.715     25.205     4.3274
      5.665      5.715     33.772     2.7214
      5.665      5.715      40.83     1.5917    0.22187
      5.665      5.715      48.39     1.0156    0.12491
      5.665      5.715     56.448    0.81723    0.10051
      5.665      5.715     63.997    0.79399 8.4819E-02
      5.665      5.715     72.053    0.68694 7.3383E-02
      5.665      5.715     79.103    0.56901
      5.665      5.715     86.653    0.53703
      5.665      5.715     94.711    0.42591 3.8712E-02
      5.665      5.715     101.26    0.39047 3.5491E-02
      5.665      5.715      108.3    0.37391 3.3986E-02
      5.665      5.715     115.85    0.37397 3.3991E-02
      5.665      5.715      122.9    0.36864 3.9380E-02
      5.665      5.715     131.45    0.33311 4.0970E-02
      5.842      5.875     1.8992    0.50576
      5.842      5.875     7.5524    0.41537
      5.842      5.875     15.513    0.26369
      5.842      5.875     23.474    0.16995 1.9011E-02
      5.842      5.875     31.928    0.20383 3.3340E-02
      5.842      5.875     39.887    0.19479 3.5319E-02
      5.842      5.875      62.77    0.12366 2.2423E-02
      5.842      5.875      70.23     0.1375 1.7715E-02
      5.842      5.875     78.189    0.11998 1.1416E-02
      5.842      5.875     84.656 9.7054E-02 1.0857E-02
      5.842      5.875     93.113 8.0925E-02 9.0528E-03
      5.842      5.875     101.07 8.2163E-02 9.1913E-03
      5.842      5.875     108.04 7.3899E-02 7.0315E-03
      5.842      5.875      115.5 7.3902E-02
      5.842      5.875     121.96 8.8637E-02 8.4338E-03
      5.842      5.875     130.42 9.2761E-02 7.2990E-03
ENDDATA            108
ENDSUBENT          125
ENDENTRY             4
