ENTRY            F0883   20080226   20080430   20080414       F030
SUBENT        F0883001   20080226   20080430   20080414       F030
BIB                 11         19
TITLE      Energy dependence of transition strengths extracted
           from 12C(He3,a) and 16O(He3,a).
AUTHOR     (H.Fuchs,H.Oeschler)
INSTITUTE  (2GERMPH)
REFERENCE  (J,NP/A,202,396,1973)
FACILITY   (VDGT)
INC-SPECT  The energy resolution varied between 80 and 120 keV.
DETECTOR   (TELES) The emitted particles were detected in an
           arrangement of 10 semiconductor counter telescopes.
           Conventional electronics including dE*E particle
           identification were used.
SAMPLE     Targets of pure carbon, barium carbonate on carbon
           backing or self-supporting silicon oxide were used.
METHOD     (EDE)
ERR-ANALYS (DATA-ERR)  The uncertainty of the absolute cross-
           section scale was about 30%
           (ANG-ERR-D) Angle digitizing error
           (ERR-DIG)   Data digitizing error
HISTORY    (20080226C)
ENDBIB              19
COMMON               2          3
DATA-ERR   ERR-DIG
PER-CENT   PER-CENT
  30.       0.2
ENDCOMMON            3
ENDSUBENT           26
SUBENT        F0883002   20080226   20080430   20080414       F030
BIB                  4         10
REACTION   (6-C-12(HE3,A)6-C-11,PAR,DA)
EN-SEC     (E-LVL,6-C-11)
LEVEL-PROP (6-C-11,E-LVL=0.0,SPIN=1.5,PARITY=-1.)
           (6-C-11,E-LVL=1.995,SPIN=0.5,PARITY=-1.)
           (6-C-11,E-LVL=4.305,SPIN=2.5,PARITY=-1.)
           (6-C-11,E-LVL=4.798,SPIN=1.5,PARITY=-1.)
           (6-C-11,E-LVL=6.48,SPIN=3.5,PARITY=-1.)
           (6-C-11,E-LVL=6.91,SPIN=2.5,PARITY=+1.)
           (6-C-11,E-LVL=7.51,SPIN=1.5,PARITY=+1.)
STATUS     (CURVE)Fig.3
ENDBIB              10
COMMON               1          3
ANG-ERR-D
ADEG
 0.21
ENDCOMMON            3
DATA                 4        412
EN         E-LVL      ANG-CM     DATA-CM
MEV        MEV        ADEG       MB/SR
        24.         0.     14.803     19.023
        24.         0.     17.623     25.876
        24.         0.     21.307     14.379
        24.         0.      24.17      9.314
        24.         0.     27.828     7.9956
        24.         0.     30.655     9.5701
        24.         0.     33.493     9.5766
        24.         0.     37.159     7.2338
        24.         0.     40.025      4.452
        24.         0.     42.895     2.6033
        24.         0.     46.151     2.1231
        24.         0.     49.382     2.6073
        24.         0.     52.212     2.9651
        24.         0.     55.455     2.9674
        24.         0.     58.304     2.4826
        24.         0.     61.556     2.1309
        24.         0.     64.399     1.9748
        24.         0.     67.639     2.0801
        24.         0.     70.873     2.4271
        24.         0.     73.304     2.4914
        24.         0.     76.146     2.3089
        24.         0.     79.399     1.9819
        24.         0.     81.836     1.8365
        24.         0.     84.683     1.5763
        24.         0.     87.924     1.6183
        24.         0.     90.357     1.6193
        24.         0.     93.195     1.6204
        24.         0.     95.632     1.5015
        24.         0.     98.479     1.2887
        24.         0.     100.92     1.0243
        24.         0.     103.37    0.79353
        24.         0.     105.82    0.59924
        24.         0.     108.67    0.48866
        24.         0.     118.43    0.30124
        24.      1.995     14.315     3.9138
        24.      1.995     17.523     6.4405
        24.      1.995     20.803       3.82
        24.      1.995     24.094     1.9365
        24.      1.995     26.978     1.0076
        24.      1.995     30.626     1.0087
        24.      1.995     33.464     1.0095
        24.      1.995     37.113     1.0106
        24.      1.995     40.362    0.93516
        24.      1.995     43.199    0.93593
        24.      1.995     46.846    0.96176
        24.      1.995     49.684    0.96256
        24.      1.995     52.527    0.89063
        24.      1.995     55.774    0.84602
        24.      1.995     58.612    0.84672
        24.      1.995     61.444    0.91662
        24.      1.995     64.677     1.0734
        24.      1.995     67.911     1.2246
        24.      1.995     70.747     1.2581
        24.      1.995     73.599     1.0214
        24.      1.995     76.466    0.67255
        24.      1.995     79.343    0.38855
        24.      1.995     82.206     0.2696
        24.      1.995     85.431    0.35056
        24.      1.995      87.82    0.65735
        24.      1.995     90.628    0.99993
        24.      1.995     93.451     1.2338
        24.      1.995     95.882     1.2674
        24.      1.995     98.731     1.0841
        24.      1.995     101.19    0.79256
        24.      1.995     104.05    0.53572
        24.      1.995     106.52    0.32609
        24.      1.995     108.99    0.19336
        24.      4.305     14.129     2.6415
        24.      4.305     17.381     2.2595
        24.      4.305      21.03     2.2615
        24.      4.305     24.284     1.8844
        24.      4.305     26.739     1.2734
        24.      4.305      30.41    0.86081
        24.      4.305     33.668    0.66314
        24.      4.305     36.907    0.71786
        24.      4.305     38.526    0.75672
        24.      4.305      40.15    0.71841
        24.      4.305     42.179     0.7002
        24.      4.305     43.391     0.7576
        24.      4.305     46.637    0.71953
        24.      4.305     49.886    0.64854
        24.      4.305     53.135    0.58455
        24.      4.305     55.973    0.58494
        24.      4.305     59.215    0.60092
        24.      4.305     62.455     0.6337
        24.      4.305     65.289    0.68591
        24.      4.305     68.125    0.70458
        24.      4.305     71.367    0.72382
        24.      4.305     74.198    0.80423
        24.      4.305     77.846    0.82628
        24.      4.305     80.682    0.84876
        24.      4.305      83.52    0.84934
        24.      4.305     85.955    0.80651
        24.      4.305     88.799    0.72686
        24.      4.305     91.653    0.54544
        24.      4.305     94.099    0.43125
        24.      4.305     96.533    0.42036
        24.      4.305     99.373    0.40978
        24.      4.798     14.033     7.0095
        24.      4.798     17.302      4.314
        24.      4.798     20.166     2.6548
        24.      4.798     23.857     1.2021
        24.      4.798     27.551    0.51713
        24.      4.798     30.378    0.63496
        24.      4.798     33.598    0.98161
        24.      4.798     36.829     1.2366
        24.      4.798     40.476     1.2697
        24.      4.798     43.317     1.2071
        24.      4.798     46.971     1.0905
        24.      4.798     49.821    0.86674
        24.      4.798      52.67    0.70675
        24.      4.798     56.335    0.52032
        24.      4.798     59.191    0.37333
        24.      4.798     62.441    0.32873
        24.      4.798     65.277    0.33745
        24.      4.798     68.507    0.43614
        24.      4.798     71.332     0.5494
        24.      4.798     74.562    0.71006
        24.      4.798     76.992    0.74773
        24.      4.798     80.232    0.78753
        24.      4.798     83.074    0.72979
        24.      4.798     85.917     0.6592
        24.      4.798     88.759    0.61087
        24.      4.798     91.604    0.53784
        24.      4.798     94.041    0.49837
        24.       6.48     13.972     2.2361
        24.       6.48     17.238     1.4414
        24.       6.48     20.897     1.1728
        24.       6.48     24.139     1.2043
        24.       6.48     27.774      1.561
        24.       6.48      31.01     1.8244
        24.       6.48     34.257     1.6893
        24.       6.48     37.508     1.4473
        24.       6.48     40.361     1.0617
        24.       6.48     44.002     1.2409
        24.       6.48     47.238     1.4502
        24.       6.48     50.473     1.6948
        24.       6.48     53.709     1.9808
        24.       6.48     56.546     1.9819
        24.       6.48     59.788     2.0352
        24.       6.48     63.035     1.8844
        24.       6.48     66.285     1.6569
        24.       6.48     69.127      1.534
        24.       6.48     71.969     1.4203
        24.       6.48     75.212     1.4212
        24.       6.48     78.045     1.5771
        24.       6.48     81.285      1.662
        24.       6.48     84.122     1.7065
        24.       6.48     86.963       1.58
        24.       6.91     17.014     2.2185
        24.       6.91     20.257       2.22
        24.       6.91     23.505     2.0574
        24.       6.91     27.159     1.8588
        24.       6.91     30.409     1.6367
        24.       6.91     33.673     1.1159
        24.       6.91     36.926    0.93357
        24.       6.91     40.586    0.76138
        24.       6.91     43.434    0.63693
        24.       6.91     46.687    0.53287
        24.       6.91     49.938    0.45736
        24.       6.91     53.591    0.42391
        24.       6.91     56.032    0.36377
        24.       6.91     59.274    0.37346
        24.       6.91     62.521    0.34612
        24.       6.91     65.763    0.35534
        24.       6.91     69.016    0.29728
        24.       6.91     71.878    0.19255
        24.       6.91     74.725    0.16108
        24.       6.91     77.974    0.14551
        24.       6.91     80.401    0.16128
        24.       6.91     83.644    0.16139
        24.       6.91     86.882    0.17891
        24.       7.51     13.501     1.2957
        24.       7.51      17.17     0.9064
        24.       7.51     20.421    0.79816
        24.       7.51     23.264    0.73968
        24.       7.51     26.921    0.63496
        24.       7.51     30.166    0.61939
        24.       7.51     33.833    0.45604
        24.       7.51     37.091    0.35336
        24.       7.51     40.346    0.28818
        24.       7.51     43.606    0.21765
        24.       7.51     46.859     0.1821
        24.       7.51     50.098    0.19678
        24.       7.51     53.335    0.21815
        24.       7.51     56.586     0.1921
        24.       7.51     59.436    0.15665
        24.       7.51     62.696    0.11831
        24.       7.51     65.951 9.6486E-02
        24.       7.51     69.202 8.4964E-02
        24.       7.51      72.05 7.1080E-02
        24.       7.51     75.277 9.4253E-02
        24.       7.51      78.08    0.16988
        24.       7.51     80.907    0.20333
        24.       7.51     84.148    0.21417
        28.         0.     18.078     32.199
        28.         0.     21.425     12.964
        28.         0.     23.907     9.1047
        28.         0.     27.603     7.6358
        28.         0.     30.875     7.6436
        28.         0.     33.343      6.408
        28.         0.     37.035      5.653
        28.         0.     40.342     3.6808
        28.         0.     43.642     2.5856
        28.         0.     46.487     3.2497
        28.         0.     49.356     3.0148
        28.         0.     53.029     3.3397
        28.         0.     55.483     3.3423
        28.         0.      59.16     3.5198
        28.         0.     62.053     2.4105
        28.         0.     64.522     2.0208
        28.         0.     67.387     1.9721
        28.         0.     70.661     1.9248
        28.         0.     73.528     1.8314
        28.         0.     76.808     1.6569
        28.         0.     79.688     1.3545
        28.         0.      82.15     1.2251
        28.         0.     85.453    0.83907
        28.         0.     87.919    0.72145
        28.         0.     90.373      0.722
        28.         0.     93.637     0.7997
        28.         0.     96.083    0.88555
        28.         0.     98.533    0.93222
        28.         0.      101.8    0.93317
        28.         0.     104.26    0.93389
        28.         0.     106.72    0.84465
        28.         0.     109.18    0.80359
        28.         0.     112.06    0.62453
        28.         0.     114.52    0.59417
        28.         0.     116.58     0.5239
        28.         0.     119.01    0.64192
        28.         0.     121.47    0.59546
        28.         0.      123.5     0.7295
        28.         0.     125.94    0.87151
        28.         0.     128.79    0.98991
        28.         0.     130.43     1.0158
        28.         0.     132.88    0.99117
        28.         0.     135.36    0.77021
        28.         0.     139.46    0.67956
        28.      1.995     20.949     1.4457
        28.      1.995     24.225     1.3742
        28.      1.995     27.511     1.1478
        28.      1.995      30.79     1.0632
        28.      1.995     34.055     1.1502
        28.      1.995      37.34    0.98589
        28.      1.995     40.614    0.96172
        28.      1.995     43.473     1.0137
        28.      1.995     46.732     1.1852
        28.      1.995      50.01     1.0978
        28.      1.995     53.274     1.2188
        28.      1.995     56.131     1.3184
        28.      1.995     58.983     1.5019
        28.      1.995     62.268     1.2873
        28.      1.995     65.552     1.1034
        28.      1.995      68.43    0.92144
        28.      1.995     71.291    0.94646
        28.      1.995     74.181    0.67677
        28.      1.995     77.054     0.5952
        28.      1.995     80.339    0.51016
        28.      1.995     85.676    0.39454
        28.      1.995     88.548    0.35608
        28.      1.995     90.586    0.38507
        28.      1.995     93.854    0.40595
        28.      1.995      97.12    0.43918
        28.      1.995      99.57    0.46286
        28.      1.995     102.04    0.39663
        28.      1.995     104.49    0.39694
        28.      1.995       107.    0.20274
        28.      1.995      109.5    0.10627
        28.      1.995     116.92 5.5787E-02
        28.      1.995     121.45 3.8892E-02
        28.      1.995     123.79    0.15737
        28.      1.995     126.22    0.21483
        28.      4.305     17.573    0.97899
        28.      4.305     24.517     1.1146
        28.      4.305     27.391     0.9567
        28.      4.305     30.693    0.60416
        28.      4.305     33.581    0.41192
        28.      4.305     37.269    0.37221
        28.      4.305     40.529    0.44559
        28.      4.305     43.784    0.57598
        28.      4.305     46.637    0.67203
        28.      4.305     49.909     0.6726
        28.      4.305     53.604    0.54864
        28.      4.305      56.47    0.52166
        28.      4.305     59.728    0.64069
        28.      4.305     62.591    0.64116
        28.      4.305     65.448    0.71078
        28.      4.305     68.713    0.78803
        28.      4.305     71.581    0.73036
        28.      4.305     74.865    0.61112
        28.      4.305     77.331    0.51125
        28.      4.305     80.623    0.37642
        28.      4.305     83.471    0.47423
        28.      4.305     86.744    0.46265
        28.      4.305     89.197    0.47494
        28.      4.305     91.678     0.3156
        28.      4.305     94.522    0.41849
        28.      4.305     97.409    0.29272
        28.      4.305     99.875    0.24488
        28.      4.305     102.72    0.30852
        28.      4.305     105.18    0.29331
        28.      4.305     107.63    0.32513
        28.      4.305     110.06    0.46545
        28.      4.305     112.94    0.36066
        28.      4.305     114.57    0.39969
        28.      4.305     117.43    0.41035
        28.      4.798     17.383     6.4691
        28.      4.798     23.584      2.302
        28.      4.798     26.499     1.0067
        28.      4.798     29.807    0.57025
        28.      4.798      33.47    0.75868
        28.      4.798     36.314     1.0356
        28.      4.798     39.983     1.2424
        28.      4.798     42.849     1.1806
        28.      4.798     46.138    0.91223
        28.      4.798     49.434    0.61934
        28.      4.798     52.322    0.42045
        28.      4.798     55.193     0.3697
        28.      4.798     58.444    0.51793
        28.      4.798     61.709    0.57488
        28.      4.798     64.971    0.67197
        28.      4.798     67.833    0.69008
        28.      4.798     70.691    0.74631
        28.      4.798     73.986    0.51998
        28.      4.798     76.863    0.41227
        28.      4.798     79.736    0.35325
        28.      4.798     82.576     0.5078
        28.      4.798     85.843    0.54924
        28.      4.798     88.279     0.7305
        28.      4.798     91.154    0.60994
        28.      4.798     93.565     1.1959
        28.      4.798     96.855    0.90043
        28.      4.798     99.324    0.71384
        28.      4.798     102.21    0.47223
        28.      4.798     104.28    0.32891
        28.      4.798       110.    0.39478
        28.      4.798     112.04    0.42686
        28.      4.798     114.46    0.68045
        28.      4.798      116.9    0.83744
        28.       6.48     16.533     1.7288
        28.       6.48     22.255     1.8711
        28.       6.48     26.752     1.9223
        28.       6.48     30.431     1.9746
        28.       6.48     33.715     1.6488
        28.       6.48     36.583     1.5268
        28.       6.48     39.869     1.2107
        28.       6.48     43.149     1.0646
        28.       6.48     46.412     1.2445
        28.       6.48     49.276     1.2135
        28.       6.48      52.54     1.3823
        28.       6.48     55.802     1.6157
        28.       6.48     59.066     1.8404
        28.       6.48     61.935     1.6607
        28.       6.48     65.214     1.4987
        28.       6.48     68.087     1.2841
        28.       6.48      71.36     1.2523
        28.       6.48     74.222     1.2861
        28.       6.48      80.38     0.8967
        28.       6.48     83.238    0.96978
        28.       6.48     86.092     1.1045
        28.       6.48     88.954     1.1343
        28.       6.48     92.227     1.1062
        28.       6.48      94.68     1.1359
        28.       6.91      16.37     3.0547
        28.       6.91     23.347     2.1304
        28.       6.91     26.222     1.7788
        28.       6.91     29.916     1.4477
        28.       6.91     33.195     1.3065
        28.       6.91     36.074     1.0094
        28.       6.91     39.372    0.68534
        28.       6.91     42.666    0.49002
        28.       6.91     46.352    0.45386
        28.       6.91     49.236    0.32448
        28.       6.91     52.513     0.3005
        28.       6.91      55.39    0.24451
        28.       6.91     59.071    0.24474
        28.       6.91     61.957     0.1705
        28.       6.91     65.261    0.10438
        28.       6.91     68.123     0.1072
        28.       6.91     71.396    0.10455
        28.       6.91     74.264 9.6814E-02
        28.       6.91     76.718 9.6876E-02
        28.       6.91     80.005 7.6819E-02
        28.       6.91     83.261 9.9584E-02
        28.       6.91     85.711    0.10494
        28.       6.91     88.978    0.11351
        28.       6.91     91.415    0.14711
        28.       6.91      110.6     0.2823
        28.       7.51      16.17    0.88394
        28.       7.51     23.185     0.3711
        28.       7.51     26.486    0.24666
        28.       7.51     29.334    0.30293
        28.       7.51     33.011    0.31916
        28.       7.51     36.689    0.33626
        28.       7.51     39.559    0.30379
        28.       7.51      42.86    0.20193
        28.       7.51     46.154    0.14868
        28.       7.51     49.446    0.11231
        28.       7.51     52.333 8.0599E-02
        28.       7.51     55.628 5.7847E-02
        28.       7.51     58.933 3.6532E-02
        28.       7.51     61.805 3.2171E-02
        28.       7.51     65.079 3.1387E-02
        28.       7.51     68.303 6.1099E-02
        28.       7.51     71.128    0.10464
        28.       7.51     73.984    0.11601
        28.       7.51     77.256    0.11612
        28.       7.51     80.128    0.10226
        28.       7.51     83.029 5.9801E-02
        28.       7.51      85.89 6.1399E-02
        28.       7.51     89.272 1.3240E-02
ENDDATA            414
ENDSUBENT          433
SUBENT        F0883003   20080226   20080430   20080414       F030
BIB                  5          7
REACTION   (8-O-16(HE3,A)8-O-15,PAR,DA)
EN-SEC     (E-LVL,8-O-15)
LEVEL-PROP (8-O-15,E-LVL=0.0,SPIN=0.5,PARITY=-1.)
           (8-O-15,E-LVL=5.18,SPIN=0.5,PARITY=+1.)
           (8-O-15,E-LVL=6.16,SPIN=1.5,PARITY=-1.)
ERR-ANALYS (DATA-ERR1) Error from the graphic bars
STATUS     (CURVE)Fig.4
ENDBIB               7
COMMON               1          3
ANG-ERR-D
ADEG
 0.193
ENDCOMMON            3
DATA                 5        266
EN         E-LVL      ANG-CM     DATA-CM    DATA-ERR1
MEV        MEV        ADEG       MB/SR      MB/SR
        24.         0.     12.516     5.1403
        24.         0.     14.994     7.5444
        24.         0.     17.876     2.7814
        24.         0.     21.171    0.97426
        24.         0.     24.062      1.505
        24.         0.     27.366     2.2089
        24.         0.     29.842     2.1529
        24.         0.      33.14     1.3935
        24.         0.     36.022    0.47579
        24.         0.     38.911    0.45202
        24.         0.     41.803    0.81412
        24.         0.     44.694     1.2576
        24.         0.     47.583      1.393
        24.         0.     50.472     1.3235
        24.         0.     53.359     1.0784
        24.         0.     55.833    0.77325
        24.         0.     59.132    0.52677
        24.         0.     61.607    0.51344
        24.         0.     64.909     0.5134
        24.         0.     67.385    0.51337
        24.         0.     70.271    0.38741
        24.         0.     72.744    0.23224
        24.         0.     75.629    0.11639
        24.         0.     78.099 4.5161E-02
        24.         0.     80.986 3.4964E-02
        24.         0.     83.465 6.4605E-02
        24.         0.     86.356 8.5597E-02
        24.         0.     88.833    0.11055
        24.         0.     91.722    0.10775
        24.         0.     93.785     0.1134
        24.         0.     99.562    0.11052
        24.         0.     101.63    0.11051
        24.         0.      104.1    0.10499
        24.         0.     106.17     0.1356
        24.         0.     109.05    0.14271
        24.         0.     111.53    0.16638
        24.         0.     114.01    0.18429
        24.         0.     118.96    0.17066
        24.         0.     121.02    0.15405
        24.         0.      123.5    0.10767
        24.         0.     132.16     0.1255
        24.         0.     137.12    0.19386
        24.         0.     138.77    0.17058
        24.         0.     141.24    0.12548
        24.         0.     145.36 5.6765E-02
        24.         0.     147.43 6.4508E-02
        24.         0.      149.9 9.2288E-02
        24.         0.     154.45    0.19881
        24.         0.     156.51    0.20923
        24.         0.     158.16    0.23177
        24.       5.18     15.275     3.9811
        24.       5.18     18.578     4.6416
        24.       5.18     21.468     3.7825
        24.       5.18     22.706     3.1623
        24.       5.18     24.771     2.9286
        24.       5.18     27.248     1.5449
        24.       5.18      30.55     1.1659
        24.       5.18      33.44    0.92612
        24.       5.18      36.33    0.69895
        24.       5.18     39.633    0.73564
        24.       5.18     42.523    0.79433
        24.       5.18        45.    0.79433
        24.       5.18     46.239    0.81491
        24.       5.18     48.303     0.8577
        24.       5.18     51.606    0.90273
        24.       5.18     54.495     0.8577
        24.       5.18     56.972    0.79433
        24.       5.18     60.275    0.71706
        24.       5.18     62.752    0.68129
        24.       5.18     66.055    0.54117
        24.       5.18     68.532    0.47619
        24.       5.18     71.835    0.38805
        24.       5.18     74.312     0.3503
        24.       5.18     76.789    0.38805
        24.       5.18     82.569    0.36869
        24.       5.18     85.459    0.34145
        24.       5.18     87.936    0.29286
        24.       5.18      92.89    0.33283 4.5419E-02
        24.       5.18     95.367    0.34145 3.6794E-02
        24.       5.18     98.257    0.37825
        24.       5.18     100.73    0.36869
        24.       5.18      102.8    0.35938
        24.       5.18     105.69    0.34145
        24.       5.18     108.17     0.3503
        24.       6.16     15.275     18.696
        24.       6.16     18.578      11.62
        24.       6.16     21.881     5.9121
        24.       6.16     25.183     4.1645
        24.       6.16     28.073     5.9121
        24.       6.16     30.963     7.7858
        24.       6.16     34.266     7.5934
        24.       6.16     36.743     5.3489
        24.       6.16     40.046     2.6541
        24.       6.16     42.936     1.3503
        24.       6.16     45.413    0.92767
        24.       6.16     48.716     1.0253
        24.       6.16     51.605     1.0253
        24.       6.16     54.495         1.
        24.       6.16     57.798    0.79831
        24.       6.16     60.688    0.62155
        24.       6.16     63.165    0.74057
        24.       6.16     66.468    0.92767
        24.       6.16     68.945     1.1915
        24.       6.16     71.422     1.3845
        24.       6.16     74.725     1.5303
        24.       6.16     77.202     1.4196
        24.       6.16     80.092     1.2217
        24.       6.16     82.569    0.90474
        24.       6.16     85.046    0.92767
        24.       6.16     87.936     1.1333
        24.       6.16     93.303     1.5691
        24.       6.16     96.193     1.7783
        24.       6.16      98.67     1.6496
        24.       6.16     101.56     1.4925
        24.       6.16     103.62     1.3845
        24.       6.16      106.1    0.75934
        24.       6.16     108.58    0.92767
        28.         0.     11.918     12.271
        28.         0.     15.205     4.8853
        28.         0.     17.671     1.3946
        28.         0.      21.37     1.2271
        28.         0.     23.836     2.3866
        28.         0.     26.712     2.5119
        28.         0.        30.      2.047
        28.         0.     32.877     1.4678
        28.         0.      38.63     1.1961
        28.         0.     41.918     1.4307
        28.         0.     44.384     1.3594
        28.         0.     47.671     1.3594
        28.         0.     50.548         1.
        28.         0.     53.014    0.71706
        28.         0.     56.301    0.46416
        28.         0.     64.521    0.11659
        28.         0.     66.986 7.7426E-02
        28.         0.     70.274 4.5243E-02
        28.         0.      72.74 3.6869E-02
        28.         0.     75.616 2.3866E-02 2.5717E-03
        28.         0.     78.493 1.6681E-02 2.2764E-03
        28.         0.     80.959 4.7619E-02 5.7179E-03
        28.         0.     83.425 5.6958E-02
        28.         0.     86.301 8.1491E-02
        28.         0.     88.767 8.5770E-02
        28.         0.     91.644 9.7474E-02
        28.         0.      94.11    0.10259
        28.         0.     96.575 9.7474E-02
        28.         0.     99.452 9.2612E-02
        28.         0.     101.92 8.7992E-02
        28.         0.     103.97 8.1491E-02
        28.         0.     107.26 8.3603E-02
        28.         0.      108.9 7.3564E-02
        28.         0.     111.78 8.5770E-02
        28.         0.     113.84 7.3564E-02
        28.         0.      116.3 7.7426E-02 8.3432E-03
        28.         0.     118.36 7.5471E-02
        28.         0.     121.23 6.4731E-02
        28.         0.      123.7 5.8434E-02
        28.         0.     125.75 3.7825E-02
        28.         0.     128.22 3.5938E-02
        28.         0.     130.27 3.0824E-02
        28.         0.     132.33 3.8805E-02
        28.         0.     134.79 3.8805E-02
        28.         0.     136.85 3.1623E-02
        28.         0.     141.37 2.1544E-02
        28.         0.     143.42 1.2915E-02 1.7625E-03
        28.         0.     145.48 1.5849E-02 2.1628E-03
        28.         0.     147.53 2.5770E-02
        28.         0.     149.59 5.0119E-02 4.8753E-03
        28.         0.     150.82 5.2750E-02
        28.         0.     152.05 5.5519E-02
        28.         0.     154.11 3.7825E-02
        28.         0.     156.16 4.0842E-02
        28.         0.     158.22 2.9286E-02
        28.       5.18     12.301     2.9486
        28.       5.18     15.171     2.2862
        28.       5.18     18.041     1.4834
        28.       5.18     21.731     1.4098
        28.       5.18     27.472     1.3062
        28.       5.18     30.342     1.0128
        28.       5.18     33.622    0.84757
        28.       5.18     36.492    0.67411
        28.       5.18     39.362    0.67411
        28.       5.18     42.642    0.72758
        28.       5.18     45.923     0.7093
        28.       5.18     48.383    0.60888
        28.       5.18     51.253     0.4157
        28.       5.18     54.533    0.26974
        28.       5.18     56.583    0.20389
        28.       5.18     60.273    0.20389
        28.       5.18     62.733    0.20389
        28.       5.18     65.604    0.24364
        28.       5.18     79.544    0.18416
        28.       5.18     84.875    0.21453
        28.       5.18     87.745    0.24364
        28.       5.18     90.205    0.24364
        28.       5.18     92.665    0.24364
        28.       5.18     95.125    0.23155
        28.       5.18     97.995    0.20914
        28.       5.18     100.87    0.18416
        28.       5.18     102.92    0.19877
        28.       5.18     105.79    0.22006
        28.       5.18     107.84    0.20389
        28.       5.18     110.71    0.18416
        28.       5.18     112.76    0.17953
        28.       5.18     115.22    0.14279
        28.       5.18     117.68    0.13571
        28.       5.18     120.14    0.11071
        28.       5.18     122.19    0.14647
        28.       5.18     124.65    0.16216
        28.       5.18      126.7    0.19877
        28.       5.18     128.34    0.20914
        28.       5.18     129.57    0.21453
        28.       5.18     131.62    0.17502
        28.       5.18     133.26    0.15809
        28.       5.18     135.72    0.13571
        28.       5.18     137.77    0.11649
        28.       5.18     139.82 8.1583E-02
        28.       5.18     144.33 1.0000E-01
        28.       5.18     146.38    0.12897
        28.       6.16     12.301     25.885
        28.       6.16     15.581     14.556
        28.       6.16     18.451     6.5346
        28.       6.16     21.731     4.7197
        28.       6.16     25.011     5.9121
        28.       6.16     27.882     7.2226
        28.       6.16     31.162     6.0619
        28.       6.16     33.622     3.5838
        28.       6.16     36.902     1.7783
        28.       6.16     39.772     1.2217
        28.       6.16     42.642     1.2217
        28.       6.16     48.793     1.5303
        28.       6.16     51.253     1.3845
        28.       6.16     54.533     1.5691
        28.       6.16     57.403     1.7343
        28.       6.16     60.273     1.6089
        28.       6.16     63.144     1.5303
        28.       6.16     65.604     1.4556
        28.       6.16     68.884     1.4556
        28.       6.16     71.754      1.162
        28.       6.16     74.624     1.3503
        28.       6.16     77.494     1.5691
        28.       6.16     79.954     1.3169
        28.       6.16     82.825      1.162
        28.       6.16     85.285    0.95118
        28.       6.16     87.745    0.79831
        28.       6.16     98.815    0.65346
        28.       6.16     100.87    0.52166
        28.       6.16     103.33     0.4603
        28.       6.16      106.2    0.30079
        28.       6.16     108.66    0.24621
        28.       6.16     110.71    0.22275
        28.       6.16     113.17    0.22275
        28.       6.16     115.63    0.27213
        28.       6.16     117.68     0.2284
        28.       6.16     120.14    0.26541
        28.       6.16      122.6    0.23419
        28.       6.16     123.83    0.24012
        28.       6.16     125.06    0.25885
        28.       6.16     127.52    0.29335
        28.       6.16     129.16    0.34953
        28.       6.16     131.62    0.41645
        28.       6.16     133.67    0.47197
        28.       6.16     135.72    0.47197
        28.       6.16     137.77    0.48393
        28.       6.16     139.41    0.50877
        28.       6.16     141.05    0.53489
        28.       6.16     142.69    0.53489
ENDDATA            268
ENDSUBENT          284
ENDENTRY             3
