ENTRY            A0825   20100624   20100915   20100802       A069
SUBENT        A0825001   20100624   20100915   20100802       A069
BIB                 11         29
TITLE      Study of alpha+C-12 scattering and the structure of
           exotic 7.65 MeV 'Hoyle' state.
AUTHOR     (A.S.Demyanova, Yu.A.Glukhov, T.L.Belyaeva,
           S.V.Dmitriev, S.A.Goncharov, S.V.Khlebnikov,V.A.Maslov,
           Yu.D.Molchanov, Yu.E.Penionzkevich, R.V.Revenko,
           M.V.Safonenko, Yu.G.Sobolev, W.Trzaska, G.P.Tuorin,
           V.I.Zherebchevski, A.A.Ogloblin)
INSTITUTE  (4RUSKUR)
           (3MEXUMX)
           (4RUSMOS)
           (4RUSRI)
           (4ZZZDUB)
           (2SF JYV)
           (4RUSSUL)
REFERENCE  (C,2007TOKYO,,489,2007)
           (J,IMP/E,17,2118,2008)
           (J,YF,72,1668,2009)
           (J,PAN,72,1611,2009) English translation
FACILITY   (CYCLO,2SF JYV)
DETECTOR   (TELES) Delta-E-E telescopes, consisting of
           semiconductor pin-detectors.
SAMPLE     Self-supporting carbon foils, thicknesses 0.5-
            1.0 mg/cm**2 were used.
METHOD     (EDE)
STATUS     (TABLE) Table data was received from Dr.A.S.Demyanova
           (APRVD).By A.S.Demyanova
ERR-ANALYS (ERR-S).Statistical error is reported by authors.
HISTORY    (20090330C) S.B
           (20100624A).New Reference was added.
ENDBIB              29
COMMON               1          3
EN
MEV
110.
ENDCOMMON            3
ENDSUBENT           36
SUBENT        A0825002   20090330   20090508   20090417       A065
BIB                  3          6
REACTION   (6-C-12(A,INL)6-C-12,PAR,DA)
EN-SEC     (E-LVL,6-C-12)
LEVEL-PROP (6-C-12,E-LVL=0.000,SPIN=0.,PARITY=+1.)
           (6-C-12,E-LVL=4.440,SPIN=2.,PARITY=+1.)
           (6-C-12,E-LVL=7.650,SPIN=0.,PARITY=+1.)
           (6-C-12,E-LVL=9.640,SPIN=3.,PARITY=-1.)
ENDBIB               6
NOCOMMON             0          0
DATA                 4        440
E-LVL      ANG-CM     DATA-CM    ERR-S
MEV        ADEG       MB/SR      MB/SR
    0.00000   10.70000  591.00000    5.00000
    0.00000   11.50000  273.00000    1.89000
    0.00000   12.00000   96.90000    2.03000
    0.00000   12.80000   51.60000    0.82500
    0.00000   13.60000   78.00000    0.65800
    0.00000   14.90000  167.00000    0.96200
    0.00000   15.70000  253.00000    0.55400
    0.00000   17.00000  241.00000    0.54100
    0.00000   17.80000  303.00000    0.80700
    0.00000   19.20000  226.00000    0.69800
    0.00000   20.00000  205.00000    1.24000
    0.00000   21.30000  107.00000    0.89500
    0.00000   22.10000   62.20000    0.59100
    0.00000   23.40000   36.80000    0.45600
    0.00000   24.20000   36.00000    0.42300
    0.00000   25.50000   42.20000    0.45900
    0.00000   26.30000   47.60000    0.32900
    0.00000   27.60000   48.40000    0.33300
    0.00000   28.40000   54.50000    0.36900
    0.00000   29.70000   48.40000    0.34800
    0.00000   30.50000   45.30000    0.37800
    0.00000   31.80000   37.30000    0.34300
    0.00000   32.60000   33.00000    0.27100
    0.00000   33.90000   27.00000    0.24600
    0.00000   34.70000   24.40000    0.20800
    0.00000   36.00000   22.40000    0.20000
    0.00000   36.80000   21.20000    0.18500
    0.00000   38.10000   21.00000    0.18500
    0.00000   39.10000   21.30000    0.22600
    0.00000   40.40000   20.20000    0.22000
    0.00000   41.40000   17.40000    0.15100
    0.00000   42.70000   15.50000    0.14200
    0.00000   43.70000   13.90000    0.17200
    0.00000   45.00000   11.50000    0.15700
    0.00000   46.10000   11.10000    0.13400
    0.00000   47.40000    8.87000    0.12000
    0.00000   48.30000    7.03000    0.09140
    0.00000   49.60000    5.69000    0.08230
    0.00000   50.60000    4.99000    0.07280
    0.00000   51.90000    4.07000    0.06570
    0.00000   52.90000    3.54000    0.05210
    0.00000   54.10000    2.91000    0.04720
    0.00000   55.70000    2.33000    0.04050
    0.00000   56.90000    1.87000    0.03630
    0.00000   57.90000    1.61000    0.02160
    0.00000   59.10000    1.40000    0.01970
    0.00000   59.10000    1.32000    0.01950
    0.00000   61.40000    0.93900    0.01270
    0.00000   62.10000    0.89300    0.01590
    0.00000   64.30000    0.52600    0.00960
    0.00000   67.10000    0.27200    0.00508
    0.00000   69.30000    0.17800    0.00494
    0.00000   70.00000    0.15000    0.00380
    0.00000   71.50000    0.11700    0.00357
    0.00000   72.20000    0.11100    0.00390
    0.00000   74.30000    0.08100    0.00297
    0.00000   77.00000    0.05360    0.00244
    0.00000   79.10000    0.03800    0.00220
    0.00000   79.80000    0.03940    0.00209
    0.00000   81.20000    0.02820    0.00138
    0.00000   81.90000    0.02940    0.00194
    0.00000   84.00000    0.01960    0.00115
    0.00000   86.60000    0.01140    0.00063
    0.00000   88.50000    0.00831    0.00046
    0.00000   89.30000    0.00771    0.00052
    0.00000   91.10000    0.00606    0.00039
    0.00000   93.80000    0.00567    0.00046
    0.00000   95.70000    0.00623    0.00043
    0.00000   96.40000    0.00601    0.00048
    0.00000   98.30000    0.00723    0.00038
    0.00000   98.30000    0.00585    0.00043
    0.00000  100.70000    0.00423    0.00029
    0.00000  103.60000    0.00186    0.00017
    0.00000  105.90000    0.00058    0.00010
    0.00000  108.70000    0.00085    0.00010
    0.00000  111.00000    0.00181    0.00014
    0.00000  113.60000    0.00238    0.00012
    0.00000  115.80000    0.00186    0.00011
    0.00000  118.40000    0.00117    0.00008
    0.00000  120.60000    0.00034    0.00004
    0.00000  123.10000    0.00002    0.00004
    0.00000  125.10000    0.00014    0.00004
    0.00000  127.60000    0.00021    0.00007
    0.00000  129.60000    0.00032    0.00008
    0.00000  131.90000    0.00048    0.00004
    0.00000  133.90000    0.00030    0.00004
    0.00000  135.20000    0.00019    0.00002
    0.00000  137.00000    0.00007    0.00005
    0.00000  139.30000    0.00004    0.00001
    0.00000  140.90000    0.00026    0.00002
    0.00000  143.20000    0.00062    0.00007
    0.00000  144.80000    0.00062    0.00004
    0.00000  148.70000    0.00053    0.00003
    0.00000  152.40000    0.00077    0.00004
    0.00000  154.60000    0.00083    0.00004
    0.00000  156.10000    0.00078    0.00003
    0.00000  158.20000    0.00060    0.00004
    0.00000  159.60000    0.00053    0.00003
    0.00000  161.00000    0.00038    0.00005
    0.00000  163.10000    0.00032    0.00003
    0.00000  164.00000    0.00063    0.00008
    0.00000  164.50000    0.00044    0.00006
    0.00000  166.60000    0.00061    0.00004
    0.00000  168.60000    0.00091    0.00007
    0.00000  170.00000    0.00084    0.00006
    0.00000  172.00000    0.00164    0.00011
    0.00000  173.30000    0.00190    0.00011
    0.00000  174.70000    0.00277    0.00035
    0.00000  176.00000    0.00282    0.00036
    0.00000  177.40000    0.00316    0.00038
    4.44000   10.70000   83.90000    1.98000
    4.44000   11.50000   69.70000    0.95700
    4.44000   12.00000   78.90000    1.93000
    4.44000   12.80000   58.60000    0.87800
    4.44000   13.60000   49.20000    0.52200
    4.44000   14.90000   26.30000    0.38200
    4.44000   15.70000   23.70000    0.16900
    4.44000   17.00000   13.30000    0.12700
    4.44000   17.80000   16.80000    0.19000
    4.44000   19.20000   20.90000    0.21200
    4.44000   20.00000   27.50000    0.45300
    4.44000   21.30000   33.60000    0.50200
    4.44000   22.10000   27.40000    0.39300
    4.44000   23.40000   27.10000    0.39100
    4.44000   24.20000   25.90000    0.35900
    4.44000   25.50000   21.70000    0.32900
    4.44000   26.30000   17.90000    0.20200
    4.44000   27.60000   13.80000    0.17800
    4.44000   28.40000   12.60000    0.17700
    4.44000   29.70000   11.30000    0.16900
    4.44000   30.50000   11.00000    0.18600
    4.44000   31.80000   11.20000    0.18800
    4.44000   32.60000   11.50000    0.16000
    4.44000   33.90000   12.00000    0.16400
    4.44000   34.70000   11.80000    0.14500
    4.44000   36.00000   11.30000    0.14200
    4.44000   36.80000   10.70000    0.13100
    4.44000   38.10000    9.60000    0.12500
    4.44000   39.10000    9.58000    0.15200
    4.44000   40.40000    8.93000    0.14600
    4.44000   41.40000    7.75000    0.10100
    4.44000   42.70000    7.56000    0.09950
    4.44000   43.70000    7.45000    0.12600
    4.44000   45.00000    7.21000    0.12400
    4.44000   46.10000    7.80000    0.11200
    4.44000   47.40000    7.24000    0.10800
    4.44000   48.30000    6.27000    0.08640
    4.44000   49.60000    5.82000    0.08320
    4.44000   50.60000    5.50000    0.07640
    4.44000   51.90000    4.89000    0.07210
    4.44000   52.90000    4.31000    0.05750
    4.44000   54.10000    3.71000    0.05330
    4.44000   55.70000    3.19000    0.04740
    4.44000   56.90000    2.74000    0.04390
    4.44000   57.90000    2.49000    0.02690
    4.44000   59.10000    2.35000    0.02560
    4.44000   59.10000    2.16000    0.02500
    4.44000   61.40000    1.76000    0.01740
    4.44000   62.10000    1.67000    0.02170
    4.44000   64.30000    1.24000    0.01470
    4.44000   67.10000    0.79900    0.00871
    4.44000   69.30000    0.62100    0.00923
    4.44000   70.00000    0.53500    0.00719
    4.44000   71.50000    0.43200    0.00685
    4.44000   72.20000    0.39900    0.00740
    4.44000   74.30000    0.28200    0.00554
    4.44000   77.00000    0.18200    0.00449
    4.44000   79.10000    0.14000    0.00422
    4.44000   79.80000    0.14200    0.00396
    4.44000   81.20000    0.11200    0.00274
    4.44000   81.90000    0.10600    0.00367
    4.44000   84.00000    0.09340    0.00251
    4.44000   86.60000    0.07840    0.00165
    4.44000   88.50000    0.05990    0.00124
    4.44000   89.30000    0.05560    0.00139
    4.44000   91.10000    0.04060    0.00102
    4.44000   93.80000    0.02700    0.00101
    4.44000   95.70000    0.02180    0.00081
    4.44000   96.40000    0.01820    0.00083
    4.44000   98.30000    0.01970    0.00062
    4.44000   98.30000    0.01610    0.00070
    4.44000  100.70000    0.01680    0.00058
    4.44000  103.60000    0.01370    0.00047
    4.44000  105.90000    0.00996    0.00040
    4.44000  108.70000    0.00617    0.00026
    4.44000  111.00000    0.00333    0.00019
    4.44000  113.60000    0.00159    0.00010
    4.44000  115.80000    0.00124    0.00009
    4.44000  118.40000    0.00161    0.00009
    4.44000  120.60000    0.00166    0.00009
    4.44000  123.10000    0.00241    0.00019
    4.44000  125.10000    0.00185    0.00017
    4.44000  127.60000    0.00088    0.00014
    4.44000  129.60000    0.00049    0.00010
    4.44000  131.90000    0.00064    0.00005
    4.44000  133.90000    0.00031    0.00004
    4.44000  135.20000    0.00024    0.00003
    4.44000  137.00000    0.00040    0.00007
    4.44000  139.30000    0.00053    0.00004
    4.44000  140.90000    0.00110    0.00004
    4.44000  143.20000    0.00175    0.00011
    4.44000  144.80000    0.00177    0.00006
    4.44000  148.70000    0.00100    0.00004
    4.44000  152.40000    0.00049    0.00003
    4.44000  154.60000    0.00047    0.00003
    4.44000  156.10000    0.00040    0.00002
    4.44000  158.20000    0.00062    0.00004
    4.44000  159.60000    0.00073    0.00003
    4.44000  161.00000    0.00078    0.00007
    4.44000  163.10000    0.00102    0.00005
    4.44000  164.00000    0.00119    0.00012
    4.44000  164.50000    0.00126    0.00010
    4.44000  166.60000    0.00161    0.00007
    4.44000  168.60000    0.00177    0.00010
    4.44000  170.00000    0.00180    0.00009
    4.44000  172.00000    0.00261    0.00014
    4.44000  173.30000    0.00267    0.00013
    4.44000  174.70000    0.00369    0.00040
    4.44000  176.00000    0.00433    0.00048
    4.44000  177.40000    0.00431    0.00043
    7.65000   10.70000   12.30000    0.75900
    7.65000   11.50000    8.63000    0.33700
    7.65000   12.00000    7.37000    0.58800
    7.65000   12.80000    5.87000    0.27800
    7.65000   13.60000    4.27000    0.15400
    7.65000   14.90000    2.37000    0.11500
    7.65000   15.70000    2.20000    0.54300
    7.65000   17.00000    1.65000    0.44800
    7.65000   17.80000    2.03000    0.56900
    7.65000   19.20000    3.06000    0.34200
    7.65000   20.00000    3.45000    0.63300
    7.65000   21.30000    3.77000    0.35000
    7.65000   22.10000    2.88000    0.23400
    7.65000   23.40000    2.21000    0.19800
    7.65000   24.20000    1.76000    0.19800
    7.65000   25.50000    1.13000    0.11300
    7.65000   26.30000    0.90200    0.09170
    7.65000   27.60000    0.79100    0.10500
    7.65000   28.40000    0.75200    0.11100
    7.65000   29.70000    0.85700    0.10100
    7.65000   30.50000    0.97300    0.15200
    7.65000   31.80000    1.11000    0.13400
    7.65000   32.60000    0.95700    0.11300
    7.65000   33.90000    0.83100    0.08750
    7.65000   34.70000    0.86500    0.12300
    7.65000   36.00000    0.68700    0.08740
    7.65000   36.80000    0.67700    0.08300
    7.65000   38.10000    0.56400    0.06300
    7.65000   39.10000    0.60900    0.09670
    7.65000   40.40000    0.61900    0.05110
    7.65000   41.40000    0.58000    0.07230
    7.65000   42.70000    0.60300    0.06890
    7.65000   43.70000    0.57200    0.08440
    7.65000   45.00000    0.60600    0.06790
    7.65000   46.10000    0.53600    0.07270
    7.65000   47.40000    0.52200    0.07110
    7.65000   48.30000    0.43800    0.05280
    7.65000   49.60000    0.39400    0.06890
    7.65000   50.60000    0.34700    0.03990
    7.65000   51.90000    0.29100    0.06600
    7.65000   52.90000    0.28900    0.03410
    7.65000   54.10000    0.22400    0.03550
    7.65000   55.70000    0.21500    0.03270
    7.65000   56.90000    0.18400    0.02400
    7.65000   57.90000    0.16800    0.02360
    7.65000   59.10000    0.14200    0.00628
    7.65000   59.10000    0.14000    0.01370
    7.65000   61.40000    0.11500    0.00445
    7.65000   62.10000    0.10500    0.00547
    7.65000   64.30000    0.07100    0.00353
    7.65000   67.10000    0.04030    0.00196
    7.65000   69.30000    0.02770    0.00195
    7.65000   70.00000    0.02130    0.00143
    7.65000   71.50000    0.01900    0.00144
    7.65000   72.20000    0.01630    0.00150
    7.65000   74.30000    0.01190    0.00114
    7.65000   77.00000    0.00455    0.00071
    7.65000   79.10000    0.00612    0.00088
    7.65000   79.80000    0.00554    0.00078
    7.65000   81.20000    0.00598    0.00063
    7.65000   81.90000    0.00382    0.00070
    7.65000   84.00000    0.00309    0.00046
    7.65000   86.60000    0.00218    0.00028
    7.65000   88.50000    0.00174    0.00021
    7.65000   89.30000    0.00145    0.00022
    7.65000   91.10000    0.00107    0.00017
    7.65000   93.80000    0.00113    0.00021
    7.65000   95.70000    0.00078    0.00015
    7.65000   96.40000    0.00132    0.00022
    7.65000   98.30000    0.00118    0.00015
    7.65000   98.30000    0.00129    0.00020
    7.65000  100.70000    0.00113    0.00015
    7.65000  103.60000    0.00035    0.00008
    7.65000  105.90000    0.00018    0.00005
    7.65000  108.70000    0.00020    0.00005
    7.65000  111.00000    0.00012    0.00004
    7.65000  113.60000    0.00013    0.00003
    7.65000  115.80000    0.00006    0.00002
    7.65000  118.40000    0.00002    0.00001
    7.65000  120.60000    0.00007    0.00002
    7.65000  123.10000    0.00014    0.00005
    7.65000  125.10000    0.00020    0.00006
    7.65000  127.60000    0.00011    0.00005
    7.65000  129.60000    0.00006    0.00004
    7.65000  131.90000    0.00010    0.00003
    7.65000  133.90000    0.00008    0.00002
    7.65000  135.20000    0.00007    0.00002
    7.65000  137.00000    0.00021    0.00007
    7.65000  139.30000    0.00008    0.00002
    7.65000  140.90000    0.00007    0.00002
    7.65000  143.20000    0.00019    0.00006
    7.65000  144.80000    0.00013    0.00003
    7.65000  148.70000    0.00012    0.00002
    7.65000  152.40000    0.00012    0.00002
    7.65000  154.60000    0.00014    0.00003
    7.65000  156.10000    0.00010    0.00001
    7.65000  158.20000    0.00007    0.00002
    7.65000  159.60000    0.00005    0.00001
    7.65000  161.00000    0.00004    0.00002
    7.65000  163.10000    0.00007    0.00002
    7.65000  164.00000    0.00039    0.00009
    7.65000  164.50000    0.00022    0.00006
    7.65000  166.60000    0.00046    0.00005
    7.65000  168.60000    0.00056    0.00008
    7.65000  170.00000    0.00083    0.00008
    7.65000  172.00000    0.00114    0.00013
    7.65000  173.30000    0.00134    0.00012
    7.65000  174.70000    0.00305    0.00041
    7.65000  176.00000    0.00230    0.00055
    7.65000  177.40000    0.00250    0.00043
    9.64000   10.70000   17.80000    2.00000
    9.64000   11.50000   15.60000    1.62000
    9.64000   12.00000   21.00000    2.33000
    9.64000   12.80000   15.30000    1.59000
    9.64000   13.60000   14.90000    1.52000
    9.64000   14.90000    9.95000    1.02000
    9.64000   15.70000   10.60000    1.07000
    9.64000   17.00000    6.28000    0.63400
    9.64000   17.80000    5.58000    0.56900
    9.64000   19.20000    3.91000    0.40200
    9.64000   20.00000    4.97000    0.53300
    9.64000   21.30000    5.43000    0.57900
    9.64000   22.10000    4.83000    0.51000
    9.64000   23.40000    6.27000    0.65400
    9.64000   24.20000    6.39000    0.66300
    9.64000   25.50000    6.32000    0.65700
    9.64000   26.30000    6.56000    0.66700
    9.64000   27.60000    5.57000    0.56800
    9.64000   28.40000    5.40000    0.55300
    9.64000   29.70000    4.08000    0.42000
    9.64000   30.50000    4.02000    0.41700
    9.64000   31.80000    3.29000    0.34500
    9.64000   32.60000    2.91000    0.30200
    9.64000   33.90000    2.66000    0.27700
    9.64000   34.70000    2.51000    0.26000
    9.64000   36.00000    2.27000    0.23600
    9.64000   36.80000    2.16000    0.22400
    9.64000   38.10000    2.15000    0.22300
    9.64000   39.10000    1.85000    0.19700
    9.64000   40.40000    1.63000    0.17400
    9.64000   41.40000    1.63000    0.17000
    9.64000   42.70000    1.33000    0.14000
    9.64000   43.70000    1.03000    0.11300
    9.64000   45.00000    1.03000    0.11400
    9.64000   46.10000    1.16000    0.12400
    9.64000   47.40000    1.04000    0.11200
    9.64000   48.30000    0.82100    0.08790
    9.64000   49.60000    0.72100    0.07780
    9.64000   50.60000    0.65600    0.07070
    9.64000   51.90000    0.58300    0.06340
    9.64000   52.90000    0.54900    0.05860
    9.64000   54.10000    0.47300    0.05100
    9.64000   55.70000    0.43800    0.04720
    9.64000   56.90000    0.39000    0.04240
    9.64000   57.90000    0.31800    0.03330
    9.64000   59.10000    0.35300    0.00992
    9.64000   59.10000    0.28500    0.02990
    9.64000   61.40000    0.24500    0.00649
    9.64000   62.10000    0.26100    0.00859
    9.64000   64.30000    0.19500    0.00585
    9.64000   67.10000    0.11300    0.00327
    9.64000   69.30000    0.08740    0.00346
    9.64000   70.00000    0.08060    0.00279
    9.64000   71.50000    0.05090    0.00235
    9.64000   72.20000    0.05530    0.00275
    9.64000   74.30000    0.04110    0.00211
    9.64000   77.00000    0.02670    0.00172
    9.64000   79.10000    0.02190    0.00167
    9.64000   79.80000    0.01950    0.00147
    9.64000   81.20000    0.01800    0.00110
    9.64000   81.90000    0.01530    0.00140
    9.64000   84.00000    0.01000    0.00082
    9.64000   86.60000    0.00834    0.00054
    9.64000   88.50000    0.00542    0.00037
    9.64000   89.30000    0.00515    0.00042
    9.64000   91.10000    0.00457    0.00034
    9.64000   93.80000    0.00380    0.00038
    9.64000   95.70000    0.00331    0.00032
    9.64000   96.40000    0.00301    0.00034
    9.64000   98.30000    0.00344    0.00026
    9.64000   98.30000    0.00243    0.00027
    9.64000  100.70000    0.00252    0.00022
    9.64000  103.60000    0.00242    0.00020
    9.64000  105.90000    0.00196    0.00018
    9.64000  108.70000    0.00113    0.00011
    9.64000  111.00000    0.00107    0.00011
    9.64000  113.60000    0.00097    0.00008
    9.64000  115.80000    0.00064    0.00006
    9.64000  118.40000    0.00071    0.00006
    9.64000  120.60000    0.00055    0.00005
    9.64000  123.10000    0.00096    0.00012
    9.64000  125.10000    0.00112    0.00013
    9.64000  127.60000    0.00094    0.00014
    9.64000  129.60000    0.00109    0.00015
    9.64000  131.90000    0.00029    0.00003
    9.64000  133.90000    0.00020    0.00003
    9.64000  135.20000    0.00082    0.00007
    9.64000  137.00000    0.00137    0.00013
    9.64000  139.30000    0.00132    0.00007
    9.64000  140.90000    0.00186    0.00009
    9.64000  143.20000    0.00155    0.00013
    9.64000  144.80000    0.00242    0.00011
    9.64000  148.70000    0.00173    0.00007
    9.64000  152.40000    0.00158    0.00006
    9.64000  154.60000    0.00130    0.00007
    9.64000  156.10000    0.00097    0.00004
    9.64000  158.20000    0.00070    0.00007
    9.64000  159.60000    0.00107    0.00005
    9.64000  161.00000    0.00103    0.00010
    9.64000  163.10000    0.00139    0.00008
    9.64000  164.00000    0.00158    0.00015
    9.64000  164.50000    0.00175    0.00018
    9.64000  166.60000    0.00316    0.00014
    9.64000  168.60000    0.00422    0.00019
    9.64000  170.00000    0.00531    0.00021
    9.64000  172.00000    0.00796    0.00032
    9.64000  173.30000    0.00932    0.00031
    9.64000  174.70000    0.01260    0.00090
    9.64000  176.00000    0.00964    0.00097
    9.64000  177.40000    0.01230    0.00086
ENDDATA            442
ENDSUBENT          453
ENDENTRY             2
