ENTRY            D5191   20211209   20220321   20220321       D135
SUBENT        D5191001   20211209   20220321   20220321       D135
BIB                 13         33
TITLE      14C(11B,10B)15C reaction at Elab = 45 MeV and
           the 10B+15C optical potential
AUTHOR     (S.Yu.Mezhevych,A.T.Rudchik,A.A.Rudchik,K.W.Kemper,
            K.Rusek,O.A.Ponkratenko,E.I.Koshchy,S.B.Sakuta)
INSTITUTE  (4UKRIJD,3POLWWA,1USAFSU,4RUSKUR)
FACILITY   (CYCLO,3POLWWA) Cyclotron U-200P
REFERENCE  (J,APP/B,52,109,2021)
           #doi:10.5506/APhysPolB.52.109
           (J,YFE,21,231,2020) The same data
           #doi:10.15407/jnpae2020.03.231
SAMPLE     A self-supporting 280 mu-g/cm2 foil of carbon
           (6-C-14,ENR=0.86)
DETECTOR   (TELES,SI,IOCH) Three dE-E telescope were used:
           a silicon dE-E telescope with a 40mu-m silicon dE
           detector and two telescopes with an ionization chamber
           as the dE detector. The three 1mm silicon E detectors
           were used in the telescopes.
REL-REF    (I,D5094001,S.Yu.Mezhevych+,J,EPJ/A,50,4,2014)
METHOD     (EXTB,EDE)
ADD-RES    (POT,COMP) Spectroscopic amplitudes, parameters of the
           nucleus-nucleus potentials were determined. Optical
           model and the coupled-reaction-channels method were
           used.
ERR-ANALYS (DATA-ERR) Errors include both the statistical errors
           and uncertainties from the spectrum fitting procedure.
           The area errors of the peaks were estimated to be about
           20%, if the peaks were well resolved and 30-40% for
           poorly resolved peaks.
           The overall absolute error was estimated to be less
           than 20%.
HISTORY    (20211209C) UkrNDC
STATUS     Data were digitized as the authors did not provide
           numerical data.
ENDBIB              33
COMMON               1          3
EN
MEV
45.
ENDCOMMON            3
ENDSUBENT           40
SUBENT        D5191002   20211209   20220321   20220321       D135
BIB                  6         15
REACTION   (6-C-14(5-B-11,5-B-10)6-C-15,PAR,DA)
EN-SEC     (E-LVL1,5-B-10)
           (E-LVL2,6-C-15)
LEVEL-PROP (5-B-10,E-LVL=0.72,SPIN=1.,PARITY=+1.)
           (5-B-10,E-LVL=1.740,SPIN=0.,PARITY=+1.)
           (5-B-10,E-LVL=2.154,SPIN=1.,PARITY=+1.)
           (5-B-10,E-LVL=3.587,SPIN=2.,PARITY=+1.)
           (6-C-15,E-LVL=0.74,SPIN=2.5,PARITY=+1.)
           (6-C-15,E-LVL=3.103,SPIN=0.5,PARITY=-1.)
           (6-C-15,E-LVL=4.22,SPIN=2.5,PARITY=-1.)
           (6-C-15,E-LVL=4.66,SPIN=1.5,PARITY=-1.)
MONITOR    (6-C-14(5-B-11,EL)6-C-14,,DA)
MONIT-REF  (D5094002,S.Yu.Mezhevych+,J,EPJ/A,50,4,2014)
STATUS     (CURVE) Figs.4-7 in Acta Phys.Pol.B.52.109,2921
           was digitized by GSYS2.4.7.
ENDBIB              15
NOCOMMON             0          0
DATA                 5        247
E-LVL1     E-LVL2     ANG-CM     DATA-CM    DATA-ERR
MEV        MEV        ADEG       MB/SR      MB/SR
         0.         0.     21.529  2.499E-01  7.299E-02
         0.         0.     23.375  2.447E-01  7.235E-02
         0.         0.     25.306  2.656E-01  7.709E-02
         0.         0.     27.385  1.599E-01  4.825E-02
         0.         0.     29.206  1.190E-01  3.524E-02
         0.         0.     33.089  9.041E-02  2.636E-02
         0.         0.     34.973  1.027E-01  3.133E-02
         0.         0.     36.985  1.276E-01  3.721E-02
         0.         0.     38.864  1.130E-01  3.347E-02
         0.         0.     40.867  8.980E-02  2.659E-02
         0.         0.     42.746  8.211E-02  2.468E-02
         0.         0.     44.628  8.316E-02  2.462E-02
         0.         0.     46.633  7.604E-02  2.252E-02
         0.         0.     48.511  6.278E-02  1.887E-02
         0.         0.     50.518  6.119E-02  1.672E-02
         0.         0.     53.402  5.963E-02  1.766E-02
         0.         0.     55.286  6.562E-02  1.973E-02
         0.         0.     57.171  7.455E-02  2.208E-02
         0.         0.     59.049  6.354E-02  1.910E-02
         0.         0.     61.054  5.885E-02  1.769E-02
         0.         0.     63.065  6.947E-02  2.119E-02
         0.         0.     64.947  6.902E-02  2.105E-02
         0.         0.     66.833  8.740E-02  2.627E-02
         0.         0.     68.714  8.411E-02  2.528E-02
         0.         0.     70.594  7.545E-02  2.302E-02
         0.         0.     72.593  5.209E-02  1.566E-02
         0.         0.     74.479  6.555E-02  1.970E-02
         0.         0.     76.484  5.768E-02  1.734E-02
         0.         0.    118.493  2.797E-02  8.283E-03
         0.         0.    121.129  3.117E-02  9.509E-03
         0.         0.    123.760  2.657E-02  7.748E-03
         0.         0.    126.266  2.294E-02  6.895E-03
         0.         0.    128.659  3.540E-02  1.064E-02
         0.         0.    131.283  2.151E-02  6.371E-03
         0.         0.    133.791  2.137E-02  6.520E-03
         0.         0.    136.305  2.655E-02  7.743E-03
         0.         0.    138.694  3.384E-02  9.867E-03
         0.         0.    143.702  2.205E-02  6.531E-03
         0.         0.    146.094  3.173E-02  9.538E-03
         0.         0.    148.734  4.229E-02  1.252E-02
         0.         0.    151.119  4.450E-02  1.318E-02
         0.         0.    153.633  5.634E-02  1.643E-02
         0.      3.103     33.886  3.446E-02  1.081E-02
         0.      3.103     37.034  3.495E-02  1.096E-02
         0.      3.103     40.182  3.128E-02  9.810E-03
         0.      3.103     43.235  1.817E-02  5.523E-03
         0.      3.103     46.381  2.335E-02  6.406E-03
         0.      3.103     52.480  2.541E-02  7.970E-03
         0.      3.103     55.627  3.359E-02  1.021E-02
         0.      3.103     58.679  1.978E-02  6.205E-03
         0.      3.103     61.827  2.182E-02  5.985E-03
         0.      3.103     64.975  2.183E-02  6.422E-03
         0.      3.103     67.926  2.153E-02  6.335E-03
         0.      3.103     74.223  1.954E-02  5.941E-03
         0.      3.103     77.270  2.848E-02  8.099E-03
         0.      3.103     80.420  1.983E-02  5.639E-03
         0.      3.103     85.046  1.460E-02  4.579E-03
         0.      3.103     88.191  2.481E-02  7.541E-03
         0.      3.103     91.339  2.220E-02  6.531E-03
         0.      3.103     94.489  1.680E-02  5.270E-03
         0.      3.103     97.538  1.827E-02  5.556E-03
         0.      3.103    100.687  1.442E-02  4.244E-03
         0.      3.103    103.835  1.729E-02  6.207E-03
         0.       4.22     34.747  5.361E-02  1.666E-02
         0.       4.22     38.092  3.178E-02  9.652E-03
         0.       4.22     41.240  4.128E-02  1.282E-02
         0.       4.22     47.536  5.308E-02  1.612E-02
         0.       4.22     54.028  4.385E-02  1.332E-02
         0.       4.22     57.176  3.659E-02  1.187E-02
         0.       4.22     60.226  2.789E-02  8.470E-03
         0.       4.22     63.472  4.254E-02  1.232E-02
         0.       4.22     66.719  2.933E-02  8.492E-03
         0.       4.22     69.867  2.706E-02  8.028E-03
         0.       4.22     73.113  3.115E-02  9.020E-03
         0.       4.22     76.360  2.042E-02  5.913E-03
         0.       4.22     79.508  2.126E-02  6.456E-03
         0.       4.22     82.656  2.351E-02  6.806E-03
         0.       4.22     87.575  2.147E-02  6.370E-03
         0.       4.22     90.723  3.053E-02  8.621E-03
         0.       4.22     94.067  2.761E-02  7.394E-03
         0.       4.22     97.215  2.497E-02  7.407E-03
         0.       4.22    100.560  2.472E-02  7.850E-03
         0.       4.22    103.610  2.104E-02  6.391E-03
         0.       4.66     35.140  3.846E-02  1.100E-02
         0.       4.66     44.683  1.874E-02  5.953E-03
         0.       4.66     48.028  2.507E-02  7.169E-03
         0.       4.66     54.422  2.148E-02  6.689E-03
         0.       4.66     57.668  3.091E-02  9.432E-03
         0.       4.66     60.915  3.008E-02  8.987E-03
         0.       4.66     63.964  1.874E-02  5.836E-03
         0.       4.66     67.309  2.148E-02  6.280E-03
         0.       4.66     70.556  2.090E-02  5.976E-03
         0.       4.66     73.802  3.091E-02  9.432E-03
         0.       4.66     76.950  2.015E-02  5.630E-03
         0.       4.66     80.196  1.790E-02  5.235E-03
         0.       4.66     83.443  1.605E-02  4.485E-03
         0.       4.66     88.460  1.520E-02  4.638E-03
         0.       4.66     91.608  1.680E-02  5.441E-03
         0.       4.66     94.953  1.426E-02  4.261E-03
         0.       4.66     98.101  1.576E-02  4.909E-03
       0.72       0.74     25.529  1.038E+00  3.314E-01
       0.72       0.74     27.499  8.277E-01  2.641E-01
       0.72       0.74     29.559  6.750E-01  2.154E-01
       0.72       0.74     33.410  4.009E-01  1.400E-01
       0.72       0.74     35.469  2.790E-01  8.026E-02
       0.72       0.74     37.351  2.666E-01  8.091E-02
       0.72       0.74     39.411  2.125E-01  7.421E-02
       0.72       0.74     41.292  1.940E-01  5.890E-02
       0.72       0.74     43.263  1.896E-01  6.340E-02
       0.72       0.74     45.324  2.220E-01  6.739E-02
       0.72       0.74     47.117  2.375E-01  6.831E-02
       0.72       0.74     49.087  2.120E-01  6.766E-02
       0.72       0.74     51.058  1.936E-01  6.178E-02
       0.72       0.74     54.105  2.024E-01  6.459E-02
       0.72       0.74     55.987  2.165E-01  6.571E-02
       0.72       0.74     57.957  1.473E-01  4.926E-02
       0.72       0.74     59.838  1.541E-01  4.181E-02
       0.72       0.74     61.898  1.228E-01  4.107E-02
       0.72       0.74     63.779  9.150E-02  2.920E-02
       0.72       0.74     65.839  7.807E-02  2.245E-02
       0.72       0.74     67.721  9.783E-02  2.970E-02
       0.72       0.74     69.692  7.978E-02  2.546E-02
       0.72       0.74     71.573  7.621E-02  2.314E-02
       0.72       0.74     73.633  5.940E-02  1.986E-02
       0.72       0.74     75.515  7.115E-02  2.379E-02
       0.72       0.74    117.537  5.744E-02  1.907E-02
       0.72       0.74    120.136  7.036E-02  2.408E-02
       0.72       0.74    122.734  5.868E-02  2.036E-02
       0.72       0.74    125.423  7.352E-02  2.221E-02
       0.72       0.74    128.041  6.060E-02  1.985E-02
       0.72       0.74    130.620  6.708E-02  1.793E-02
       0.72       0.74    133.128  6.554E-02  2.221E-02
       0.72       0.74    135.728  8.591E-02  2.790E-02
       0.72       0.74    138.147  8.023E-02  2.462E-02
       0.72       0.74    143.164  7.156E-02  2.153E-02
       0.72       0.74    145.763  8.008E-02  2.340E-02
       0.72       0.74    148.272  9.809E-02  2.974E-02
       0.72       0.74    150.692  1.073E-01  2.988E-02
       0.72       0.74    153.202  1.314E-01  3.567E-02
      1.740         0.     21.960  4.769E-02  1.647E-02
      1.740         0.     23.877  2.430E-02  7.449E-03
      1.740         0.     25.929  3.062E-02  1.019E-02
      1.740         0.     27.845  2.781E-02  7.377E-03
      1.740         0.     30.036  1.287E-02  4.607E-03
      1.740         0.     33.871  1.563E-02  4.997E-03
      1.740         0.     35.861  1.929E-02  6.393E-03
      1.740         0.     37.975  2.988E-02  8.455E-03
      1.740         0.     39.964  3.437E-02  1.015E-02
      1.740         0.     41.954  3.687E-02  1.134E-02
      1.740         0.     43.944  2.181E-02  6.442E-03
      1.740         0.     45.934  2.219E-02  7.356E-03
      1.740         0.     47.924  2.422E-02  8.858E-03
      1.740         0.     49.914  2.033E-02  5.754E-03
      1.740         0.     51.904  1.433E-02  4.408E-03
      1.740         0.     54.888  2.259E-02  7.221E-03
      1.740         0.     57.002  2.299E-02  6.505E-03
      1.740         0.     58.992  2.554E-02  8.852E-03
      1.740         0.     60.982  1.564E-02  5.544E-03
      1.740         0.     62.971  2.340E-02  7.479E-03
      1.740         0.     64.961  2.070E-02  6.617E-03
      1.740         0.     66.951  1.964E-02  5.802E-03
      1.740         0.     68.941  1.768E-02  5.224E-03
      1.740         0.     71.055  1.459E-02  4.835E-03
      1.740         0.     73.045  1.537E-02  4.542E-03
      1.740         0.    115.701  9.261E-03  2.849E-03
      1.740         0.    118.437  1.410E-02  3.811E-03
      1.740         0.    121.173  8.788E-03  2.809E-03
      1.740         0.    123.909  1.143E-02  3.234E-03
      1.740         0.    129.256  1.512E-02  4.653E-03
      1.740         0.    131.868  2.001E-02  6.866E-03
      1.740         0.    134.480  1.338E-02  4.277E-03
      1.740         0.    137.091  1.622E-02  5.378E-03
      1.740         0.    142.190  9.429E-03  3.014E-03
      1.740         0.    144.802  9.938E-03  3.177E-03
      1.740         0.    147.414  8.198E-03  2.522E-03
      1.740         0.    149.901  1.164E-02  3.437E-03
      1.740         0.    152.512  2.074E-02  5.482E-03
      2.154         0.     22.235  6.635E-02  2.082E-02
      2.154         0.     24.286  6.802E-02  2.250E-02
      2.154         0.     26.174  6.801E-02  2.134E-02
      2.154         0.     28.306  4.437E-02  1.468E-02
      2.154         0.     30.358  5.561E-02  1.648E-02
      2.154         0.     34.297  6.967E-02  1.940E-02
      2.154         0.     36.348  4.780E-02  1.500E-02
      2.154         0.     38.317  5.842E-02  1.519E-02
      2.154         0.     40.451  8.511E-02  2.370E-02
      2.154         0.     42.420  6.296E-02  2.187E-02
      2.154         0.     44.389  3.907E-02  1.292E-02
      2.154         0.     46.358  4.541E-02  1.502E-02
      2.154         0.     48.410  3.906E-02  1.225E-02
      2.154         0.     50.543  4.894E-02  1.619E-02
      2.154         0.     52.512  3.275E-02  1.138E-02
      2.154         0.     55.548  4.652E-02  1.295E-02
      2.154         0.     57.600  4.103E-02  1.357E-02
      2.154         0.     59.569  5.685E-02  1.684E-02
      2.154         0.     63.672  4.311E-02  1.426E-02
      2.154         0.     65.641  4.887E-02  1.448E-02
      2.154         0.     67.693  5.539E-02  2.014E-02
      2.154         0.     69.743  3.269E-02  1.135E-02
      2.154         0.     71.713  2.883E-02  9.535E-03
      2.154         0.     73.764  4.528E-02  1.093E-02
      2.154         0.    117.745  1.920E-02  5.345E-03
      2.154         0.    120.452  1.317E-02  4.357E-03
      2.154         0.    123.160  1.650E-02  4.595E-03
      2.154         0.    125.868  2.345E-02  6.529E-03
      2.154         0.    128.576  2.658E-02  9.232E-03
      2.154         0.    131.202  2.120E-02  6.651E-03
      2.154         0.    133.910  2.937E-02  8.702E-03
      2.154         0.    136.535  2.655E-02  7.869E-03
      2.154         0.    141.786  1.048E-02  3.642E-03
      2.154         0.    144.412  1.347E-02  4.227E-03
      2.154         0.    146.874  2.116E-02  5.892E-03
      2.154         0.    149.500  2.398E-02  7.107E-03
      2.154         0.    152.126  2.858E-02  9.455E-03
      3.587         0.     23.002  3.556E-02  1.010E-02
      3.587         0.     25.048  2.373E-02  6.743E-03
      3.587         0.     27.103  3.177E-02  9.955E-03
      3.587         0.     29.144  1.284E-02  3.520E-03
      3.587         0.     31.279  1.475E-02  4.763E-03
      3.587         0.     35.385  1.919E-02  5.829E-03
      3.587         0.     37.520  2.298E-02  8.059E-03
      3.587         0.     39.574  2.791E-02  9.274E-03
      3.587         0.     41.789  2.601E-02  8.400E-03
      3.587         0.     43.837  2.051E-02  5.828E-03
      3.587         0.     45.889  2.050E-02  6.618E-03
      3.587         0.     48.104  1.992E-02  6.433E-03
      3.587         0.     49.986  1.311E-02  3.855E-03
      3.587         0.     52.201  1.310E-02  4.106E-03
      3.587         0.     54.172  1.463E-02  4.587E-03
      3.587         0.     57.374  1.728E-02  4.908E-03
      3.587         0.     59.589  1.702E-02  5.814E-03
      3.587         0.     61.644  2.156E-02  6.338E-03
      3.587         0.     63.771  1.269E-02  3.605E-03
      3.587         0.     65.742  1.520E-02  4.469E-03
      3.587         0.     67.953  1.000E-02  3.134E-03
      3.587         0.    117.760  1.069E-02  3.246E-03
      3.587         0.    120.714  9.958E-03  3.025E-03
      3.587         0.    123.586  1.037E-02  3.050E-03
      3.587         0.    126.456  8.647E-03  2.710E-03
      3.587         0.    129.165  1.021E-02  2.694E-03
      3.587         0.    132.035  8.393E-03  2.710E-03
      3.587         0.    134.825  8.155E-03  2.068E-03
      3.587         0.    140.235  5.213E-03  1.584E-03
      3.587         0.    143.025  5.281E-03  1.605E-03
      3.587         0.    145.650  4.853E-03  1.427E-03
      3.587         0.    148.364  8.231E-03  2.501E-03
      3.587         0.    150.991  9.585E-03  2.911E-03
ENDDATA            249
ENDSUBENT          269
ENDENTRY             2
