ENTRY            D5190   20211207   20220321   20220321       D135
SUBENT        D5190001   20211207   20220321   20220321       D135
BIB                 14         34
TITLE      Elastic and inelastic scattering of 10B ions by 6Li
           nuclei at energy 51 MeV
AUTHOR     (A.T.Rudchik,A.A.Rudchik,O.O.Chepurnov,K.Rusek,
           K.W.Kemper,E.I.Koshchy,S.Yu.Mezhevych,Val.M.Pirnak,
           O.A.Ponkratenko,A.Stolarz,R.Siudak,A.P.Ilyin,
           B.V.Mishchenko,Yu.M.Stepanenko,V.V.Uleshchenko,
           Yu.O.Shyrma)
INSTITUTE  (4UKRIJD,3POLWWA,1USAFSU,1USATAM,3POLIFJ)
REFERENCE  (J,YFE,21,29,2020)
           #doi:10.15407/jnpae2020.01.029
FACILITY   (CYCLO,3POLWWA)Cyclotron U-200P
SAMPLE     A self-supporting lithium sample with a thickness of
           900 mu-g/cm2.
           (3-LI-6,ENR=0.85)
METHOD     (EXTB,EDE)
DETECTOR   (TELES,SI,SI) One delta E-E-telescope consisting of a
           67 mu-m silicon delta E-detector and a 1 mm silicon
           E-detector.
           (TELES,IOCH,SI) One telescope with gas delta E-detector
           and a 1 mm silicon E-detector. Flowing argon was used
           as the working gas in the ionization chamber. The
           energy loss of the ions in the ionization chamber
           corresponded to that deposited in an approximately
           15 mu-m thick silicon detector.
INC-SPECT  The beam energy spread on the target did not exceed
           0.5%.
CORRECTION Corrected for background.
ADD-RES    (POT,COMP)Calculated spectroscopic amplitudes,
           deformation. The data were analyzed within the coupled
           reaction channels method.
ERR-ANALYS (DATA-ERR)Errors include both the statistical errors
           and uncertainties from the spectrum fitting procedure.
STATUS     (PRELM)
HISTORY    (20211207C) UkrNDC
ENDBIB              34
COMMON               1          3
EN
MEV
51.
ENDCOMMON            3
ENDSUBENT           41
SUBENT        D5190002   20211207   20220321   20220321       D135
BIB                  2          3
REACTION   (3-LI-6(5-B-10,EL)3-LI-6,,DA)
STATUS     (CURVE) Fig.8 in Yad.Fiz.&Energetika,21,29,2020 was
           digitized by GSYS2.4.7.
ENDBIB               3
NOCOMMON             0          0
DATA                 3         58
ANG-CM     DATA-CM    DATA-ERR
ADEG       MB/SR      MB/SR
     16.011  1.661E+03  4.943E+02
     18.836  2.604E+02  5.973E+01
     21.527  1.931E+02  5.666E+01
     24.230  2.433E+02  6.974E+01
     26.921  1.752E+02  5.022E+01
     29.605  9.819E+01  2.814E+01
     32.454  4.365E+01  1.251E+01
     35.141  2.773E+01  8.512E+00
     37.833  2.096E+01  6.572E+00
     40.694  1.630E+01  4.560E+00
     43.387  1.331E+01  3.996E+00
     46.251  1.185E+01  3.478E+00
     49.111  9.132E+00  2.680E+00
     51.971  6.640E+00  2.038E+00
     54.836  6.449E+00  1.980E+00
     57.861  4.097E+00  1.174E+00
     60.718  2.602E+00  7.989E-01
     63.576  1.821E+00  5.092E-01
     66.614  2.084E+00  6.256E-01
     69.820  2.294E+00  6.416E-01
     72.841  1.237E+00  3.714E-01
     76.029  6.113E-01  1.877E-01
     79.569  5.995E-01  1.759E-01
     82.778  7.411E-01  2.073E-01
     86.499  1.284E+00  3.681E-01
     90.029  7.699E-01  2.363E-01
     98.115  5.650E-01  1.619E-01
     99.977  7.619E-01  2.390E-01
    107.896  6.099E-01  1.706E-01
    111.944  6.399E-01  1.964E-01
    113.971  7.466E-01  2.191E-01
    115.826  7.610E-01  2.233E-01
    117.848  7.251E-01  2.128E-01
    119.866  5.641E-01  1.694E-01
    121.886  4.928E-01  1.412E-01
    123.913  5.639E-01  1.655E-01
    126.108  6.644E-01  1.858E-01
    127.963  6.707E-01  2.014E-01
    129.991  8.134E-01  2.387E-01
    132.017  9.219E-01  2.768E-01
    133.868  7.674E-01  2.093E-01
    135.891  7.673E-01  2.304E-01
    137.912  6.767E-01  2.032E-01
    139.936  7.101E-01  2.132E-01
    141.962  7.971E-01  2.339E-01
    143.988  9.035E-01  2.590E-01
    145.846  1.024E+00  3.006E-01
    148.036  9.664E-01  2.836E-01
    150.060  9.662E-01  2.703E-01
    151.911  8.359E-01  2.453E-01
    153.937  9.384E-01  2.625E-01
    155.961  9.752E-01  2.795E-01
    157.987  1.074E+00  3.296E-01
    160.017  1.462E+00  4.191E-01
    162.041  1.490E+00  4.374E-01
    164.066  1.625E+00  4.880E-01
    166.092  1.842E+00  5.280E-01
    167.947  1.860E+00  5.458E-01
ENDDATA             60
ENDSUBENT           68
SUBENT        D5190003   20211207   20220321   20220321       D135
BIB                  4         14
REACTION   (3-LI-6(5-B-10,INL)3-LI-6,PAR,DA)
EN-SEC     (E-LVL1,3-LI-6)
           (E-LVL2,5-B-10)
LEVEL-PROP (3-LI-6,E-LVL=2.185,SPIN=3.,PARITY=+1.)
           (3-LI-6,E-LVL=4.31,SPIN=2.,PARITY=+1.)
           (3-LI-6,E-LVL=5.70,SPIN=1.,PARITY=+1.)
           (5-B-10,E-LVL=4.774,SPIN=3.,PARITY=+1.)
           (5-B-10,E-LVL=5.11,SPIN=2.,PARITY=-1.)
           (5-B-10,E-LVL=5.18,SPIN=1.,PARITY=+1.)
           (5-B-10,E-LVL=5.920,SPIN=2.,PARITY=+1.)
           (5-B-10,E-LVL=6.025,SPIN=4.,PARITY=+1.)
           (5-B-10,E-LVL=6.129,SPIN=3.,PARITY=-1.)
STATUS     (CURVE) Figs.9-11 in Yad.Fiz.&Energetika,21,29,2020
           were digitized by GSYS2.4.7.
ENDBIB              14
NOCOMMON             0          0
DATA                 7        306
E-LVL1     E-LVL2     E-LVL2     E-LVL2     ANG-CM     DATA-CM
DATA-ERR
MEV        MEV        MEV        MEV        ADEG       MB/SR
MB/SR
         0.      0.718                           16.379  1.690E+01
  5.380E+00
         0.      0.718                           19.047  1.238E+01
  3.137E+00
         0.      0.718                           21.826  7.424E+00
  2.176E+00
         0.      0.718                           24.603  3.146E+00
  8.395E-01
         0.      0.718                           27.382  2.105E+00
  6.439E-01
         0.      0.718                           30.055  3.261E+00
  1.038E+00
         0.      0.718                           32.837  3.637E+00
  1.158E+00
         0.      0.718                           35.727  2.523E+00
  7.718E-01
         0.      0.718                           38.283  1.381E+00
  3.308E-01
         0.      0.718                           41.171  6.182E-01
  2.045E-01
         0.      0.718                           44.065  6.895E-01
  1.840E-01
         0.      0.718                           46.958  7.689E-01
  2.254E-01
         0.      0.718                           49.851  8.119E-01
  2.380E-01
         0.      0.718                           52.854  6.519E-01
  1.994E-01
         0.      0.718                           55.633  4.361E-01
  1.278E-01
         0.      0.718                           58.633  1.988E-01
  5.036E-02
         0.      0.718                           61.637  2.024E-01
  5.127E-02
         0.      0.718                           64.752  2.137E-01
  5.985E-02
         0.      0.718                           67.868  2.298E-01
  6.734E-02
         0.      0.718                           71.094  2.096E-01
  5.871E-02
         0.      0.718                           74.208  1.653E-01
  4.843E-02
         0.      0.718                           77.542  8.561E-02
  2.509E-02
         0.      0.718                           81.101  7.669E-02
  1.942E-02
         0.      0.718                           84.551  9.369E-02
  2.746E-02
         0.      0.718                           88.223  1.007E-01
  2.953E-02
         0.      0.718                           92.115  6.496E-02
  1.987E-02
         0.      0.718                           99.235  6.489E-02
  1.985E-02
         0.      0.718                          107.245  5.500E-02
  1.751E-02
         0.      0.718                          111.250  5.806E-02
  1.702E-02
         0.      0.718                          113.365  6.476E-02
  1.814E-02
         0.      0.718                          115.368  7.492E-02
  2.386E-02
         0.      0.718                          117.370  6.592E-02
  2.099E-02
         0.      0.718                          119.484  6.238E-02
  1.908E-02
         0.      0.718                          121.485  5.196E-02
  1.589E-02
         0.      0.718                          123.488  5.290E-02
  1.411E-02
         0.      0.718                          125.492  6.120E-02
  1.872E-02
         0.      0.718                          127.606  6.952E-02
  2.127E-02
         0.      0.718                          129.498  7.477E-02
  2.287E-02
         0.      0.718                          131.612  7.207E-02
  2.019E-02
         0.      0.718                          133.614  6.697E-02
  2.049E-02
         0.      0.718                          135.615  5.477E-02
  1.605E-02
         0.      0.718                          137.729  5.279E-02
  1.681E-02
         0.      0.718                          139.621  6.335E-02
  1.938E-02
         0.      0.718                          141.737  8.177E-02
  2.397E-02
         0.      0.718                          143.740  9.635E-02
  2.571E-02
         0.      0.718                          145.743  1.075E-01
  3.422E-02
         0.      0.718                          147.746  9.987E-02
  2.665E-02
         0.      0.718                          149.748  9.281E-02
  2.720E-02
         0.      0.718                          151.861  7.590E-02
  2.025E-02
         0.      0.718                          153.863  7.728E-02
  2.265E-02
         0.      0.718                          155.867  9.975E-02
  2.662E-02
         0.      0.718                          157.871  1.154E-01
  3.530E-02
         0.      0.718                          159.986  1.385E-01
  4.236E-02
         0.      0.718                          161.878  1.755E-01
  5.144E-02
         0.      0.718                          163.993  1.958E-01
  5.989E-02
         0.      0.718                          165.995  1.754E-01
  5.366E-02
         0.      0.718                          168.109  1.887E-01
  5.034E-02
         0.      3.587                           17.108  3.127E+01
  9.916E+00
         0.      3.587                           19.999  2.255E+01
  5.687E+00
         0.      3.587                           22.890  1.172E+01
  3.422E+00
         0.      3.587                           25.780  6.321E+00
  1.679E+00
         0.      3.587                           28.783  5.986E+00
  1.824E+00
         0.      3.587                           31.673  6.675E+00
  2.117E+00
         0.      3.587                           34.564  7.049E+00
  2.236E+00
         0.      3.587                           37.567  4.558E+00
  1.389E+00
         0.      3.587                           40.569  2.370E+00
  5.653E-01
         0.      3.587                           43.571  1.255E+00
  4.134E-01
         0.      3.587                           46.684  1.255E+00
  3.334E-01
         0.      3.587                           49.686  1.838E+00
  5.364E-01
         0.      3.587                           52.799  1.589E+00
  4.639E-01
         0.      3.587                           56.024  1.210E+00
  3.687E-01
         0.      3.587                           59.137  7.277E-01
  1.634E-01
         0.      3.587                           62.473  4.705E-01
  1.607E-01
         0.      3.587                           65.809  5.247E-01
  1.323E-01
         0.      3.587                           69.144  5.746E-01
  1.603E-01
         0.      3.587                           72.702  4.219E-01
  1.232E-01
         0.      3.587                           76.260  3.213E-01
  8.961E-02
         0.      3.587                           80.041  1.671E-01
  4.876E-02
         0.      3.587                           84.044  1.611E-01
  4.702E-02
         0.      3.587                           88.046  1.863E-01
  5.909E-02
         0.      3.587                           92.605  2.003E-01
  5.848E-02
         0.      3.587                           94.495  1.319E-01
  4.505E-02
         0.      3.587                           97.386  1.249E-01
  3.806E-02
         0.      3.587                          103.057  7.932E-02
  2.417E-02
         0.      3.587                          107.616  7.932E-02
  2.516E-02
         0.      3.587                          109.728  9.008E-02
  2.629E-02
         0.      3.587                          111.952  9.865E-02
  2.751E-02
         0.      3.587                          114.065  9.341E-02
  2.963E-02
         0.      3.587                          116.177  7.790E-02
  2.471E-02
         0.      3.587                          120.514  6.496E-02
  1.979E-02
         0.      3.587                          122.626  6.615E-02
  2.015E-02
         0.      3.587                          124.850  6.859E-02
  1.823E-02
         0.      3.587                          126.963  7.932E-02
  2.108E-02
         0.      3.587                          129.075  8.377E-02
  2.552E-02
         0.      3.587                          131.188  9.008E-02
  2.744E-02
         0.      3.587                          133.411  9.513E-02
  3.017E-02
         0.      3.587                          135.524  1.023E-01
  3.116E-02
         0.      3.587                          137.637  9.008E-02
  2.629E-02
         0.      3.587                          139.749  1.061E-01
  3.364E-02
         0.      3.587                          141.862  1.162E-01
  2.930E-02
         0.      3.587                          143.974  1.141E-01
  2.877E-02
         0.      3.587                          146.087  1.205E-01
  3.201E-02
         0.      3.587                          148.311  1.295E-01
  4.109E-02
         0.      3.587                          150.312  1.368E-01
  3.635E-02
         0.      3.587                          152.425  1.671E-01
  4.876E-02
         0.      3.587                          154.537  1.611E-01
  4.280E-02
         0.      3.587                          156.650  1.764E-01
  5.150E-02
         0.      3.587                          158.874  1.897E-01
  5.041E-02
         0.      3.587                          160.986  2.116E-01
  5.621E-02
         0.      3.587                          163.099  2.359E-01
  7.187E-02
         0.      3.587                          165.212  2.537E-01
  7.406E-02
         0.      3.587                          167.324  2.537E-01
  6.741E-02
         0.      4.774                           91.933  1.520E-01
  4.458E-02
         0.      4.774                          105.756  9.868E-02
  2.894E-02
         0.      4.774                          108.012  8.095E-02
  2.514E-02
         0.      4.774                          110.167  9.395E-02
  2.503E-02
         0.      4.774                          112.422  9.634E-02
  2.825E-02
         0.      4.774                          114.674  1.175E-01
  3.237E-02
         0.      4.774                          119.086  1.133E-01
  3.321E-02
         0.      4.774                          121.340  1.052E-01
  2.706E-02
         0.      4.774                          123.498  9.410E-02
  2.507E-02
         0.      4.774                          125.752  9.069E-02
  2.738E-02
         0.      4.774                          127.908  1.014E-01
  2.794E-02
         0.      4.774                          130.064  1.066E-01
  3.032E-02
         0.      4.774                          132.317  1.207E-01
  3.539E-02
         0.      4.774                          134.473  1.317E-01
  4.089E-02
         0.      4.774                          136.728  1.301E-01
  3.584E-02
         0.      4.774                          138.884  1.317E-01
  4.203E-02
         0.      4.774                          141.041  1.270E-01
  3.723E-02
         0.      4.774                          143.197  1.286E-01
  3.542E-02
         0.      4.774                          145.451  1.318E-01
  3.980E-02
         0.      4.774                          147.607  1.352E-01
  4.081E-02
         0.      4.774                          149.666  1.386E-01
  4.304E-02
         0.      4.774                          151.920  1.439E-01
  4.468E-02
         0.      4.774                          154.075  1.712E-01
  5.020E-02
         0.      4.774                          156.230  1.963E-01
  5.755E-02
         0.      4.774                          158.386  2.141E-01
  6.830E-02
         0.      4.774                          160.444  2.250E-01
  6.400E-02
         0.      4.774                          162.601  2.116E-01
  6.204E-02
         0.      4.774                          164.855  2.090E-01
  6.311E-02
         0.      4.774                          167.012  2.117E-01
  6.391E-02
         0.       5.11       5.18                91.292  1.101E-01
  3.140E-02
         0.       5.11       5.18               105.216  8.271E-02
  2.359E-02
         0.       5.11       5.18               107.569  7.886E-02
  2.383E-02
         0.       5.11       5.18               109.824  7.701E-02
  1.995E-02
         0.       5.11       5.18               111.981  8.082E-02
  2.305E-02
         0.       5.11       5.18               114.335  7.171E-02
  2.107E-02
         0.       5.11       5.18               118.845  6.677E-02
  2.018E-02
         0.       5.11       5.18               121.100  6.924E-02
  1.915E-02
         0.       5.11       5.18               123.257  7.009E-02
  1.816E-02
         0.       5.11       5.18               125.511  7.535E-02
  2.213E-02
         0.       5.11       5.18               127.765  7.907E-02
  2.323E-02
         0.       5.11       5.18               130.021  7.273E-02
  2.012E-02
         0.       5.11       5.18               132.178  7.541E-02
  2.151E-02
         0.       5.11       5.18               134.335  6.772E-02
  2.046E-02
         0.       5.11       5.18               136.589  7.546E-02
  2.021E-02
         0.       5.11       5.18               138.746  8.111E-02
  2.518E-02
         0.       5.11       5.18               140.901  9.369E-02
  2.672E-02
         0.       5.11       5.18               143.156  9.260E-02
  2.481E-02
         0.       5.11       5.18               145.411  9.488E-02
  2.787E-02
         0.       5.11       5.18               147.567  9.838E-02
  2.890E-02
         0.       5.11       5.18               149.724  9.724E-02
  2.938E-02
         0.       5.11       5.18               151.881  1.033E-01
  3.121E-02
         0.       5.11       5.18               154.036  1.165E-01
  3.322E-02
         0.       5.11       5.18               156.193  1.252E-01
  3.571E-02
         0.       5.11       5.18               158.448  1.252E-01
  3.888E-02
         0.       5.11       5.18               160.505  1.379E-01
  3.814E-02
         0.       5.11       5.18               162.761  1.268E-01
  3.617E-02
         0.       5.11       5.18               164.917  1.500E-01
  4.408E-02
         0.       5.11       5.18               167.172  1.397E-01
  4.103E-02
         0.      5.920      6.025      6.129     89.233  5.059E-01
  1.523E-01
         0.      5.920      6.025      6.129     98.925  3.474E-01
  1.046E-01
         0.      5.920      6.025      6.129    103.624  2.966E-01
  9.335E-02
         0.      5.920      6.025      6.129    106.071  2.795E-01
  7.211E-02
         0.      5.920      6.025      6.129    108.322  2.797E-01
  7.624E-02
         0.      5.920      6.025      6.129    110.573  2.855E-01
  7.780E-02
         0.      5.920      6.025      6.129    112.922  2.913E-01
  8.360E-02
         0.      5.920      6.025      6.129    117.523  2.803E-01
  8.042E-02
         0.      5.920      6.025      6.129    119.774  2.642E-01
  6.814E-02
         0.      5.920      6.025      6.129    122.124  2.591E-01
  7.799E-02
         0.      5.920      6.025      6.129    124.375  2.442E-01
  8.016E-02
         0.      5.920      6.025      6.129    126.529  2.395E-01
  6.530E-02
         0.      5.920      6.025      6.129    128.878  2.349E-01
  6.403E-02
         0.      5.920      6.025      6.129    131.030  2.648E-01
  8.691E-02
         0.      5.920      6.025      6.129    133.379  2.869E-01
  7.821E-02
         0.      5.920      6.025      6.129    135.630  3.234E-01
  1.062E-01
         0.      5.920      6.025      6.129    137.880  3.794E-01
  1.088E-01
         0.      5.920      6.025      6.129    140.034  3.436E-01
  1.034E-01
         0.      5.920      6.025      6.129    142.286  3.175E-01
  9.108E-02
         0.      5.920      6.025      6.129    144.635  2.764E-01
  8.698E-02
         0.      5.920      6.025      6.129    146.690  3.054E-01
  8.761E-02
         0.      5.920      6.025      6.129    148.941  3.655E-01
  1.100E-01
         0.      5.920      6.025      6.129    151.191  4.039E-01
  1.326E-01
         0.      5.920      6.025      6.129    153.344  4.738E-01
  1.555E-01
         0.      5.920      6.025      6.129    155.693  4.836E-01
  1.387E-01
         0.      5.920      6.025      6.129    157.748  5.035E-01
  1.585E-01
         0.      5.920      6.025      6.129    159.999  5.037E-01
  1.445E-01
         0.      5.920      6.025      6.129    162.251  4.843E-01
  1.390E-01
         0.      5.920      6.025      6.129    164.403  5.460E-01
  1.409E-01
         0.      5.920      6.025      6.129    166.753  4.752E-01
  1.430E-01
      2.185      2.154                           16.870  2.396E+01
  7.153E+00
      2.185      2.154                           19.647  1.890E+01
  4.474E+00
      2.185      2.154                           22.531  1.063E+01
  2.919E+00
      2.185      2.154                           25.308  8.110E+00
  2.024E+00
      2.185      2.154                           28.085  6.730E+00
  1.929E+00
      2.185      2.154                           30.864  6.180E+00
  1.845E+00
      2.185      2.154                           33.754  5.580E+00
  1.666E+00
      2.185      2.154                           36.639  3.303E+00
  9.468E-01
      2.185      2.154                           39.521  1.624E+00
  3.633E-01
      2.185      2.154                           42.522  1.394E+00
  4.325E-01
      2.185      2.154                           45.414  1.567E+00
  3.911E-01
      2.185      2.154                           48.308  2.052E+00
  5.633E-01
      2.185      2.154                           51.307  1.646E+00
  4.519E-01
      2.185      2.154                           54.415  9.910E-01
  2.840E-01
      2.185      2.154                           57.299  5.576E-01
  1.174E-01
      2.185      2.154                           60.407  3.414E-01
  1.099E-01
      2.185      2.154                           63.633  3.971E-01
  9.404E-02
      2.185      2.154                           66.861  5.562E-01
  1.458E-01
      2.185      2.154                           70.194  4.241E-01
  1.164E-01
      2.185      2.154                           73.522  2.268E-01
  5.946E-02
      2.185      2.154                           76.964  1.461E-01
  4.009E-02
      2.185      2.154                           80.521  1.387E-01
  3.808E-02
      2.185      2.154                           84.304  1.697E-01
  5.068E-02
      2.185      2.154                           88.083  1.532E-01
  4.205E-02
      2.185      2.154                           92.195  1.250E-01
  4.023E-02
      2.185      2.154                           96.638  8.607E-02
  2.467E-02
      2.185      2.154                          107.311  7.756E-02
  2.223E-02
      2.185      2.154                          109.646  7.751E-02
  2.314E-02
      2.185      2.154                          111.648  8.429E-02
  2.313E-02
      2.185      2.154                          113.872  8.283E-02
  2.171E-02
      2.185      2.154                          115.874  9.008E-02
  2.690E-02
      2.185      2.154                          117.874  7.999E-02
  2.388E-02
      2.185      2.154                          122.100  8.265E-02
  2.368E-02
      2.185      2.154                          124.212  7.985E-02
  2.289E-02
      2.185      2.154                          126.325  8.396E-02
  2.095E-02
      2.185      2.154                          128.439  9.444E-02
  2.357E-02
      2.185      2.154                          130.440  8.972E-02
  2.572E-02
      2.185      2.154                          132.442  9.120E-02
  2.614E-02
      2.185      2.154                          134.665  8.962E-02
  2.676E-02
      2.185      2.154                          136.667  8.957E-02
  2.568E-02
      2.185      2.154                          138.779  8.510E-02
  2.336E-02
      2.185      2.154                          140.781  9.100E-02
  2.717E-02
      2.185      2.154                          143.004  8.942E-02
  2.117E-02
      2.185      2.154                          145.006  9.244E-02
  2.190E-02
      2.185      2.154                          147.008  9.885E-02
  2.467E-02
      2.185      2.154                          149.123  1.131E-01
  3.377E-02
      2.185      2.154                          151.235  1.130E-01
  2.821E-02
      2.185      2.154                          153.238  1.315E-01
  3.610E-02
      2.185      2.154                          155.352  1.383E-01
  3.451E-02
      2.185      2.154                          157.353  1.429E-01
  3.924E-02
      2.185      2.154                          159.467  1.581E-01
  3.946E-02
      2.185      2.154                          161.580  1.580E-01
  3.944E-02
      2.185      2.154                          163.693  1.633E-01
  4.683E-02
      2.185      2.154                          165.694  1.632E-01
  4.480E-02
      2.185      2.154                          167.695  1.604E-01
  4.004E-02
       4.31         0.                           17.672  7.591E+00
  2.070E+00
       4.31         0.                           20.575  4.391E+00
  1.253E+00
       4.31         0.                           23.479  2.284E+00
  7.364E-01
       4.31         0.                           26.385  9.441E-01
  2.695E-01
       4.31         0.                           29.389  9.964E-01
  2.716E-01
       4.31         0.                           32.390  1.396E+00
  3.624E-01
       4.31         0.                           35.500  1.526E+00
  4.162E-01
       4.31         0.                           38.510  9.145E-01
  2.725E-01
       4.31         0.                           41.522  4.278E-01
  1.275E-01
       4.31         0.                           44.423  3.006E-01
  8.196E-02
       4.31         0.                           47.641  3.406E-01
  9.720E-02
       4.31         0.                           50.749  4.687E-01
  1.217E-01
       4.31         0.                           53.968  4.371E-01
  1.356E-01
       4.31         0.                           57.193  2.528E-01
  7.533E-02
       4.31         0.                           60.420  1.183E-01
  3.225E-02
       4.31         0.                           63.855  9.921E-02
  3.078E-02
       4.31         0.                           67.179  1.250E-01
  3.723E-02
       4.31         0.                           70.825  1.520E-01
  4.144E-02
       4.31         0.                           74.369  1.087E-01
  3.505E-02
       4.31         0.                           78.127  8.648E-02
  2.683E-02
       4.31         0.                           82.102  5.564E-02
  1.658E-02
       4.31         0.                           86.178  5.979E-02
  1.630E-02
       4.31         0.                           90.578  5.384E-02
  1.604E-02
       4.31         0.                           95.516  4.209E-02
  1.254E-02
       4.31         0.                          100.991  3.291E-02
  8.546E-03
       4.31         0.                          107.861  2.399E-02
  7.146E-03
       5.70         0.                           18.011  4.716E+00
  1.299E+00
       5.70         0.                           20.923  3.015E+00
  9.445E-01
       5.70         0.                           24.158  1.397E+00
  4.202E-01
       5.70         0.                           27.070  8.928E-01
  2.574E-01
       5.70         0.                           30.198  1.068E+00
  2.941E-01
       5.70         0.                           33.217  1.210E+00
  3.175E-01
       5.70         0.                           36.453  1.147E+00
  3.159E-01
       5.70         0.                           39.581  4.773E-01
  1.436E-01
       5.70         0.                           42.816  3.782E-01
  1.138E-01
       5.70         0.                           45.944  2.790E-01
  8.394E-02
       5.70         0.                           49.179  3.106E-01
  6.884E-02
       5.70         0.                           52.522  3.219E-01
  8.445E-02
       5.70         0.                           55.866  2.740E-01
  8.585E-02
       5.70         0.                           59.317  1.316E-01
  3.276E-02
       5.70         0.                           62.768  9.881E-02
  2.721E-02
       5.70         0.                           66.435  1.081E-01
  3.385E-02
       5.70         0.                           70.102  1.203E-01
  3.620E-02
       5.70         0.                           73.877  1.024E-01
  2.820E-02
       5.70         0.                           77.975  5.776E-02
  1.591E-02
       5.70         0.                           82.181  3.563E-02
  9.346E-03
       5.70         0.                           86.603  4.186E-02
  1.042E-02
       5.70         0.                           91.456  3.693E-02
  8.694E-03
       5.70         0.                           96.956  2.724E-02
  8.196E-03
       5.70         0.                          103.427  1.905E-02
  4.484E-03
       5.70         0.                          113.241  1.939E-02
  4.297E-03
ENDDATA            616
ENDSUBENT          635
ENDENTRY             3
