ENTRY            D5192   20211208   20220321   20220321       D135
SUBENT        D5192001   20211208   20220321   20220321       D135
BIB                 13         30
TITLE      12N(15N,14N)13C reaction mechanisms at energy 81 MeV
AUTHOR     (A.T.Rudchik, A.A.Rudchik, O.E.Kutsyk, K.Rusek,
            K.W.Kemper, E.Piasecki, A.Stolarz, A.Trczinska,
            V.M.Pirnak, O.A.Ponkratenko, I.Strojek, E.I.Koshchiy,
            R.Siudak, S.B.Sakuta, V.A.Plujko, A.P.Ilyin,
            Yu.M.Stepanenko, V.V.Uleshchenko, Yu.O.Shyrma,
            V.V.Kheilo)
INSTITUTE  (4UKRIJD,3POLWWA,1USAFSU,3POLIPJ,1USATAM,3POLIFJ,
           4RUSKUR,4UKRKGU)
FACILITY   (CYCLO,3POLWWA) Cyclotron U-200P
REFERENCE  (J,YFE,21,295,2020)
           #doi:10.15407/jnpae2020.04.295
SAMPLE     A self-supporting carbon foil with a thickness of
           0.5 mg/cm2 was used as a target.
DETECTOR   (TELES,SI,SI) Three delta E-E-telescopes each one
           consisting of silicon delta E-detector and silicon
           E-detector.
           (TELES,IOCH,SI) One telescope with gas delta E-detector
           and silicon E-detector. Compressed argon was used as
           the working gas in the ionization chamber.
METHOD     (EXTB,EDE)
CORRECTION Corrected for background.
ADD-RES    (POT,COMP) Spectroscopic amplitudes, parameters of the
           nucleus-nucleus potentials were determined. Optical
           model and the coupled-reaction-channels method were
           used.
ERR-ANALYS (DATA-ERR) Errors include both the statistical errors
           and uncertainties from the spectrum fitting procedure.
STATUS     (PRELM)
HISTORY    (20211208C) UkrNDC
ENDBIB              30
COMMON               1          3
EN
MEV
81.
ENDCOMMON            3
ENDSUBENT           37
SUBENT        D5192002   20211208   20220321   20220321       D135
BIB                  4         17
REACTION   (6-C-12(7-N-15,6-C-13)7-N-14,PAR,DA)
EN-SEC     (E-LVL1,7-N-14)
           (E-LVL2,6-C-13)
LEVEL-PROP (7-N-14,E-LVL=2.313,SPIN=0.,PARITY=+1.)
           (7-N-14,E-LVL=3.948,SPIN=1.,PARITY=+1.)
           (7-N-14,E-LVL=4.915,SPIN=0.,PARITY=-1.)
           (7-N-14,E-LVL=5.106,SPIN=2.,PARITY=-1.)
           (7-N-14,E-LVL=5.690,SPIN=1.,PARITY=-1.)
           (7-N-14,E-LVL=5.832,SPIN=3.,PARITY=-1.)
           (7-N-14,E-LVL=6.204,SPIN=1.,PARITY=+1.)
           (7-N-14,E-LVL=6.444,SPIN=3.,PARITY=+1.)
           (7-N-14,E-LVL=7.028,SPIN=2.,PARITY=+1.)
           (6-C-13,E-LVL=3.088,SPIN=0.5,PARITY=+1.)
           (6-C-13,E-LVL=3.684,SPIN=1.5,PARITY=-1.)
           (6-C-13,E-LVL=3.854,SPIN=2.5,PARITY=+1.)
STATUS     (CURVE) Figs.3, 9 in Yad.Fiz.&Energetika,21,295,2020
           were digitized by GSYS2.4.7.
ENDBIB              17
NOCOMMON             0          0
DATA                 7        393
E-LVL1     E-LVL1     E-LVL2     E-LVL2     ANG-CM     DATA-CM
DATA-ERR
MEV        MEV        MEV        MEV        ADEG       MB/SR
MB/SR
         0.                    0.                18.069  2.180E+00
  7.229E-01
         0.                    0.                20.347  1.176E+00
  3.527E-01
         0.                    0.                22.801  6.612E-01
  1.872E-01
         0.                    0.                24.939  5.007E-01
  1.412E-01
         0.                    0.                27.185  3.353E-01
  1.084E-01
         0.                    0.                29.464  2.089E-01
  5.190E-02
         0.                    0.                31.746  1.809E-01
  5.266E-02
         0.                    0.                34.204  1.598E-01
  4.292E-02
         0.                    0.                36.310  1.442E-01
  3.952E-02
         0.                    0.                38.587  7.314E-02
  1.717E-02
         0.                    0.                40.864  3.280E-02
  1.008E-02
         0.                    0.                43.149  4.283E-02
  1.235E-02
         0.                    0.                50.344  2.560E-02
  7.735E-03
         0.                    0.                52.625  1.959E-02
  5.786E-03
         0.                    0.                54.906  1.530E-02
  4.832E-03
         0.                    0.                57.365  1.627E-02
  4.365E-03
         0.                    0.                59.650  1.998E-02
  5.406E-03
         0.                    0.                62.108  2.039E-02
  6.346E-03
         0.                    0.                64.391  1.917E-02
  6.121E-03
         0.                    0.                66.849  1.839E-02
  5.105E-03
         0.                    0.                69.304  1.244E-02
  3.741E-03
         0.                    0.                90.551  1.031E-02
  3.226E-03
         0.                    0.                92.834  9.894E-03
  2.810E-03
         0.                    0.                95.117  1.031E-02
  2.822E-03
         0.                    0.                97.577  1.215E-02
  3.790E-03
         0.                    0.                99.860  1.214E-02
  3.942E-03
         0.                    0.               102.142  1.118E-02
  2.982E-03
         0.                    0.               104.424  9.483E-03
  3.030E-03
         0.                    0.               106.706  8.732E-03
  2.627E-03
         0.                    0.               109.166  9.876E-03
  3.184E-03
         0.                    0.               111.451  1.238E-02
  3.881E-03
         0.                    0.               113.557  1.164E-02
  3.596E-03
         0.                    0.               115.839  1.050E-02
  2.890E-03
         0.                    0.               118.121  9.276E-03
  2.591E-03
         0.                    0.               120.404  8.900E-03
  2.576E-03
         0.                    0.               122.513  1.049E-02
  2.889E-03
         0.                    0.               124.796  1.049E-02
  3.026E-03
         0.                    0.               127.255  1.162E-02
  2.978E-03
         0.                    0.               129.186  1.115E-02
  2.821E-03
         0.                    0.               131.470  1.235E-02
  3.391E-03
         0.                    0.               138.142  1.114E-02
  3.119E-03
         0.                    0.               140.429  1.823E-02
  5.303E-03
         0.                    0.               142.538  2.239E-02
  6.850E-03
         0.                    0.               144.821  2.148E-02
  6.781E-03
         0.                    0.               147.101  1.483E-02
  3.936E-03
         0.                    0.               149.037  2.480E-02
  6.580E-03
         0.                    0.               151.323  3.740E-02
  1.048E-02
         0.                    0.               153.429  3.044E-02
  8.533E-03
         0.                    0.               155.885  2.427E-02
  6.803E-03
         0.                    0.               157.817  2.282E-02
  6.395E-03
         0.                    0.               160.105  4.140E-02
  1.339E-02
         0.                    0.               162.213  4.588E-02
  1.419E-02
         0.                 3.088                18.850  2.818E-01
  7.833E-02
         0.                 3.088                21.209  2.771E-01
  9.027E-02
         0.                 3.088                23.567  2.500E-01
  7.856E-02
         0.                 3.088                25.928  1.869E-01
  5.649E-02
         0.                 3.088                28.288  1.373E-01
  3.985E-02
         0.                 3.088                30.650  8.645E-02
  2.916E-02
         0.                 3.088                33.012  5.537E-02
  1.804E-02
         0.                 3.088                35.368  6.803E-02
  2.137E-02
         0.                 3.088                37.724  8.952E-02
  2.377E-02
         0.                 3.088                40.082  9.590E-02
  3.125E-02
         0.                 3.088                42.599  7.417E-02
  2.242E-02
         0.                 3.088                44.962  4.072E-02
  1.279E-02
         0.                 3.088                52.196  3.045E-02
  9.566E-03
         0.                 3.088                54.551  4.076E-02
  1.375E-02
         0.                 3.088                57.226  3.046E-02
  9.925E-03
         0.                 3.088                59.586  2.438E-02
  7.370E-03
         0.                 3.088                62.107  1.271E-02
  3.690E-03
         0.                 3.088                64.621  1.459E-02
  4.582E-03
         0.                 3.088                67.134  1.887E-02
  5.477E-03
         0.                 3.088                69.648  2.279E-02
  6.334E-03
         0.                 3.088                72.163  2.203E-02
  7.677E-03
         0.                 3.088                89.461  1.150E-02
  3.613E-03
         0.                 3.088                91.978  9.528E-03
  2.993E-03
         0.                 3.088                94.493  9.695E-03
  3.159E-03
         0.                 3.088                97.165  9.865E-03
  2.742E-03
         0.                 3.088                99.522  1.151E-02
  3.751E-03
         0.                 3.088               101.882  9.215E-03
  2.895E-03
         0.                 3.088               104.398  9.061E-03
  2.518E-03
         0.                 3.088               106.758  7.129E-03
  2.240E-03
         0.                 3.088               109.116  6.434E-03
  1.788E-03
         0.                 3.088               111.474  6.660E-03
  2.013E-03
         0.                 3.088               113.831  7.907E-03
  2.484E-03
         0.                 3.088               116.347  7.512E-03
  2.534E-03
         0.                 3.088               118.863  6.897E-03
  2.167E-03
         0.                 3.088               120.751  5.713E-03
  1.658E-03
         0.                 3.088               122.952  5.521E-03
  1.669E-03
         0.                 3.088               125.468  4.983E-03
  1.506E-03
         0.                 3.088               127.668  5.247E-03
  1.648E-03
         0.                 3.088               130.184  4.817E-03
  1.570E-03
         0.                 3.088               137.102  4.275E-03
  1.442E-03
         0.                 3.088               139.303  4.204E-03
  1.320E-03
         0.                 3.088               141.660  4.660E-03
  1.464E-03
         0.                 3.088               144.018  5.166E-03
  1.499E-03
         0.                 3.088               146.376  4.825E-03
  1.458E-03
         0.                 3.088               148.264  4.136E-03
  1.200E-03
         0.                 3.088               150.778  4.910E-03
  1.484E-03
         0.                 3.088               152.977  6.137E-03
  1.999E-03
         0.                 3.088               155.177  6.688E-03
  2.101E-03
         0.                 3.088               157.536  6.354E-03
  2.070E-03
         0.                 3.088               159.736  6.577E-03
  2.066E-03
         0.                 3.088               162.096  5.448E-03
  1.711E-03
      2.313                    0.                18.419  7.024E-02
  2.144E-02
      2.313                    0.                20.771  4.878E-02
  1.445E-02
      2.313                    0.                23.122  3.014E-02
  8.647E-03
      2.313                    0.                25.470  1.678E-02
  4.815E-03
      2.313                    0.                27.823  1.165E-02
  3.557E-03
      2.313                    0.                30.023  1.092E-02
  3.430E-03
      2.313                    0.                32.384  1.292E-02
  3.946E-03
      2.313                    0.                34.739  1.049E-02
  3.108E-03
      2.313                    0.                37.251  8.744E-03
  2.345E-03
      2.313                    0.                39.593  3.087E-03
  9.425E-04
      2.313                    0.                41.788  2.172E-03
  6.632E-04
      2.313                    0.                44.309  3.046E-03
  8.456E-04
      2.313                    0.                51.540  2.852E-03
  8.446E-04
      2.313                    0.                53.734  1.856E-03
  5.832E-04
      2.313                    0.                56.246  1.449E-03
  4.292E-04
      2.313                    0.                58.767  2.032E-03
  5.641E-04
      2.313                    0.                61.123  1.760E-03
  5.052E-04
      2.313                    0.                63.636  1.545E-03
  4.577E-04
      2.313                    0.                66.150  1.339E-03
  4.207E-04
      2.313                    0.                68.667  1.485E-03
  4.399E-04
      2.313                    0.                71.185  1.736E-03
  5.299E-04
      2.313                    0.                90.053  1.897E-03
  5.445E-04
      2.313                    0.                92.719  1.267E-03
  3.753E-04
      2.313                    0.                95.080  1.500E-03
  4.715E-04
      2.313                    0.                97.603  2.334E-03
  6.699E-04
      2.313                    0.                99.965  2.949E-03
  8.188E-04
      2.313                    0.               102.321  2.522E-03
  7.471E-04
      2.313                    0.               104.674  1.894E-03
  5.436E-04
      2.313                    0.               107.186  1.518E-03
  4.214E-04
      2.313                    0.               109.547  1.797E-03
  5.157E-04
      2.313                    0.               111.755  2.760E-03
  8.175E-04
      2.313                    0.               114.272  2.907E-03
  8.874E-04
      2.313                    0.               116.632  3.183E-03
  9.134E-04
      2.313                    0.               118.830  2.722E-03
  8.555E-04
      2.313                    0.               121.028  2.298E-03
  5.942E-04
      2.313                    0.               123.548  2.904E-03
  8.333E-04
      2.313                    0.               125.751  3.221E-03
  8.639E-04
      2.313                    0.               127.953  3.482E-03
  9.993E-04
      2.313                    0.               130.310  3.220E-03
  1.040E-03
      2.313                    0.               137.078  5.139E-03
  1.615E-03
      2.313                    0.               139.281  5.627E-03
  1.718E-03
      2.313                    0.               141.641  6.492E-03
  1.802E-03
      2.313                    0.               143.842  6.406E-03
  1.839E-03
      2.313                    0.               146.198  5.550E-03
  1.694E-03
      2.313                    0.               148.406  8.305E-03
  2.684E-03
      2.313                    0.               150.613  1.243E-02
  3.794E-03
      2.313                    0.               152.817  1.471E-02
  4.358E-03
      2.313                    0.               155.171  1.134E-02
  3.665E-03
      2.313                    0.               157.375  1.343E-02
  4.099E-03
      2.313                    0.               159.734  1.414E-02
  4.444E-03
      2.313                    0.               161.778  1.432E-02
  3.976E-03
      3.948              3.684000      3.854     19.082  1.220E+00
  3.525E-01
      3.948                 3.684      3.854     21.444  9.666E-01
  2.668E-01
      3.948                 3.684      3.854     23.806  7.256E-01
  2.367E-01
      3.948                 3.684      3.854     26.012  4.552E-01
  1.256E-01
      3.948                 3.684      3.854     28.531  3.944E-01
  1.189E-01
      3.948                 3.684      3.854     30.893  3.069E-01
  7.658E-02
      3.948                 3.684      3.854     33.255  2.431E-01
  7.329E-02
      3.948                 3.684      3.854     35.774  2.032E-01
  6.128E-02
      3.948                 3.684      3.854     38.138  1.252E-01
  3.456E-02
      3.948                 3.684      3.854     40.661  6.222E-02
  1.636E-02
      3.948                 3.684      3.854     43.022  5.018E-02
  1.385E-02
      3.948                 3.684      3.854     45.537  6.932E-02
  2.090E-02
      3.948                 3.684      3.854     52.782  2.880E-02
  8.684E-03
      3.948                 3.684      3.854     55.299  2.986E-02
  7.849E-03
      3.948                 3.684      3.854     57.819  2.282E-02
  6.592E-03
      3.948                 3.684      3.854     60.337  2.087E-02
  6.550E-03
      3.948                 3.684      3.854     62.700  1.381E-02
  4.165E-03
      3.948                 3.684      3.854     65.218  1.263E-02
  4.120E-03
      3.948                 3.684      3.854     67.737  1.095E-02
  3.301E-03
      3.948                 3.684      3.854     70.414  8.366E-03
  2.088E-03
      3.948                 3.684      3.854     72.776  6.168E-03
  1.936E-03
      3.948                 3.684      3.854     91.346  4.164E-03
  1.095E-03
      3.948                 3.684      3.854     93.860  6.181E-03
  1.785E-03
      3.948                 3.684      3.854     96.533  8.387E-03
  2.633E-03
      3.948                 3.684      3.854     98.892  8.696E-03
  2.622E-03
      3.948                 3.684      3.854    101.569  6.646E-03
  2.004E-03
      3.948                 3.684      3.854    103.932  4.813E-03
  1.328E-03
      3.948                 3.684      3.854    106.291  5.458E-03
  1.576E-03
      3.948                 3.684      3.854    108.806  7.541E-03
  2.459E-03
      3.948                 3.684      3.854    111.164  1.042E-02
  3.009E-03
      3.948                 3.684      3.854    113.682  9.357E-03
  2.937E-03
      3.948                 3.684      3.854    115.886  8.404E-03
  2.740E-03
      3.948                 3.684      3.854    118.406  5.564E-03
  1.678E-03
      3.948                 3.684      3.854    120.922  7.027E-03
  2.119E-03
      3.948                 3.684      3.854    122.964  1.141E-02
  3.296E-03
      3.948                 3.684      3.854    125.479  1.441E-02
  4.523E-03
      3.948                 3.684      3.854    127.840  1.366E-02
  3.591E-03
      3.948                 3.684      3.854    130.045  1.007E-02
  3.161E-03
      3.948                 3.684      3.854    136.963  1.922E-02
  5.553E-03
      3.948                 3.684      3.854    139.320  2.853E-02
  9.983E-03
      3.948                 3.684      3.854    141.682  2.428E-02
  6.383E-03
      3.948                 3.684      3.854    144.044  1.856E-02
  4.878E-03
      3.948                 3.684      3.854    146.250  1.164E-02
  3.510E-03
      3.948                 3.684      3.854    148.450  1.759E-02
  5.523E-03
      3.948                 3.684      3.854    150.806  3.125E-02
  9.420E-03
      3.948                 3.684      3.854    153.162  4.894E-02
  1.536E-02
      3.948                 3.684      3.854    155.207  5.355E-02
  1.810E-02
      3.948                 3.684      3.854    157.410  5.261E-02
  1.716E-02
      3.948                 3.684      3.854    159.930  3.879E-02
  1.311E-02
      3.948              3.684000      3.854    162.135  3.018E-02
  7.933E-03
      4.915      5.106         0.                18.601  2.189E+00
  6.733E-01
      4.915      5.106         0.                20.815  1.194E+00
  3.521E-01
      4.915      5.106         0.                23.029  6.763E-01
  1.905E-01
      4.915      5.106         0.                25.236  5.044E-01
  1.551E-01
      4.915      5.106         0.                27.603  3.432E-01
  1.056E-01
      4.915      5.106         0.                29.815  2.130E-01
  6.821E-02
      4.915      5.106         0.                32.176  1.840E-01
  5.183E-02
      4.915      5.106         0.                34.537  1.619E-01
  4.773E-02
      4.915      5.106         0.                36.740  1.478E-01
  3.561E-02
      4.915      5.106         0.                39.113  7.359E-02
  1.774E-02
      4.915      5.106         0.                41.489  3.342E-02
  1.070E-02
      4.915      5.106         0.                43.684  4.406E-02
  1.355E-02
      4.915      5.106         0.                50.770  2.592E-02
  7.637E-03
      4.915      5.106         0.                53.134  2.005E-02
  5.648E-03
      4.915      5.106         0.                55.340  1.580E-02
  4.238E-03
      4.915      5.106         0.                57.854  1.671E-02
  4.705E-03
      4.915      5.106         0.                60.208  2.047E-02
  6.295E-03
      4.915      5.106         0.                62.565  2.125E-02
  6.263E-03
      4.915      5.106         0.                64.925  1.976E-02
  6.076E-03
      4.915      5.106         0.                67.284  1.871E-02
  5.268E-03
      4.915      5.106         0.                69.808  1.273E-02
  3.586E-03
      4.915      5.106         0.                91.035  1.067E-02
  3.280E-03
      4.915      5.106         0.                93.393  1.029E-02
  3.163E-03
      4.915      5.106         0.                95.751  1.068E-02
  2.865E-03
      4.915      5.106         0.                98.105  1.261E-02
  3.551E-03
      4.915      5.106         0.               100.463  1.262E-02
  3.718E-03
      4.915      5.106         0.               102.666  1.152E-02
  3.244E-03
      4.915      5.106         0.               105.027  9.953E-03
  2.803E-03
      4.915      5.106         0.               107.230  9.085E-03
  2.437E-03
      4.915      5.106         0.               109.743  1.034E-02
  3.047E-03
      4.915      5.106         0.               111.938  1.314E-02
  3.871E-03
      4.915      5.106         0.               113.983  1.244E-02
  3.168E-03
      4.915      5.106         0.               116.501  1.095E-02
  2.936E-03
      4.915      5.106         0.               118.547  9.812E-03
  2.631E-03
      4.915      5.106         0.               120.907  9.293E-03
  2.492E-03
      4.915      5.106         0.               123.104  1.097E-02
  2.943E-03
      4.915      5.106         0.               125.305  1.098E-02
  3.090E-03
      4.915      5.106         0.               127.660  1.227E-02
  3.290E-03
      4.915      5.106         0.               129.705  1.183E-02
  3.331E-03
      4.915      5.106         0.               132.061  1.298E-02
  3.825E-03
      4.915      5.106         0.               138.665  1.186E-02
  3.495E-03
      4.915      5.106         0.               140.855  1.950E-02
  5.744E-03
      4.915      5.106         0.               143.051  2.388E-02
  7.036E-03
      4.915      5.106         0.               145.253  2.303E-02
  6.484E-03
      4.915      5.106         0.               147.462  1.596E-02
  5.108E-03
      4.915      5.106         0.               149.651  2.671E-02
  7.870E-03
      4.915      5.106         0.               151.844  3.932E-02
  1.258E-02
      4.915      5.106         0.               154.049  3.215E-02
  9.883E-03
      4.915      5.106         0.               156.254  2.628E-02
  8.412E-03
      4.915      5.106         0.               158.457  2.444E-02
  7.200E-03
      4.915      5.106         0.               160.645  4.402E-02
  1.297E-02
      4.915      5.106         0.               162.686  4.918E-02
  1.574E-02
      5.690      5.832         0.                19.473  1.266E-01
  3.958E-02
      5.690      5.832         0.                22.001  7.259E-02
  2.206E-02
      5.690      5.832         0.                24.363  5.980E-02
  1.763E-02
      5.690      5.832         0.                26.882  4.927E-02
  1.453E-02
      5.690      5.832         0.                29.243  4.275E-02
  1.299E-02
      5.690      5.832         0.                31.762  3.662E-02
  1.046E-02
      5.690      5.832         0.                34.128  2.550E-02
  7.750E-03
      5.690      5.832         0.                36.645  2.300E-02
  7.399E-03
      5.690      5.832         0.                39.174  1.237E-02
  3.184E-03
      5.690      5.832         0.                41.707  5.134E-03
  1.513E-03
      5.690      5.832         0.                44.057  7.570E-03
  2.092E-03
      5.690      5.832         0.                46.569  8.845E-03
  2.526E-03
      5.690      5.832         0.                54.128  4.821E-03
  1.551E-03
      5.690      5.832         0.                56.810  3.107E-03
  8.584E-04
      5.690      5.832         0.                59.164  3.725E-03
  1.029E-03
      5.690      5.832         0.                61.837  3.584E-03
  1.024E-03
      5.690      5.832         0.                64.508  3.925E-03
  1.228E-03
      5.690      5.832         0.                67.025  3.681E-03
  1.051E-03
      5.690      5.832         0.                69.706  2.466E-03
  7.493E-04
      5.690      5.832         0.                72.379  2.342E-03
  6.253E-04
      5.690      5.832         0.                75.053  2.225E-03
  7.158E-04
      5.690      5.832         0.                99.111  1.724E-03
  5.082E-04
      5.690      5.832         0.               101.628  1.535E-03
  4.801E-04
      5.690      5.832         0.               104.301  1.516E-03
  4.606E-04
      5.690      5.832         0.               106.816  1.556E-03
  4.299E-04
      5.690      5.832         0.               109.332  1.478E-03
  3.803E-04
      5.690      5.832         0.               111.850  1.333E-03
  4.171E-04
      5.690      5.832         0.               114.210  1.187E-03
  3.390E-04
      5.690      5.832         0.               116.727  1.085E-03
  3.098E-04
      5.690      5.832         0.               119.083  1.235E-03
  3.640E-04
      5.690      5.832         0.               121.596  1.370E-03
  4.039E-04
      5.690      5.832         0.               123.953  1.407E-03
  3.886E-04
      5.690      5.832         0.               126.470  1.319E-03
  3.644E-04
      5.690      5.832         0.               128.671  1.286E-03
  3.907E-04
      5.690      5.832         0.               135.897  1.667E-03
  5.065E-04
      5.690      5.832         0.               138.253  1.874E-03
  5.000E-04
      5.690      5.832         0.               140.768  1.923E-03
  5.669E-04
      5.690      5.832         0.               142.969  1.851E-03
  6.114E-04
      5.690      5.832         0.               145.482  2.134E-03
  5.897E-04
      5.690      5.832         0.               147.679  2.526E-03
  6.979E-04
      5.690      5.832         0.               149.873  3.403E-03
  9.716E-04
      5.690      5.832         0.               152.381  4.953E-03
  1.414E-03
      5.690      5.832         0.               154.579  5.712E-03
  1.684E-03
      5.690      5.832         0.               156.931  7.306E-03
  2.220E-03
      5.690      5.832         0.               159.289  7.309E-03
  2.154E-03
      5.690      5.832         0.               161.642  9.718E-03
  2.865E-03
      6.204      6.444         0.                19.588  6.741E-02
  2.063E-02
      6.204      6.444         0.                21.962  4.518E-02
  1.328E-02
      6.204      6.444         0.                24.336  3.420E-02
  1.047E-02
      6.204      6.444         0.                26.859  2.874E-02
  8.796E-03
      6.204      6.444         0.                29.382  2.976E-02
  9.108E-03
      6.204      6.444         0.                31.756  2.728E-02
  8.017E-03
      6.204      6.444         0.                34.279  2.065E-02
  6.567E-03
      6.204      6.444         0.                36.801  1.204E-02
  3.830E-03
      6.204      6.444         0.                39.324  7.660E-03
  1.861E-03
      6.204      6.444         0.                41.698  5.600E-03
  1.781E-03
      6.204      6.444         0.                44.221  4.872E-03
  1.432E-03
      6.204      6.444         0.                46.744  6.664E-03
  2.119E-03
      6.204      6.444         0.                54.460  2.306E-03
  7.057E-04
      6.204      6.444         0.                56.983  2.744E-03
  8.398E-04
      6.204      6.444         0.                59.505  3.562E-03
  9.578E-04
      6.204      6.444         0.                62.176  3.440E-03
  1.053E-03
      6.204      6.444         0.                64.699  3.046E-03
  9.323E-04
      6.204      6.444         0.                67.370  2.346E-03
  8.009E-04
      6.204      6.444         0.                70.041  1.839E-03
  5.629E-04
      6.204      6.444         0.                72.712  1.776E-03
  5.649E-04
      6.204      6.444         0.                75.532  2.188E-03
  6.160E-04
      6.204      6.444         0.                98.384  1.321E-03
  4.044E-04
      6.204      6.444         0.               101.055  1.600E-03
  5.089E-04
      6.204      6.444         0.               103.430  1.657E-03
  4.869E-04
      6.204      6.444         0.               106.101  1.492E-03
  4.386E-04
      6.204      6.444         0.               108.475  1.344E-03
  4.742E-04
      6.204      6.444         0.               111.146  1.299E-03
  4.130E-04
      6.204      6.444         0.               113.669  1.344E-03
  4.115E-04
      6.204      6.444         0.               116.043  1.545E-03
  4.155E-04
      6.204      6.444         0.               118.566  1.871E-03
  5.032E-04
      6.204      6.444         0.               121.088  1.938E-03
  4.708E-04
      6.204      6.444         0.               123.462  1.657E-03
  4.242E-04
      6.204      6.444         0.               125.837  1.492E-03
  4.013E-04
      6.204      6.444         0.               128.359  1.572E-03
  4.228E-04
      6.204      6.444         0.               135.482  2.151E-03
  6.321E-04
      6.204      6.444         0.               137.857  2.650E-03
  7.460E-04
      6.204      6.444         0.               140.231  2.891E-03
  8.496E-04
      6.204      6.444         0.               142.605  2.942E-03
  8.645E-04
      6.204      6.444         0.               144.979  2.697E-03
  7.925E-04
      6.204      6.444         0.               147.354  3.046E-03
  8.952E-04
      6.204      6.444         0.               149.728  3.625E-03
  1.020E-03
      6.204      6.444         0.               152.102  5.600E-03
  1.506E-03
      6.204      6.444         0.               154.477  7.527E-03
  2.119E-03
      6.204      6.444         0.               156.702  9.944E-03
  3.043E-03
      6.204      6.444         0.               159.077  9.115E-03
  2.451E-03
      6.204      6.444         0.               161.451  8.958E-03
  2.522E-03
      7.028                    0.                19.798  1.524E-01
  5.501E-02
      7.028                    0.                22.156  9.946E-02
  3.169E-02
      7.028                    0.                24.670  5.244E-02
  1.594E-02
      7.028                    0.                27.192  5.353E-02
  1.627E-02
      7.028                    0.                29.716  6.345E-02
  2.202E-02
      7.028                    0.                32.239  6.906E-02
  2.201E-02
      7.028                    0.                34.599  4.907E-02
  1.418E-02
      7.028                    0.                37.113  2.643E-02
  7.638E-03
      7.028                    0.                39.626  1.307E-02
  3.577E-03
      7.028                    0.                42.147  1.252E-02
  3.805E-03
      7.028                    0.                44.671  1.422E-02
  4.322E-03
      7.028                    0.                47.357  2.320E-02
  7.052E-03
      7.028                    0.                54.911  9.870E-03
  2.701E-03
      7.028                    0.                57.588  7.970E-03
  2.654E-03
      7.028                    0.                60.270  1.007E-02
  3.210E-03
      7.028                    0.                62.950  1.006E-02
  2.755E-03
      7.028                    0.                65.629  9.637E-03
  3.071E-03
      7.028                    0.                68.305  7.146E-03
  2.277E-03
      7.028                    0.                70.981  5.770E-03
  1.755E-03
      7.028                    0.                73.816  4.862E-03
  1.331E-03
      7.028                    0.                76.656  5.887E-03
  1.876E-03
      7.028                    0.                99.974  2.959E-03
  8.553E-04
      7.028                    0.               102.494  2.441E-03
  6.680E-04
      7.028                    0.               105.170  1.971E-03
  5.087E-04
      7.028                    0.               107.691  1.733E-03
  5.010E-04
      7.028                    0.               110.373  2.144E-03
  7.141E-04
      7.028                    0.               113.055  2.541E-03
  6.955E-04
      7.028                    0.               115.420  2.707E-03
  8.628E-04
      7.028                    0.               117.941  2.593E-03
  7.883E-04
      7.028                    0.               120.459  1.882E-03
  5.151E-04
      7.028                    0.               122.977  1.366E-03
  3.948E-04
      7.028                    0.               125.499  1.455E-03
  3.755E-04
      7.028                    0.               127.864  1.518E-03
  3.917E-04
      7.028                    0.               135.266  9.480E-04
  2.595E-04
      7.028                    0.               137.631  1.032E-03
  3.137E-04
      7.028                    0.               139.997  1.123E-03
  3.414E-04
      7.028                    0.               142.362  1.171E-03
  3.023E-04
      7.028                    0.               144.724  1.030E-03
  3.132E-04
      7.028                    0.               147.247  1.074E-03
  3.266E-04
      7.028                    0.               149.454  1.145E-03
  3.648E-04
      7.028                    0.               151.979  1.386E-03
  4.213E-04
      7.028                    0.               154.342  1.299E-03
  3.755E-04
      7.028                    0.               156.706  1.244E-03
  3.597E-04
      7.028                    0.               159.070  1.271E-03
  3.862E-04
      7.028                    0.               161.441  2.030E-03
  6.172E-04
ENDDATA            790
ENDSUBENT          812
ENDENTRY             2
