ENTRY            O1223   20091110   20100809   20100806       O041
SUBENT        O1223001   20091110   20100809   20100806       O041
BIB                 14         46
TITLE       (He3,a) reactions on the chromium isotopes.
AUTHOR     (P.David, H.H.Duhm, R.Bock, R.Stock)
INSTITUTE  (2GERBON)
           (2GERMPH)
REFERENCE  (J,NP/A,128,47,1969)
FACILITY   (VDGT,2GERMPH) EN tandem van de Graaff accelerator.
DETECTOR   (MAGSP) for alpha-particles
           (PLATE)
           (SIBAR) eight silicon surface barrier detectors-for
            chromium isotopes.
INC-SOURCE *EN-RSL*.An overall resolution of about 60 keV.
SAMPLE     Self-supporting targets were prepared by vacuum
           evaporation of metallic chromium, the thickness of the
           Cr-foil was about 100 to 150 mug/cm**2, these targets
           contained impurities and were later substituted by a
           new set of Cr targets evaporated onto thin carbon
           foils, isotopic composition-
           Cr-50-   Cr-50 95.9%+-0.1, Cr-52 3.76%+-0.05,
                    Cr-53 0.26%+-0.05, Cr-54 0.05%.
           Cr-52-   Cr-52 99.87%+-0.02, Cr-50 0.01%,
                    Cr-53 0.12%+-0.02, Cr-54 0.01%.
           Cr-53-   Cr-53 96.4%+-0.1, Cr-50 0.05%,
                    Cr-52 3.44%+-0.05, Cr-54 0.18%+-0.02.
           Cr-54-   Cr-54 97.98%+-0.04, Cr-50 0.06%,
                    Cr-52 0.43%+-0.02, Cr-53 0.59%+-0.01
MONITOR    (24-CR-52(HE3,EL)24-CR-52,,DA,,RTH)
ERR-ANALYS (ERR-S).Statistical error is reported by authors
           on figure.
           (ANG-ERR-D).Digitizing error of angle.
           (ERR-DIG).Digitizing error of data.
           (E-LVL-ERR).Error in energy of level
           (MONIT-ERR).The uncertainty due to normalization
COMMENT    *By authors*.The absolute cross sections of the
           Cr-52(he3,a) were determined by comparison with elastic
           scattering. The absolute cross section are defined with
           an accuracy of +-25%.
           Absolute cross sections scale for the other isotopes
           was calibrated with an accuracy of +-10%  relative to
           Cr-52 by measuring the (He3,a) reaction on a target of
           natural chromium, which contains all the Cr isotopes.
ADD-RES    (COMP).DWBA analysis.
           Spectrum of alpha-particles from the Cr-50(He3,a),
           Cr-52(He3,a), Cr-53(He3,a) and Cr-54(He3,a) reactions
           were observed.
STATUS     (CURVE).By CAJAD.
HISTORY    (20091110C)SB
ENDBIB              46
COMMON               6          3
EN         EN-RSL     E-LVL-ERR  ANG-ERR-D  ERR-DIG    MONIT-ERR
MEV        KEV        KEV        ADEG       PER-CENT   PER-CENT
18.        60.        20.        0.3        3.         25.
ENDCOMMON            3
ENDSUBENT           53
SUBENT        O1223002   20091110   20100809   20100806       O041
BIB                  3          4
REACTION   (24-CR-50(HE3,A)24-CR-49,PAR,DA) fig 3a
EN-SEC     (E-LVL,24-CR-49)
FLAG       (1.)It is isobaric analogue states of the low-lying
           states in 23-V-49.
ENDBIB               4
NOCOMMON             0          0
DATA                 5        203
E-LVL      ANG-CM     DATA-CM    ERR-S      FLAG
MEV        ADEG       MB/SR      PER-CENT   NO-DIM
    0.00000    5.84000    0.16400    9.00000
    0.00000    8.29000    0.17700   11.00000
    0.00000   10.52000    0.17300   10.00000
    0.00000   13.86000    0.18300    9.00000
    0.00000   15.85000    0.14900    9.00000
    0.00000   21.15000    0.09700    7.00000
    0.00000   26.61000    0.03300   30.00000
    0.00000   31.88000    0.01500   30.00000
    0.00000   36.18000    0.03000   13.00000
    0.00000   38.63000    0.03010    9.00000
    0.00000   43.90000    0.01360   13.00000
    0.00000   54.09000    0.00780   40.00000
    0.00000   59.48000    0.01200   40.00000
    0.00000   61.93000    0.01200   40.00000
    0.00000   64.82000    0.01300   30.00000
    0.27000    5.10000    7.48000
    0.27000    7.77000    7.30000
    0.27000   10.43000    6.65000
    0.27000   15.30000    4.58000
    0.27000   20.60000    3.02000
    0.27000   25.90000    1.90000
    0.27000   31.22000    1.37000
    0.27000   35.86000    0.94000
    0.27000   38.28000    0.69800
    0.27000   43.14000    0.47000
    0.27000   53.54000    0.21800
    0.27000   59.26000    0.11200    8.00000
    0.27000   61.70000    0.10200    9.00000
    0.27000   64.34000    0.07000    7.00000
    1.07000    7.76000    0.06200    8.00000
    1.07000    7.90000    0.02670
    1.07000   10.12000    0.02490
    1.07000   13.31000    0.04960
    1.07000   15.48000    0.02800   40.00000
    1.07000   20.87000    0.04600    9.00000
    1.07000   20.92000    0.07600    9.00000
    1.07000   26.22000    0.04900   24.00000
    1.07000   31.28000    0.02400   29.00000
    1.07000   36.10000    0.01090    8.00000
    1.57000    5.64000    0.20500
    1.57000    8.04000    0.11400    7.00000
    1.57000   10.86000    0.05350    4.00000
    1.57000   13.13000    0.07860    4.00000
    1.57000   16.15000    0.02850    7.00000
    1.57000   21.32000    0.04700    6.00000
    1.57000   26.23000    0.05300    9.00000
    1.57000   31.35000    0.05210
    1.57000   36.00000    0.04000   13.00000
    1.74000    5.48000    0.35600
    1.74000    7.89000    0.24800
    1.74000   10.54000    0.19300
    1.74000   13.13000    0.08070
    1.74000   19.83000    0.09800
    1.74000   26.49000    0.07600    7.00000
    1.74000   31.53000    0.03620    6.00000
    1.74000   36.36000    0.01680    7.00000
    1.98000    5.65000    2.28000
    1.98000    8.31000    2.00000   15.00000
    1.98000   10.74000    1.67000
    1.98000   13.19000    1.60000
    1.98000   15.82000    1.04000
    1.98000   20.89000    0.60000   12.00000
    1.98000   26.66000    0.47800    4.00000
    1.98000   32.00000    0.48000    8.00000
    1.98000   36.24000    0.53000    8.00000
    1.98000   38.60000    0.21400
    1.98000   43.92000    0.16100    7.00000
    1.98000   54.05000    0.05000    8.00000
    1.98000   59.57000    0.03280    8.00000
    1.98000   62.27000    0.04200   10.00000
    1.98000   64.52000    0.05100   12.00000
    2.43000    4.22000    0.18900   14.00000
    2.43000    6.88000    0.18500   12.00000
    2.43000    6.88000    0.13500   16.00000
    2.43000    9.10000    0.06900   23.00000
    2.43000   11.55000    0.12400   11.00000
    2.43000   14.88000    0.11700   17.00000
    2.43000   19.54000    0.07500   20.00000
    2.43000   25.09000    0.05100   12.00000
    2.43000   30.20000    0.05200   10.00000
    2.43000   34.86000    0.02060   10.00000
    2.58000    4.44000    2.87000
    2.58000    6.88000    1.09000    4.00000
    2.58000    9.10000    0.31400
    2.58000   11.99000    0.28200
    2.58000   14.88000    0.71600
    2.58000   19.76000    0.80800
    2.58000   25.09000    0.57000    7.00000
    2.58000   30.20000    0.30400
    2.58000   35.08000    0.24400
    2.58000   36.64000    0.35100
    2.58000   42.41000    0.17200
    2.61000    4.44000    0.54300
    2.61000    6.88000    0.55000    9.00000
    2.61000    9.77000    0.31200    9.00000
    2.61000   11.99000    0.21100
    2.61000   14.65000    0.06600   15.00000
    2.61000   20.21000    0.13600    7.00000
    2.61000   25.31000    0.11000   13.00000
    2.61000   30.86000    0.05020
    2.61000   35.08000    0.08500    8.00000
    3.24000    4.66000    0.30900    4.00000
    3.24000    7.33000    0.37100    6.00000
    3.24000    7.33000    0.28300    7.00000
    3.24000    9.99000    0.25300   11.00000
    3.24000   12.66000    0.36200
    3.24000   15.10000    0.28300    6.00000
    3.24000   25.76000    0.08000   19.00000
    3.24000   30.86000    0.05000   12.00000
    3.24000   35.08000    0.07830
    3.24000   37.53000    0.06800    6.00000
    3.24000   42.85000    0.04900   10.00000
    3.24000   53.29000    0.02120   13.00000
    3.24000   58.62000    0.03110   10.00000
    3.24000   61.06000    0.01080   22.00000
    3.24000   63.50000    0.01700   18.00000
    3.51000    4.66000    0.87000    7.00000
    3.51000    7.33000    0.89000    7.00000
    3.51000    9.99000    0.79000
    3.51000   12.43000    0.88100
    3.51000   15.32000    0.71800
    3.51000   20.43000    0.52000    6.00000
    3.51000   20.65000    0.61000    5.00000
    3.51000   25.76000    0.33000    9.00000
    3.51000   31.09000    0.16100    9.00000
    3.51000   35.53000    0.16400
    3.51000   38.19000    0.12800
    3.51000   43.30000    0.05700
    3.51000   53.73000    0.03680    8.00000
    3.51000   59.06000    0.03000   13.00000
    3.51000   61.51000    0.02200   18.00000
    3.51000   64.39000    0.01700   15.00000
    3.93000    5.11000    0.28000   14.00000
    3.93000    7.55000    0.14900    9.00000
    3.93000    7.77000    0.25600    9.00000
    3.93000   10.21000    0.14900   13.00000
    3.93000   12.66000    0.23900   10.00000
    3.93000   15.76000    0.08900   17.00000
    3.93000   20.87000    0.06200   11.00000
    3.93000   25.98000    0.07300   16.00000
    3.93000   31.31000    0.05500   18.00000
    4.76000    8.94000    1.88000    7.00000         1.
    4.76000   14.03000    2.73000                    1.
    4.76000   16.71000    1.82000                    1.
    4.76000   21.59000    1.88000                    1.
    4.76000   26.95000    1.08000    6.00000         1.
    4.76000   32.10000    0.42900    7.00000         1.
    4.76000   36.32000    0.37700    7.00000         1.
    4.76000   38.99000    0.37100                    1.
    4.76000   43.89000    0.24900    4.00000         1.
    4.76000   53.94000    0.07400    7.00000         1.
    4.76000   58.80000    0.11000    8.00000         1.
    4.76000   61.69000    0.10600    8.00000         1.
    4.76000   64.15000    0.06500    8.00000         1.
    5.19000    5.83000    0.35000   11.00000
    5.19000    8.50000    0.29500    7.00000
    5.19000   11.39000    0.23700   11.00000
    5.19000   13.17000    0.22300
    5.19000   16.28000    0.22600   10.00000
    5.19000   21.43000    0.09200   16.00000
    5.19000   26.77000    0.06800   16.00000
    5.19000   31.67000    0.05300   13.00000
    5.19000   36.11000    0.05300    9.00000
    5.57000    5.23000    1.48000                    1.
    5.57000    7.66000    1.55000                    1.
    5.57000   10.55000    1.39000    4.00000         1.
    5.57000   12.54000    1.63000                    1.
    5.57000   15.89000    1.18000                    1.
    5.57000   20.57000    0.74700                    1.
    5.57000   20.78000    1.01000                    1.
    5.57000   25.94000    0.31300                    1.
    5.57000   31.25000    0.40200                    1.
    5.57000   35.68000    0.51000    6.00000         1.
    5.57000   37.93000    0.29900                    1.
    5.57000   39.94000    0.23200                    1.
    5.57000   43.51000    0.15400                    1.
    5.57000   53.52000    0.09700    6.00000         1.
    5.57000   63.76000    0.05100    8.00000         1.
    6.43000    5.57000    1.44000
    6.43000    8.05000    0.73000   11.00000
    6.43000   10.74000    0.44200
    6.43000   12.98000    0.31000   16.00000
    6.43000   26.32000    0.18000
    6.43000   31.45000    0.10400   10.00000
    6.43000   35.67000    0.10000    9.00000
    6.47000    5.34000    2.95000                    1.
    6.47000    8.03000    1.74000                    1.
    6.47000   10.53000    0.58700                    1.
    6.47000   13.00000    0.36000    8.00000         1.
    6.47000   15.85000    0.60000                    1.
    6.47000   21.15000    0.95000                    1.
    6.47000   26.28000    0.56100                    1.
    6.47000   31.48000    0.09800                    1.
    6.47000   36.07000    0.36000   11.00000         1.
    6.76000    5.57000    0.91000                    1.
    6.76000    8.02000    0.49500                    1.
    6.76000    8.02000    0.36800                    1.
    6.76000   10.69000    0.15600                    1.
    6.76000   12.92000    0.06900   12.00000         1.
    6.76000   21.16000    0.30300    6.00000         1.
    6.76000   26.73000    0.11200   11.00000         1.
    6.76000   31.85000    0.05900    7.00000         1.
    6.76000   36.09000    0.09400
ENDDATA            205
ENDSUBENT          214
SUBENT        O1223003   20091110   20100809   20100806       O041
BIB                  4          9
REACTION   (24-CR-52(HE3,A)24-CR-51,PAR,DA) fig 3b
EN-SEC     (E-LVL,24-CR-51)
LEVEL-PROP (24-CR-51,E-LVL=0.000,SPIN=3.5,PARITY=-1.)
           (24-CR-51,E-LVL=1.910,SPIN=1.5,PARITY=-1.)
           (24-CR-51,E-LVL=2.320,SPIN=3.5,PARITY=-1.)
           (24-CR-51,E-LVL=2.770,SPIN=0.5,PARITY=+1.)
           (24-CR-51,E-LVL=3.020,SPIN=1.5,PARITY=+1.)
FLAG       (1.)It is isobaric analogue states of the low-lying
           states in 23-V-51.
ENDBIB               9
NOCOMMON             0          0
DATA                 5         77
E-LVL      ANG-CM     DATA-CM    ERR-S      FLAG
MEV        ADEG       MB/SR      PER-CENT   NO-DIM
    0.00000    5.29000   10.30000   12.00000
    0.00000    7.92000    8.80000    9.00000
    0.00000   10.35000    7.50000   11.00000
    0.00000   13.18000    6.10000   13.00000
    0.00000   15.82000    5.40000    7.00000
    0.00000   18.44000    4.30000    7.00000
    0.00000   21.27000    3.50000   11.00000
    0.00000   23.69000    2.69000    7.00000
    0.00000   26.30000    2.03000    7.00000
    0.00000   31.55000    1.31000   16.00000
    0.00000   36.81000    0.91000    9.00000
    0.00000   42.29000    0.75000   13.00000
    0.00000   47.34000    0.52000   12.00000
    1.91000    8.17000    0.34000    9.00000
    1.91000   10.74000    0.16000   19.00000
    1.91000   13.33000    0.09100   19.00000
    1.91000   15.95000    0.06000   50.00000
    1.91000   18.84000    0.09500   24.00000
    1.91000   21.33000    0.15000   27.00000
    1.91000   24.15000    0.12100   21.00000
    1.91000   26.82000    0.14300   17.00000
    1.91000   32.47000    0.08500   18.00000
    1.91000   36.99000    0.01700   50.00000
    1.91000   42.60000    0.05000   40.00000
    2.32000    5.06000    3.21000    8.00000
    2.32000    7.87000    2.08000    6.00000
    2.32000   10.54000    2.71000    5.00000
    2.32000   13.37000    2.16000    7.00000
    2.32000   15.81000    1.94000    7.00000
    2.32000   18.42000    1.45000    8.00000
    2.32000   21.26000    1.20000    8.00000
    2.32000   24.07000    0.80000    6.00000
    2.32000   26.50000    0.72000    8.00000
    2.32000   31.93000    0.36000   11.00000
    2.32000   37.02000    0.35000    9.00000
    2.32000   42.49000    0.26000   15.00000
    2.32000   47.75000    0.18900    9.00000
    2.77000    5.19000    2.56000    8.00000
    2.77000    7.95000    1.10000    6.00000
    2.77000   10.68000    0.31000   10.00000
    2.77000   13.17000    0.53000    9.00000
    2.77000   15.84000    0.63000   13.00000
    2.77000   18.71000    0.80000   11.00000
    2.77000   21.57000    0.80000   10.00000
    2.77000   23.96000    0.48000   10.00000
    2.77000   26.42000    0.55000   11.00000
    2.77000   31.99000    0.16100   14.00000
    2.77000   33.33000    0.50600    3.00000
    2.77000   37.15000    0.32000   13.00000
    2.77000   42.02000    0.25000   20.00000
    2.77000   47.69000    0.18000   17.00000
    2.77000   50.60000    0.32000   19.00000
    3.02000    5.12000    2.40000   13.00000
    3.02000    7.96000    2.30000   11.00000
    3.02000   10.77000    1.48000   11.00000
    3.02000   13.23000    1.67000   12.00000
    3.02000   16.25000    1.26000    9.00000
    3.02000   18.84000    0.72000   10.00000
    3.02000   21.64000    0.44000   14.00000
    3.02000   24.30000    0.47000   13.00000
    3.02000   26.91000    0.35000   14.00000
    3.02000   32.21000    0.37000   14.00000
    3.02000   37.89000    0.30000   13.00000
    3.02000   42.54000    0.21000   19.00000
    3.02000   48.02000    0.17000   18.00000
    6.63000    5.20000    1.37000   15.00000         1.
    6.63000    8.23000    1.14000   11.00000         1.
    6.63000   10.91000    1.52000    7.00000         1.
    6.63000   13.36000    1.65000   10.00000         1.
    6.63000   16.01000    1.63000    7.00000         1.
    6.63000   18.63000    1.25000   13.00000         1.
    6.63000   21.89000    1.31000    7.00000         1.
    6.63000   24.09000    0.87000    9.00000         1.
    6.63000   27.11000    0.66000   11.00000         1.
    6.63000   31.93000    0.33000   15.00000         1.
    6.63000   37.38000    0.20300   14.00000         1.
    6.63000   42.47000    0.21000   14.00000         1.
ENDDATA             79
ENDSUBENT           93
SUBENT        O1223004   20091110   20100809   20100806       O041
BIB                  3          4
REACTION   (24-CR-53(HE3,A)24-CR-52,PAR,DA) fig 3c
EN-SEC     (E-LVL,24-CR-52)
FLAG       (1.)It is isobaric analogue states of the low-lying
           states in 23-V-52.
ENDBIB               4
NOCOMMON             0          0
DATA                 5        147
E-LVL      ANG-CM     DATA-CM    ERR-S      FLAG
MEV        ADEG       MB/SR      PER-CENT   NO-DIM
    1.43000    4.82000    0.23200    9.00000
    1.43000    7.71000    0.21100    8.00000
    1.43000   10.41000    0.18300    8.00000
    1.43000   12.73000    0.14700   10.00000
    1.43000   15.62000    0.09000   12.00000
    1.43000   20.63000    0.06000   17.00000
    1.43000   28.54000    0.07900    9.00000
    1.43000   31.63000    0.08600   14.00000
    2.38000    5.21000    0.14200   15.00000
    2.38000    7.71000    0.06500   22.00000
    2.38000   10.03000    0.11700   12.00000
    2.38000   13.11000    0.09300   13.00000
    2.38000   15.43000    0.07400    9.00000
    2.38000   20.83000    0.02800   21.00000
    2.38000   28.35000    0.02200   30.00000
    2.38000   31.24000    0.02300   30.00000
    2.78000    5.01000    0.17000   16.00000
    2.78000    7.71000    0.15600   15.00000
    2.78000   10.41000    0.12000   13.00000
    2.78000   13.11000    0.09200   12.00000
    2.78000   15.62000    0.05900   10.00000
    2.78000   21.02000    0.03300   18.00000
    2.78000   28.73000    0.01700   40.00000
    2.78000   31.43000    0.04200   19.00000
    3.43000    5.21000    2.33000
    3.43000    7.91000    2.12000
    3.43000   10.41000    1.71000
    3.43000   13.11000    1.26000
    3.43000   15.81000    1.17000
    3.43000   21.02000    0.69400
    3.43000   26.23000    0.51000
    3.43000   28.73000    0.42900
    3.43000   31.43000    0.35400
    3.43000   36.83000    0.25000   10.00000
    3.48000   11.22000    1.01900
    3.48000   14.07000    0.95700
    3.48000   16.35000    0.70600
    3.48000   21.67000    0.47900
    3.48000   26.80000    0.30600
    3.48000   29.27000    0.31100    7.00000
    3.48000   31.74000    0.17700    8.00000
    3.48000   37.07000    0.14400    6.00000
    3.78000    5.70000    0.55000    5.00000
    3.78000    8.17000    0.49200    6.00000
    3.78000   10.64000    0.30700    7.00000
    3.78000   13.88000    0.27800
    3.78000   15.97000    0.22700   11.00000
    3.78000   21.10000    0.10900   10.00000
    3.78000   29.08000    0.09200   10.00000
    3.78000   31.74000    0.06900   13.00000
    3.78000   37.26000    0.04300   30.00000
    4.03000    5.70000    1.95000
    4.03000    8.17000    1.53000
    4.03000   10.64000    1.23000
    4.03000   13.12000    1.16000
    4.03000   15.78000    0.87800
    4.03000   21.10000    0.56500
    4.03000   28.89000    0.27500    5.00000
    4.03000   31.74000    0.33800    6.00000
    4.03000   36.88000    0.18100    7.00000
    4.62000    5.69000    0.18800   15.00000
    4.62000    8.35000    0.15400   14.00000
    4.62000   11.01000    0.13400   16.00000
    4.62000   13.10000    0.09100    8.00000
    4.62000   15.95000    0.03100   30.00000
    4.62000   21.26000    0.09400   13.00000
    4.62000   29.23000    0.05400   17.00000
    4.62000   31.51000    0.07300   18.00000
    4.62000   37.21000    0.03500   40.00000
    4.83000    5.69000    0.33000   24.00000
    4.83000    8.16000    0.16100   17.00000
    4.83000   28.85000    0.03800   24.00000
    4.83000   37.21000    0.01900   50.00000
    5.40000    5.51000    0.13700   17.00000
    5.40000    7.78000    0.13900   15.00000
    5.40000   10.44000    0.09100   18.00000
    5.40000   12.91000    0.04400   23.00000
    5.40000   15.95000    0.03500   26.00000
    5.40000   20.88000    0.05000   16.00000
    5.40000   31.32000    0.01900   30.00000
    5.56000    6.42000    0.58000    9.00000
    5.56000    8.93000    0.41000    7.00000
    5.56000   11.45000    0.17900   12.00000
    5.56000   14.14000    0.23800    9.00000
    5.56000   16.85000    0.15600   10.00000
    5.56000   22.06000    0.17700   10.00000
    5.56000   29.79000    0.05900   10.00000
    5.56000   32.49000    0.05700   18.00000
    5.56000   38.28000    0.06200   26.00000
    5.67000    6.08000    0.31000   10.00000
    5.67000    8.01000    0.16000    9.00000
    5.67000   11.10000    0.13300   11.00000
    5.67000   13.61000    0.16100   11.00000
    5.67000   15.93000    0.12100   11.00000
    5.67000   21.34000    0.07100   11.00000
    5.67000   31.76000    0.05600   18.00000
    5.67000   37.17000    0.02500   40.00000
    5.71000    7.87000    1.00500
    5.71000   10.57000    0.95000    6.00000
    5.71000   13.08000    0.70600
    5.71000   15.78000    0.78200
    5.71000   21.19000    0.56100    5.00000
    5.71000   28.91000    0.25500    6.00000
    5.71000   31.62000    0.22700    8.00000
    5.71000   37.22000    0.12900   19.00000
    6.18000    7.23000    1.08000
    6.18000    9.71000    0.55800
    6.18000   11.99000    0.37000    5.00000
    6.18000   14.85000    0.37000   14.00000
    6.18000   17.13000    0.31500
    6.18000   22.65000    0.35800
    6.18000   30.26000    0.17100    7.00000
    6.18000   38.45000    0.09300   17.00000
    6.49000    6.47000    0.45000    9.00000
    6.49000    8.95000    0.29800    7.00000
    6.49000   11.42000    0.11400   12.00000
    6.49000   14.09000    0.12700   13.00000
    6.49000   16.56000    0.15700   12.00000
    6.49000   21.89000    0.15600
    6.49000   30.07000    0.07800    8.00000
    6.49000   32.36000    0.09200   14.00000
    6.49000   38.07000    0.07200   18.00000
    6.70000    5.90000    0.42000    7.00000
    6.70000    8.57000    0.34000   12.00000
    6.70000   11.42000    0.32000    9.00000
    6.70000   13.32000    0.21500    9.00000
    6.70000   15.80000    0.17700   10.00000
    6.70000   20.94000    0.10000   10.00000
    6.70000   31.60000    0.12400   11.00000
    6.79000    5.94000    0.53000    6.00000
    6.79000    8.81000    0.31900    6.00000
    6.79000   11.49000    0.31400    6.00000
    6.79000   14.36000    0.24200    6.00000
    6.79000   16.47000    0.19400    8.00000
    6.79000   21.64000    0.15300    7.00000
    6.79000   32.17000    0.12700    8.00000
   11.29000    5.94000    0.69000    6.00000         1.
   11.29000    8.43000    0.71000    6.00000         1.
   11.29000   11.11000    0.74200                    1.
   11.29000   13.98000    0.56000    5.00000         1.
   11.29000   21.83000    0.59600                    1.
   11.29000   29.49000    0.24300    6.00000         1.
   13.61000    5.94000    1.20000                    1.
   13.61000    8.43000    0.92700                    1.
   13.61000   10.53000    0.44500                    1.
   13.61000   13.41000    0.20600                    1.
   13.61000   21.26000    0.53100                    1.
ENDDATA            149
ENDSUBENT          158
SUBENT        O1223005   20091110   20100809   20100806       O041
BIB                  4          9
REACTION   (24-CR-54(HE3,A)24-CR-53,PAR,DA) fig 3d, 3e
EN-SEC     (E-LVL,24-CR-53)
LEVEL-PROP (24-CR-53,E-LVL=0.000,SPIN=1.5,PARITY=-1.)
           (24-CR-53,E-LVL=0.580,SPIN=0.5,PARITY=-1.)
           (24-CR-53,E-LVL=1.020,SPIN=2.5,PARITY=-1.)
           (24-CR-53,E-LVL=1.300,SPIN=3.5,PARITY=-1.)
           (24-CR-53,E-LVL=1.550,SPIN=3.5,PARITY=-1.)
FLAG       (1.)It is isobaric analogue states of the low-lying
           states in 23-V-53.
ENDBIB               9
NOCOMMON             0          0
DATA                 5        291
E-LVL      ANG-CM     DATA-CM    ERR-S      FLAG
MEV        ADEG       MB/SR      PER-CENT   NO-DIM
    0.00000    6.57000    0.47000    9.00000
    0.00000    9.34000    0.29300    3.00000
    0.00000   11.42000    0.19700    4.00000
    0.00000   14.19000    0.12000    3.00000
    0.00000   16.75000    0.11100    4.00000
    0.00000   19.53000    0.09600    6.00000
    0.00000   22.32000    0.09800    3.00000
    0.00000   24.88000    0.10800    4.00000
    0.00000   27.44000    0.13200    8.00000
    0.00000   29.77000    0.14900    3.00000
    0.00000   32.32000    0.13200    5.00000
    0.00000   35.10000    0.10800    4.00000
    0.00000   37.65000    0.07440    3.00000
    0.00000   40.19000    0.04900    8.00000
    0.00000   42.51000    0.04640    3.00000
    0.00000   45.30000    0.04990    4.00000
    0.00000   47.16000    0.05100    8.00000
    0.00000   49.72000    0.05110    5.00000
    0.00000   52.27000    0.04290    3.00000
    0.00000   55.05000    0.03700    4.00000
    0.00000   57.37000    0.03430    3.00000
    0.00000   58.29000    0.02740    4.00000
    0.00000   59.91000    0.02040    3.00000
    0.00000   62.91000    0.01120    9.00000
    0.00000   65.46000    0.00830   11.00000
    0.00000   70.35000    0.01270    7.00000
    0.00000   72.68000    0.01540    5.00000
    0.00000   75.24000    0.01510    7.00000
    0.00000   79.90000    0.02100   14.00000
    0.58000    6.45000    0.12500   11.00000
    0.58000    8.99000    0.07300   10.00000
    0.58000   11.98000    0.03740    3.00000
    0.58000   14.30000    0.02610   10.00000
    0.58000   17.07000    0.01820    7.00000
    0.58000   19.39000    0.01700   16.00000
    0.58000   22.19000    0.01900   26.00000
    0.58000   24.51000    0.02100   19.00000
    0.58000   27.32000    0.03500   11.00000
    0.58000   30.12000    0.05100    4.00000
    0.58000   32.44000    0.05380    4.00000
    0.58000   35.22000    0.03760    7.00000
    0.58000   37.76000    0.02210    5.00000
    0.58000   43.08000    0.01310   11.00000
    0.58000   45.42000    0.01950    6.00000
    0.58000   47.51000    0.02010   10.00000
    0.58000   49.60000    0.01660    8.00000
    0.58000   52.15000    0.01550    9.00000
    0.58000   53.07000    0.01280    9.00000
    0.58000   54.70000    0.01450    7.00000
    0.58000   55.86000    0.01350    6.00000
    0.58000   57.26000    0.01390    4.00000
    0.58000   58.19000    0.01290    6.00000
    0.58000   60.04000    0.01100    7.00000
    0.58000   60.50000    0.00950    5.00000
    0.58000   63.28000    0.00790    6.00000
    0.58000   65.59000    0.00490    8.00000
    0.58000   70.47000    0.00470    9.00000
    0.58000   73.03000    0.00570    7.00000
    0.58000   75.59000    0.00770   12.00000
    0.58000   80.46000    0.00480   10.00000
    1.02000    6.12000    0.64000    8.00000
    1.02000    8.90000    0.57000    5.00000
    1.02000   11.22000    0.54200    4.00000
    1.02000   13.77000    0.42500    4.00000
    1.02000   16.55000    0.33400    4.00000
    1.02000   19.10000    0.25600    9.00000
    1.02000   21.88000    0.22600    4.00000
    1.02000   24.43000    0.15000    5.00000
    1.02000   26.98000    0.14300    9.00000
    1.02000   29.53000    0.12900    4.00000
    1.02000   32.32000    0.10900    5.00000
    1.02000   34.63000    0.08600    3.00000
    1.02000   37.65000    0.07950    4.00000
    1.02000   42.75000    0.05400    7.00000
    1.02000   45.30000    0.04550    4.00000
    1.02000   46.92000    0.03930    4.00000
    1.02000   49.46000    0.02430    4.00000
    1.02000   50.15000    0.01820    9.00000
    1.02000   52.00000    0.01460    6.00000
    1.02000   52.93000    0.01360    4.00000
    1.02000   54.55000    0.01200    8.00000
    1.02000   55.71000    0.01150   10.00000
    1.02000   57.10000    0.01150    9.00000
    1.02000   58.26000    0.01140   10.00000
    1.02000   60.60000    0.01420   10.00000
    1.02000   63.15000    0.01170    9.00000
    1.02000   65.47000    0.01190   11.00000
    1.02000   70.79000    0.00580   14.00000
    1.02000   72.86000    0.00348    7.00000
    1.02000   75.64000    0.00226    7.00000
    1.02000   80.52000    0.00270   11.00000
    1.30000    8.98000    0.52500    3.00000
    1.30000   11.30000    0.52500    3.00000
    1.30000   13.84000    0.37300    6.00000
    1.30000   16.63000    0.30000    4.00000
    1.30000   18.94000    0.20800    3.00000
    1.30000   19.64000    0.27200    4.00000
    1.30000   21.49000    0.16300    4.00000
    1.30000   21.73000    0.22900    3.00000
    1.30000   24.27000    0.15900    4.00000
    1.30000   26.83000    0.15900    4.00000
    1.30000   29.62000    0.15500    3.00000
    1.30000   32.16000    0.11900    9.00000
    1.30000   34.94000    0.09300   12.00000
    1.30000   37.49000    0.07300    8.00000
    1.30000   42.83000    0.05570    4.00000
    1.30000   44.91000    0.04900    6.00000
    1.30000   46.77000    0.05200    8.00000
    1.30000   49.33000    0.05180    3.00000
    1.30000   50.02000    0.04600   11.00000
    1.30000   51.87000    0.03400   12.00000
    1.30000   52.57000    0.03180    9.00000
    1.30000   54.19000    0.02560   11.00000
    1.30000   55.34000    0.02100   11.00000
    1.30000   56.50000    0.01820    3.00000
    1.30000   57.65000    0.01360    7.00000
    1.30000   59.05000    0.01390   12.00000
    1.30000   60.20000    0.01120   13.00000
    1.30000   62.99000    0.01200    6.00000
    1.30000   65.09000    0.01500    7.00000
    1.30000   69.96000    0.01120   10.00000
    1.30000   72.73000    0.00690    7.00000
    1.30000   75.05000    0.00620   10.00000
    1.30000   80.39000    0.00510   10.00000
    1.55000    5.56000    3.90000    4.00000
    1.55000    8.35000    3.73000    6.00000
    1.55000   10.90000    3.48000    6.00000
    1.55000   13.45000    2.88000    8.00000
    1.55000   16.23000    2.06000    7.00000
    1.55000   18.55000    1.83000    5.00000
    1.55000   21.33000    1.59000    4.00000
    1.55000   23.88000    1.13000    8.00000
    1.55000   26.66000    1.06000    4.00000
    1.55000   29.44000    0.87000    3.00000
    1.55000   31.76000    0.72200    3.00000
    1.55000   34.08000    0.63000    6.00000
    1.55000   37.09000    0.53100    4.00000
    1.55000   42.43000    0.38000   11.00000
    1.55000   44.75000    0.36000   11.00000
    1.55000   46.37000    0.32300    8.00000
    1.55000   48.69000    0.29400    5.00000
    1.55000   49.85000    0.23700   11.00000
    1.55000   51.94000    0.23000   13.00000
    1.55000   52.63000    0.18200   10.00000
    1.55000   54.25000    0.16500   12.00000
    1.55000   54.94000    0.13600   12.00000
    1.55000   56.56000    0.10200    7.00000
    1.55000   57.48000    0.08200    9.00000
    1.55000   59.10000    0.07700    5.00000
    1.55000   60.26000    0.06500   11.00000
    1.55000   62.58000    0.05400    7.00000
    1.55000   65.13000    0.05900   12.00000
    1.55000   70.24000    0.05000    8.00000
    1.55000   72.55000    0.03770    8.00000
    1.55000   75.10000    0.02690    8.00000
    2.79000    5.05000    0.13800   14.00000
    2.79000    7.82000    0.17800   12.00000
    2.79000   10.46000    0.08000   11.00000
    2.79000   12.94000    0.08200   13.00000
    2.79000   15.62000    0.07200   15.00000
    2.79000   18.34000    0.05000   16.00000
    2.79000   20.83000    0.04900   27.00000
    2.79000   26.08000    0.02800   18.00000
    2.79000   36.91000    0.02100   19.00000
    3.37000    5.23000    1.73000    9.00000
    3.37000    7.89000    1.62000    9.00000
    3.37000   10.59000    1.28000   11.00000
    3.37000   13.08000    1.24000    8.00000
    3.37000   15.43000    1.07000    8.00000
    3.37000   18.26000    0.99000   12.00000
    3.37000   20.54000    0.53000    8.00000
    3.37000   26.23000    0.40000    6.00000
    3.37000   30.80000    0.24200   12.00000
    3.37000   36.47000    0.20300    9.00000
    3.37000   41.53000    0.12500   12.00000
    3.60000    5.19000    0.24000   13.00000
    3.60000    7.85000    0.23000   17.00000
    3.60000   10.26000    0.14200   10.00000
    3.60000   12.68000    0.08500   11.00000
    3.60000   15.40000    0.06000   13.00000
    3.60000   17.95000    0.10000   17.00000
    3.60000   26.04000    0.05100   12.00000
    3.60000   36.75000    0.03000   13.00000
    3.60000   41.67000    0.01670   15.00000
    3.71000    5.12000    0.22300   12.00000
    3.71000    7.64000    0.18600   11.00000
    3.71000   10.60000    0.21400   14.00000
    3.71000   12.75000    0.21100   14.00000
    3.71000   15.61000    0.17100    9.00000
    3.71000   18.26000    0.17700   11.00000
    3.71000   20.90000    0.07900   15.00000
    3.71000   26.15000    0.10400   14.00000
    3.71000   36.57000    0.02170   13.00000
    3.71000   41.75000    0.01700   18.00000
    3.84000    5.29000    0.15100    9.00000
    3.84000    7.90000    0.18600   12.00000
    3.84000   10.65000    0.11100    8.00000
    3.84000   13.27000    0.13000   11.00000
    3.84000   16.16000    0.09300   14.00000
    3.84000   18.35000    0.08000   19.00000
    3.84000   21.17000    0.07700   16.00000
    3.84000   26.20000    0.02600   15.00000
    3.84000   36.73000    0.01630   16.00000
    3.99000    5.07000    0.11900   11.00000
    3.99000    7.57000    0.11100   17.00000
    3.99000   10.45000    0.03500   23.00000
    3.99000   13.00000    0.02400   21.00000
    3.99000   16.01000    0.02200   23.00000
    3.99000   18.57000    0.03400   24.00000
    3.99000   21.21000    0.03800   29.00000
    3.99000   26.26000    0.02500   12.00000
    3.99000   36.86000    0.02500   16.00000
    4.20000    5.26000    0.15300   18.00000
    4.20000    7.87000    0.19100   10.00000
    4.20000   10.56000    0.15700   10.00000
    4.20000   13.07000    0.13700   12.00000
    4.20000   15.93000    0.11500   11.00000
    4.20000   18.21000    0.06100   18.00000
    4.20000   21.03000    0.05900   15.00000
    4.20000   26.39000    0.04400   14.00000
    4.20000   37.06000    0.03300   12.00000
    4.34000    2.39000    0.17100    9.00000
    4.34000    4.62000    0.17100   12.00000
    4.34000    7.27000    0.14500   10.00000
    4.34000    9.91000    0.12800   14.00000
    4.34000   12.56000    0.10600    8.00000
    4.34000   15.18000    0.11800   12.00000
    4.34000   17.46000    0.07500   19.00000
    4.34000   23.02000    0.03500   11.00000
    4.34000   33.56000    0.03100   13.00000
    4.43000    2.88000    1.03000    5.00000
    4.43000    5.17000    0.62000   11.00000
    4.43000    8.39000    0.12000   13.00000
    4.43000   10.77000    0.18200   12.00000
    4.43000   13.12000    0.35600    8.00000
    4.43000   15.72000    0.47000   11.00000
    4.43000   18.61000    0.29400    9.00000
    4.43000   23.93000    0.18000    8.00000
    4.43000   29.03000    0.12500   15.00000
    4.54000    2.81000    0.21000   14.00000
    4.54000    5.41000    0.28000   14.00000
    4.54000    8.29000    0.19300   11.00000
    4.54000   10.72000    0.18200   10.00000
    4.54000   13.55000    0.19800    9.00000
    4.54000   16.02000    0.14000   11.00000
    4.54000   18.69000    0.09900   15.00000
    4.54000   23.83000    0.04900   12.00000
    4.54000   34.40000    0.03200   13.00000
    4.54000   39.67000    0.03000   13.00000
    4.71000    3.66000    0.85000   11.00000
    4.71000    6.11000    0.72000   10.00000
    4.71000    8.76000    0.61000   10.00000
    4.71000   11.38000    0.69000    9.00000
    4.71000   14.45000    0.51000    8.00000
    4.71000   16.71000    0.38000   11.00000
    4.71000   19.62000    0.20200   13.00000
    4.71000   24.68000    0.20200    9.00000
    4.71000   29.76000    0.17200    8.00000
    4.71000   40.78000    0.08100   11.00000
    5.55000    4.25000    0.35000    9.00000
    5.55000    6.68000    0.34000    9.00000
    5.55000    9.55000    0.26300   10.00000
    5.55000   12.00000    0.22000   14.00000
    5.55000   14.82000    0.23300    6.00000
    5.55000   17.28000    0.17900   12.00000
    5.55000   19.75000    0.13100   18.00000
    5.55000   25.08000    0.07500   13.00000
    5.55000   30.34000    0.07300   12.00000
    5.55000   35.49000    0.03500   11.00000
   10.65000    7.41000    0.39000    8.00000         1.
   10.65000   10.04000    0.39000   10.00000         1.
   10.65000   12.64000    0.50000   12.00000         1.
   10.65000   15.48000    0.48000   17.00000         1.
   10.65000   18.11000    0.45000   11.00000         1.
   10.65000   20.53000    0.51400    3.00000         1.
   10.65000   22.97000    0.44000   14.00000         1.
   10.65000   25.64000    0.33000   12.00000         1.
   12.53000    7.38000    0.89000   13.00000         1.
   12.53000   10.51000    0.39000   15.00000         1.
   12.53000   12.91000    0.09000   18.00000         1.
   12.53000   15.70000    0.13300   19.00000         1.
   12.53000   15.70000    0.13000    8.00000         1.
   12.53000   17.66000    0.21700    6.00000         1.
   12.53000   18.04000    0.27200   10.00000         1.
   12.53000   25.41000    0.13000   12.00000         1.
   12.59000    8.05000    0.16000   19.00000         1.
   12.59000   10.63000    0.26000   15.00000         1.
   12.59000   13.08000    0.21000   24.00000         1.
   12.59000   15.70000    0.24000   21.00000         1.
   12.59000   18.31000    0.28000   18.00000         1.
   12.59000   20.96000    0.24000   17.00000         1.
ENDDATA            293
ENDSUBENT          307
ENDENTRY             5
