ENTRY            O1240   20091111   20100809   20100806       O041
SUBENT        O1240001   20091111   20100809   20100806       O041
BIB                 13         28
TITLE      Study of the P-31(He3,p)S-33 reaction.
AUTHOR     (H.Nann, B.Hubert, R.Bass)
REFERENCE  (J,NP/A,176,553,1971)
INSTITUTE  (2GERFRK)
SAMPLE     The targets were prepared by vacuum evaporation of
           Zn3P2 onto thin carbon backings. On the Zn3P2 layer a
           thin overlay of Au was evaporated, which prevented a
           loss of phosphorus by evaporation during bombardment.
           The measured areal density of the phosphorus was
           approx. 70 mug/cm**2.
FACILITY   (VDG,2GERFRK)
DETECTOR   (SIBAR) 16 Si surface-barrier detectors.
INC-SOURCE *EN-RSL*.The overall experimental resolution due to
           target thickness, detector resolution, finite angular
           acceptance, energy straggling in the aluminum foils
           and electronics was approximately 160 keV.
METHOD     (BCINT)
ADD-RES    (COMP).DWBA analysis.
           (P-SPC).Proton spectrum from the P-31(He3,p)S-33
           reaction was observed.
ERR-ANALYS (DATA-ERR).The error bars is typical statistical errors
           and uncertainties in the subtraction of background and
           in the determination of the solid angles.
           (ERR-1).The error assigned to the absolute differential
           cross section is 20% and is due to inaccuracies in the
           target thickness and in the beam current integration.
STATUS     (CURVE) By CAJAD
HISTORY    (20091111C) SB
ENDBIB              28
COMMON               2          3
EN-RSL     ERR-1
KEV        PER-CENT
160.       20.
ENDCOMMON            3
ENDSUBENT           35
SUBENT        O1240002   20091109   20100809   20100806       O041
BIB                  3          4
REACTION   (15-P-31(HE3,P)16-S-33,PAR,DA) fig 2,3
EN-SEC     (E-LVL,16-S-33)
ERR-ANALYS (ANG-ERR-D).Digitizing error of angle.
           (ERR-DIG).Digitizing error of data.
ENDBIB               4
COMMON               2          3
ANG-ERR-D  ERR-DIG
ADEG       PER-CENT
0.5        2.4
ENDCOMMON            3
DATA                 5        317
E-LVL      EN         ANG-CM     DATA-CM    DATA-ERR
MEV        MEV        ADEG       MU-B/SR    PER-CENT
    0.00000    6.00000   11.40000   33.50000
    0.00000    6.00000   16.20000   39.10000
    0.00000    6.00000   20.90000   39.00000
    0.00000    6.00000   25.70000   39.00000
    0.00000    6.00000   31.20000   42.00000   14.00000
    0.00000    6.00000   36.00000   39.60000
    0.00000    6.00000   41.20000   37.60000
    0.00000    6.00000   47.00000   36.30000
    0.00000    6.00000   51.80000   30.00000   17.00000
    0.00000    6.00000   56.90000   24.50000
    0.00000    6.00000   62.00000   23.30000
    0.00000    6.00000   66.80000   21.70000
    0.00000    6.00000   71.90000   21.70000
    0.00000    6.00000   76.70000   18.00000
    0.00000    6.00000   81.90000   23.60000
    0.00000    6.00000   87.40000   23.50000   13.00000
    0.00000    6.00000   91.80000   19.50000
    0.00000    6.00000   96.60000   22.30000
    0.00000    6.00000  102.10000   21.90000
    0.00000    6.00000  106.80000   19.10000
    0.00000    6.00000  111.60000   18.50000
    0.00000    6.00000  116.40000   20.40000
    0.00000    6.00000  121.50000   18.40000
    0.00000    6.00000  126.30000   19.10000
    0.00000    6.00000  131.10000   20.00000
    0.00000    6.00000  135.90000   22.20000
    0.00000    6.00000  140.30000   21.80000
    0.00000    8.00000   11.40000   38.60000
    0.00000    8.00000   16.60000   45.00000
    0.00000    8.00000   21.00000   49.00000
    0.00000    8.00000   26.50000   57.20000
    0.00000    8.00000   31.70000   62.00000   11.00000
    0.00000    8.00000   36.10000   63.20000
    0.00000    8.00000   41.20000   58.80000
    0.00000    8.00000   46.30000   52.90000
    0.00000    8.00000   51.80000   45.90000
    0.00000    8.00000   56.60000   42.00000   14.00000
    0.00000    8.00000   61.70000   41.10000
    0.00000    8.00000   67.20000   36.90000
    0.00000    8.00000   72.00000   31.50000
    0.00000    8.00000   77.50000   33.70000
    0.00000    8.00000   82.30000   27.20000
    0.00000    8.00000   87.10000   30.70000
    0.00000    8.00000   92.20000   29.00000   17.00000
    0.00000    8.00000   97.00000   31.70000
    0.00000    8.00000  102.10000   31.60000
    0.00000    8.00000  106.90000   32.60000
    0.00000    8.00000  112.10000   33.70000
    0.00000    8.00000  116.50000   31.40000
    0.00000    8.00000  121.20000   29.70000
    0.00000    8.00000  126.70000   28.60000
    0.00000    8.00000  131.90000   32.20000
    0.00000    8.00000  136.00000   35.70000
    0.00000    8.00000  141.10000   37.50000
    0.00000   10.00000   11.10000   51.50000
    0.00000   10.00000   15.50000   61.10000
    0.00000   10.00000   20.70000   75.20000
    0.00000   10.00000   26.60000   78.80000
    0.00000   10.00000   31.30000   76.00000    7.00000
    0.00000   10.00000   36.50000   64.10000
    0.00000   10.00000   41.20000   43.20000
    0.00000   10.00000   45.90000   31.20000
    0.00000   10.00000   51.70000   21.40000
    0.00000   10.00000   56.50000   18.00000   17.00000
    0.00000   10.00000   61.30000   19.30000
    0.00000   10.00000   66.40000   22.60000
    0.00000   10.00000   71.90000   17.20000
    0.00000   10.00000   76.30000   18.00000
    0.00000   10.00000   82.20000   16.70000
    0.00000   10.00000   86.60000   14.70000
    0.00000   10.00000   91.30000   12.70000   13.00000
    0.00000   10.00000   96.10000   14.30000
    0.00000   10.00000  102.00000   13.70000
    0.00000   10.00000  106.40000   14.10000
    0.00000   10.00000  111.60000   16.40000
    0.00000   10.00000  116.40000   18.50000
    0.00000   10.00000  120.80000   19.40000
    0.00000   10.00000  125.60000   21.10000
    0.00000   10.00000  131.10000   23.30000
    0.00000   10.00000  135.90000   19.80000
    0.00000   10.00000  141.00000   19.30000
    0.00000   12.00000   10.60000   51.10000
    0.00000   12.00000   15.70000   64.50000
    0.00000   12.00000   20.50000   74.80000
    0.00000   12.00000   25.70000   84.00000   10.00000
    0.00000   12.00000   30.90000   76.80000
    0.00000   12.00000   36.00000   54.60000
    0.00000   12.00000   41.40000   34.50000
    0.00000   12.00000   46.20000   24.10000
    0.00000   12.00000   50.90000   20.70000
    0.00000   12.00000   55.70000   22.00000
    0.00000   12.00000   61.60000   21.60000   11.00000
    0.00000   12.00000   66.40000   20.40000
    0.00000   12.00000   71.90000   19.00000
    0.00000   12.00000   76.70000   16.80000
    0.00000   12.00000   81.80000   16.00000
    0.00000   12.00000   86.60000   17.60000   15.00000
    0.00000   12.00000   92.10000   16.10000
    0.00000   12.00000   96.20000   16.10000
    0.00000   12.00000  101.70000   13.70000
    0.00000   12.00000  107.20000   11.57000
    0.00000   12.00000  111.20000   10.78000
    0.00000   12.00000  116.70000    9.22000
    0.00000   12.00000  121.50000   12.25000
    0.00000   12.00000  126.70000   12.00000
    0.00000   12.00000  131.10000   12.37000
    0.00000   12.00000  135.90000   14.10000
    0.00000   12.00000  141.10000   14.10000
    0.00000   14.00000   10.10000   65.80000
    0.00000   14.00000   15.60000   72.60000
    0.00000   14.00000   20.40000   76.30000
    0.00000   14.00000   25.60000   80.00000    8.00000
    0.00000   14.00000   30.00000   76.30000
    0.00000   14.00000   35.50000   52.20000
    0.00000   14.00000   41.30000   34.00000
    0.00000   14.00000   46.10000   24.40000
    0.00000   14.00000   50.80000   20.30000
    0.00000   14.00000   55.60000   20.00000    9.00000
    0.00000   14.00000   60.00000   15.90000
    0.00000   14.00000   65.50000   12.80000
    0.00000   14.00000   71.00000   12.80000
    0.00000   14.00000   77.30000   13.40000
    0.00000   14.00000   82.10000   13.90000   12.00000
    0.00000   14.00000   87.20000   11.59000
    0.00000   14.00000   91.60000    9.04000
    0.00000   14.00000   96.00000    7.42000
    0.00000   14.00000  101.10000    6.83000
    0.00000   14.00000  106.60000    7.66000
    0.00000   14.00000  111.10000    8.89000
    0.00000   14.00000  116.20000    8.89000
    0.00000   14.00000  121.40000    9.66000
    0.00000   14.00000  125.80000    8.19000
    0.00000   14.00000  130.90000    7.92000
    0.00000   14.00000  135.70000    7.29000
    0.00000   14.00000  141.60000    7.79000
    0.84200    6.00000   10.60000   29.30000
    0.84200    6.00000   15.40000   26.40000
    0.84200    6.00000   20.20000   23.00000   22.00000
    0.84200    6.00000   25.80000   24.10000
    0.84200    6.00000   30.60000   23.70000
    0.84200    6.00000   35.80000   22.80000
    0.84200    6.00000   40.60000   21.30000
    0.84200    6.00000   45.40000   22.80000
    0.84200    6.00000   51.00000   22.30000
    0.84200    6.00000   56.20000   21.50000
    0.84200    6.00000   61.00000   20.00000   20.00000
    0.84200    6.00000   66.50000   18.40000
    0.84200    6.00000   71.70000   17.20000
    0.84200    6.00000   76.90000   16.80000
    0.84200    6.00000   81.30000   15.70000
    0.84200    6.00000   86.50000   16.00000   19.00000
    0.84200    6.00000   92.10000   15.10000
    0.84200    6.00000   96.10000   14.60000
    0.84200    6.00000  101.70000   16.70000
    0.84200    6.00000  106.20000   19.10000
    0.84200    6.00000  111.80000   21.90000
    0.84200    6.00000  115.50000   25.50000
    0.84200    6.00000  121.10000   28.20000
    0.84200    6.00000  126.30000   31.20000
    0.84200    6.00000  131.10000   37.50000
    0.84200    6.00000  135.50000   39.50000
    0.84200    6.00000  140.40000   38.70000
    0.84200    8.00000   10.30000  161.00000
    0.84200    8.00000   15.10000  119.00000
    0.84200    8.00000   20.60000   81.60000
    0.84200    8.00000   25.40000   61.00000   16.00000
    0.84200    8.00000   30.90000   40.00000
    0.84200    8.00000   36.10000   36.70000
    0.84200    8.00000   40.90000   33.00000
    0.84200    8.00000   46.00000   27.20000
    0.84200    8.00000   51.20000   26.70000
    0.84200    8.00000   56.40000   32.20000
    0.84200    8.00000   62.00000   28.00000   18.00000
    0.84200    8.00000   66.80000   27.90000
    0.84200    8.00000   71.60000   24.70000
    0.84200    8.00000   76.80000   22.20000
    0.84200    8.00000   82.00000   17.40000
    0.84200    8.00000   86.80000   17.00000   24.00000
    0.84200    8.00000   91.20000   17.40000
    0.84200    8.00000   96.80000   19.90000
    0.84200    8.00000  101.30000   22.80000
    0.84200    8.00000  106.80000   25.20000
    0.84200    8.00000  111.60000   23.90000
    0.84200    8.00000  116.50000   26.40000
    0.84200    8.00000  121.30000   29.80000
    0.84200    8.00000  126.50000   23.30000
    0.84200    8.00000  130.90000   22.90000
    0.84200    8.00000  136.10000   20.60000
    0.84200    8.00000  140.20000   27.10000
    0.84200   10.00000   10.50000  175.00000
    0.84200   10.00000   15.70000   94.70000
    0.84200   10.00000   20.00000   47.90000
    0.84200   10.00000   25.50000   31.00000   13.00000
    0.84200   10.00000   31.10000   28.40000
    0.84200   10.00000   35.50000   29.70000
    0.84200   10.00000   41.50000   29.90000
    0.84200   10.00000   45.50000   22.30000
    0.84200   10.00000   50.70000   16.40000
    0.84200   10.00000   56.60000   13.50000   17.00000
    0.84200   10.00000   61.00000   12.31000
    0.84200   10.00000   66.60000   12.64000
    0.84200   10.00000   70.70000   13.00000
    0.84200   10.00000   76.20000   10.35000
    0.84200   10.00000   81.40000    7.98000
    0.84200   10.00000   86.50000    6.10000   18.00000
    0.84200   10.00000   91.00000    4.66000
    0.84200   10.00000   95.40000    6.39000
    0.84200   10.00000  100.60000    7.14000
    0.84200   10.00000  106.60000    7.71000
    0.84200   10.00000  111.00000    9.38000
    0.84200   10.00000  116.30000   12.21000
    0.84200   10.00000  121.10000   12.34000
    0.84200   10.00000  126.30000   11.07000
    0.84200   10.00000  130.70000    9.94000
    0.84200   10.00000  135.50000    8.06000
    0.84200   10.00000  140.70000    6.87000
    0.84200   12.00000   10.40000  180.00000
    0.84200   12.00000   15.20000  107.30000
    0.84200   12.00000   19.90000   52.00000    8.00000
    0.84200   12.00000   25.80000   38.60000
    0.84200   12.00000   30.60000   32.10000
    0.84200   12.00000   35.00000   27.60000
    0.84200   12.00000   40.90000   17.30000
    0.84200   12.00000   46.10000   12.80000   15.00000
    0.84200   12.00000   50.90000   17.30000
    0.84200   12.00000   56.50000   21.80000
    0.84200   12.00000   61.30000   24.10000
    0.84200   12.00000   66.20000   27.10000
    0.84200   12.00000   71.30000   20.10000
    0.84200   12.00000   76.50000   11.95000
    0.84200   12.00000   81.20000    6.54000
    0.84200   12.00000   86.80000    6.30000   19.00000
    0.84200   12.00000   91.20000    5.00000
    0.84200   12.00000   95.70000    8.54000
    0.84200   12.00000  101.30000   11.74000
    0.84200   12.00000  106.50000   13.00000
    0.84200   12.00000  111.30000   11.93000
    0.84200   12.00000  116.90000   14.30000
    0.84200   12.00000  121.30000   12.13000
    0.84200   12.00000  126.10000   12.75000
    0.84200   12.00000  131.30000    9.75000
    0.84200   12.00000  136.10000   12.32000
    0.84200   12.00000  140.20000   13.00000
    0.84200   14.00000    9.20000  150.00000
    0.84200   14.00000   14.30000   79.20000
    0.84200   14.00000   20.10000   40.00000   10.00000
    0.84200   14.00000   25.70000   35.40000
    0.84200   14.00000   30.50000   31.60000
    0.84200   14.00000   35.60000   24.60000
    0.84200   14.00000   40.40000   12.80000   15.00000
    0.84200   14.00000   45.20000   10.46000
    0.84200   14.00000   50.40000   15.20000
    0.84200   14.00000   55.30000   21.40000
    0.84200   14.00000   61.20000   21.10000
    0.84200   14.00000   66.00000   16.70000
    0.84200   14.00000   71.50000    7.96000
    0.84200   14.00000   76.60000    3.74000
    0.84200   14.00000   81.40000    3.69000
    0.84200   14.00000   86.60000    6.50000   12.00000
    0.84200   14.00000   91.50000    6.92000
    0.84200   14.00000   96.70000    6.94000
    0.84200   14.00000  101.90000    7.57000
    0.84200   14.00000  107.00000    4.98000
    0.84200   14.00000  111.80000    4.36000
    0.84200   14.00000  116.30000    4.16000
    0.84200   14.00000  122.20000    4.32000
    0.84200   14.00000  126.60000    4.55000
    0.84200   14.00000  131.40000    3.73000
    0.84200   14.00000  136.70000    4.81000
    0.84200   14.00000  140.40000    4.99000
    1.96800   14.00000   10.80000   18.30000
    1.96800   14.00000   16.00000   19.20000
    1.96800   14.00000   22.00000   23.90000    7.00000
    1.96800   14.00000   27.10000   24.50000
    1.96800   14.00000   30.90000   21.90000
    1.96800   14.00000   52.80000    7.20000   10.00000
    1.96800   14.00000   57.00000    7.51000
    1.96800   14.00000   62.10000    7.19000
    1.96800   14.00000   66.80000    8.78000
    1.96800   14.00000   71.90000    9.59000
    1.96800   14.00000   77.00000    9.40000   10.00000
    1.96800   14.00000   81.70000    8.06000
    1.96800   14.00000   86.80000    6.20000
    1.96800   14.00000   91.90000    5.68000
    1.96800   14.00000   96.60000    5.30000    9.00000
    1.96800   14.00000  101.20000    5.33000
    1.96800   14.00000  105.90000    4.19000
    1.96800   14.00000  111.50000    4.19000
    1.96800   14.00000  115.20000    4.02000
    1.96800   14.00000  121.30000    4.39000
    1.96800   14.00000  126.00000    4.30000    9.00000
    2.31300   14.00000   11.20000   25.30000
    2.31300   14.00000   16.20000   20.40000
    2.31300   14.00000   21.40000   24.90000
    2.31300   14.00000   27.50000   24.40000    9.00000
    2.31300   14.00000   32.10000   20.10000
    2.31300   14.00000   35.90000   18.10000
    2.31300   14.00000   41.90000   14.60000
    2.31300   14.00000   46.50000   12.00000
    2.31300   14.00000   52.50000    9.10000    9.00000
    2.31300   14.00000   62.70000    6.28000
    2.31300   14.00000   67.40000    5.40000
    2.31300   14.00000   72.00000    4.75000
    2.31300   14.00000   77.60000    4.56000
    2.31300   14.00000   82.20000    3.80000   13.00000
    2.31300   14.00000   86.40000    3.45000
    2.31300   14.00000   92.00000    3.38000
    2.31300   14.00000   97.20000    3.46000
    2.31300   14.00000  102.40000    3.87000
    2.31300   14.00000  106.60000    4.05000
    2.31300   14.00000  112.20000    4.06000
    2.31300   14.00000  117.40000    4.50000   11.00000
    2.31300   14.00000  122.10000    5.18000
    2.31300   14.00000  127.30000    5.67000
    2.31300   14.00000  132.90000    5.68000
    2.31300   14.00000  137.60000    5.82000
    2.31300   14.00000  141.80000    5.83000
ENDDATA            319
ENDSUBENT          332
ENDENTRY             2
