ENTRY            21109   20191104   20200128   20200115       2283
SUBENT        21109001   20191104   20200128   20200115       2283
BIB                  8         23
TITLE       The neutron resonance parameters and average capture
            cross-section of Ho-165
AUTHOR     (M.Asghar,C.M.Chaffey,M.C.Moxon)
REFERENCE  (J,NP/A,108,535,1968)
           (C,66TRIESTE,,831,1966) Graph.
           (S,EANDC-50-S,(1),(65),1965) - full report, abstract
            was published in 65ANTWERP,,522(65),1965.
           (P,AERE-PR/NP-8,9,1965) Abstract.
INSTITUTE  (2UK HAR)
FACILITY   (LINAC,2UK HAR) 45 MeV electron Linac.
INC-SOURCE  Pulsed neutron source using boosted neutron target.
METHOD     (TOF) Time-of-flight.
            Flight path of 50 meters for scattering, and 32.5 m
            for capture measurements.
HISTORY    (19790903C)
           (19800131A) full set of references added,
                       data unchanged
           (19800227A) reaction strings corrected.
           (19800314A) Subwork 003 and 004 corrected.
           (20191104A) SD:Updated to new date formats,lower case.
           Ref. corrected (65ANTWERP,522 -> EANDC-50-S,(1),(65)).
           Data from fig.2 were digitized. Corrections in all
           Subents.
ENDBIB              23
NOCOMMON             0          0
ENDSUBENT           26
SUBENT        21109002   20191104   20200128   20200115       2283
BIB                  8         15
REACTION   (67-HO-165(N,EL),,WID,,S0)
SAMPLE      Metallic sample of thickness 0.9322E-04 atom/barn.
DETECTOR   (SCIN) Lithium glass scintillator placed at flight
                   path of 50 meteres. Timing resolution 6 nsec/m.
ANALYSIS   (AREA) From measured scattering yield of Ho in fig.3
                   of the publication and of a 5.48 atoms/b
                   calibration sample.
CORRECTION  Resonance self screening, Doppler broadening and
            multiple scattering corrections applied to the
            observed resonance areas.
ERR-ANALYS (DATA-ERR) No information about source of uncertainties
STATUS     (TABLE) Table 1 from Nucl.Phys.,A108(1968)535
           (COREL,21109003) Data from 3.398E-04 atoms/b sample
HISTORY    (19800227A)
           (20191104U) SD: STATUS updated. THICKNESS deleted.
ENDBIB              15
NOCOMMON             0          0
DATA                 3         26
EN-RES     DATA       DATA-ERR
EV         B*EV       B*EV
       35.3       29.7        5.3
       39.4      141.7        6.0
       47.4      161.0        7.1
       51.4      465.7       14.0
       60.0      105.2        5.6
       71.3      127.6        6.8
       83.8       30.7        5.3
       85.5      304.6       15.4
       93.3      800.2       17.2
      101.8       63.1        6.4
      117.8       24.1        4.0
      124.5      168.3       10.0
      126.6       69.0        7.5
      128.1       48.0        7.5
      150.8      127.2       10.4
      163.9       22.0        8.2
      169.5       40.0        8.8
      180.8       45.1       10.5
      189.6       25.5        9.1
      201.9      290.0       13.5
      214.2      155.8       13.0
      220.4       51.5       11.4
      239.2       57.1       11.4
      255.2      336.4       21.0
      260.7       38.0       17.5
      299.0      332.2       19.2
ENDDATA             28
ENDSUBENT           48
SUBENT        21109003   20191104   20200128   20200115       2283
BIB                  8         16
REACTION   (67-HO-165(N,EL),,WID,,S0)
SAMPLE      Metallic sample of thickness 3.398E-04 atom/barn.
DETECTOR   (SCIN ) Lithium glass scintillator placed at flight
                   path of 50 meters. Timing resolution 6 nsec/m.
ANALYSIS   (AREA ) From measured scattering yield of Ho in fig.3
                   of the publication and of a 5.48 atoms/b
                   calibration sample.
CORRECTION  Resonance self screening, Doppler broadening and
            multiple scattering corrections applied to the
            observed resonance areas.
ERR-ANALYS (DATA-ERR) No information about source of uncertainties
STATUS     (TABLE) Table 1 from Nucl.Phys.,A108(1968)535
           (COREL,21109002) Data from 9.322E-05 atoms/b sample
HISTORY    (19800227A)
           (19800314A)
           (20191104U) SD: STATUS updated. THICKNESS deleted.
ENDBIB              16
NOCOMMON             0          0
DATA                 3         26
EN-RES     DATA       DATA-ERR
EV         B*EV       B*EV
       35.3       22.4        3.0
       39.4      130.6        2.3
       47.4      167.6        3.3
       51.4      472.1        7.2
       60.0      109.7        5.0
       71.3      128.5        3.0
       83.8       26.9        2.3
       85.5      282.5        9.5
       93.3      816.7       10.0
      101.8       55.6        2.6
      117.8       23.0        2.3
      124.5      160.3        4.7
      126.6       74.7        7.6
      128.1       48.3        5.4
      150.8      131.9        5.6
      163.9       23.3        3.1
      169.5       37.0        2.1
      180.8       53.4        4.0
      189.6       24.3        3.4
      201.9      292.1        7.1
      214.2      152.5        5.5
      220.4       56.8        4.3
      239.2       55.0        5.3
      255.2      357.1        8.0
      260.7       55.3        5.2
      299.0      331.1       16.5
ENDDATA             28
ENDSUBENT           49
SUBENT        21109004   20191104   20200128   20200115       2283
BIB                  5         10
REACTION   (67-HO-165(N,G)67-HO-166,,SIG)
SAMPLE      3 Metallic samples. Two 8 cm diameter discs of
            thickness 0.9332E-04 and 3.398E-04 atoms/b, one
            square of side 2.5 cm and thickness 1.596E-03
            atom/b.
DETECTOR   (MOXR ) Moxon-RaE detector placed at flight path of
                   32.5 meters. Timing resolution 12 nsec/m.
STATUS     (CURVE) fig.2 from Nucl.Phys.,A108(1968)535
HISTORY    (19800314A)
           (20191104A) SD: Data were digitized from fig.1.
ENDBIB              10
COMMON               2          3
EN-ERR-DIG ERR-DIG
PER-CENT   PER-CENT
  1.          1.
ENDCOMMON            3
DATA                 3        148
EN         DATA       THICKNESS
KEV        B          ATOMS/B
      0.514     23.550 0.9332E-04
      0.519     21.407  1.596E-03
      0.519     21.856  0.340E-03
      0.609     15.496 0.9332E-04
      0.611     14.027  1.596E-03
      0.614     14.561  0.340E-03
      0.725     14.210 0.9332E-04
      0.732     13.464  1.596E-03
      0.732     13.464  0.340E-03
      0.876     10.768 0.9332E-04
      0.883     10.118  1.596E-03
      0.883     10.118  0.340E-03
      1.077     11.707 0.9332E-04
      1.078     11.092  1.596E-03
      1.078     10.910  0.340E-03
      1.238      9.798  1.596E-03
      1.238     10.341 0.9332E-04
      1.248      9.558  0.340E-03
      1.723      7.938  1.596E-03
      1.723      7.840  0.340E-03
      1.723      7.840 0.9332E-04
      2.247      5.991  0.340E-03
      2.247      6.194 0.9332E-04
      2.257      5.991  1.596E-03
      2.744      5.704  1.596E-03
      2.744      5.657 0.9332E-04
      2.756      5.564  0.340E-03
      3.492      4.620  1.596E-03
      3.492      4.543  0.340E-03
      3.506      4.736 0.9332E-04
      3.742      4.601  0.340E-03
      4.460      3.932  1.596E-03
      4.479      3.788 0.9332E-04
      4.480      3.649  0.340E-03
      5.492      3.446  0.340E-03
      6.336      3.018  1.596E-03
      6.363      2.908  0.340E-03
      6.363      2.848 0.9332E-04
      7.489      2.780  9.330E-05
      7.521      2.700  0.340E-03
      7.995      2.623  1.596E-03
      8.130      2.231  1.596E-03
      8.332      2.222  1.596E-03
      8.404      1.875  1.596E-03
      8.643      2.213  1.596E-03
      8.709      2.657  1.596E-03
      8.927      2.395  0.340E-03
      9.152      2.072  1.596E-03
      9.414      2.251  1.596E-03
      9.531      2.142  1.596E-03
      9.684      2.446  1.596E-03
      9.886      2.242  1.596E-03
     10.091      2.081  1.596E-03
     10.463      2.437  1.596E-03
     10.769      2.206  1.596E-03
     10.854      2.417  1.596E-03
     11.169      2.309  1.596E-03
     11.499      1.908  1.596E-03
     11.590      2.073  1.596E-03
     11.778      2.234  1.596E-03
     12.071      2.108  1.596E-03
     12.623      2.198  1.596E-03
     12.729      2.006  1.596E-03
     13.099      1.949  1.596E-03
     13.534      1.893  1.596E-03
     13.757      1.855  1.596E-03
     14.098      1.839  1.596E-03
     15.231      1.878  1.596E-03
     15.545      1.825  1.596E-03
     16.190      1.879  1.596E-03
     16.460      1.729  1.596E-03
     16.935      1.766  1.596E-03
     17.494      1.825  1.596E-03
     17.866      1.459  1.596E-03
     18.528      1.605  1.596E-03
     19.226      1.441  1.596E-03
     19.617      1.560  1.596E-03
     19.869      1.305  0.340E-03
     20.268      1.515  1.596E-03
     20.774      1.412  1.596E-03
     20.776      1.360  0.340E-03
     21.209      1.247  0.340E-03
     21.462      1.406  1.596E-03
     21.907      1.344  0.340E-03
     22.261      1.460  1.596E-03
     22.623      1.535  1.596E-03
     22.636      1.273  0.340E-03
     23.382      1.344  1.596E-03
     23.475      1.372  0.340E-03
     24.160      1.263  0.340E-03
     24.352      1.367  1.596E-03
     25.059      1.328  1.596E-03
     25.895      1.222  0.340E-03
     26.204      1.378  1.596E-03
     26.316      1.295  0.340E-03
     27.074      1.333  1.596E-03
     27.653      1.027  0.340E-03
     28.097      1.163  1.596E-03
     28.439      1.207  0.340E-03
     29.135      1.301  1.596E-03
     29.264      1.163  0.340E-03
     30.106      1.223  1.596E-03
     30.603      1.188  0.340E-03
     31.355      1.259  1.596E-03
     32.015      1.075  0.340E-03
     32.397      1.208  1.596E-03
     33.069      1.140  0.340E-03
     33.742      1.223  1.596E-03
     34.451      1.071  0.340E-03
     35.152      1.149  1.596E-03
     35.735      1.089  0.340E-03
     36.452      1.275  1.596E-03
     37.524      1.094  0.340E-03
     38.133      1.159  1.596E-03
     39.094      1.003  0.340E-03
     39.715      1.189  1.596E-03
     40.552      1.015  0.340E-03
     42.576      1.067  0.340E-03
     43.273      1.090  1.596E-03
     44.359      0.974  0.340E-03
     45.437      1.113  1.596E-03
     46.567      1.068  0.340E-03
     47.326      1.113  1.596E-03
     49.324      0.908  0.340E-03
     49.698      1.095  1.596E-03
     50.736      0.991  0.340E-03
     52.413      1.012  1.596E-03
     54.613      0.894  0.340E-03
     54.824      0.959  1.596E-03
     56.184      0.935  0.340E-03
     57.803      0.963  1.596E-03
     59.491      0.883  0.340E-03
     60.948      0.951  1.596E-03
     62.716      0.928  0.340E-03
     66.421      0.816  0.340E-03
     67.481      0.948  1.596E-03
     70.306      0.865  0.340E-03
     72.033      0.913  1.596E-03
     73.834      0.837  0.340E-03
     75.958      0.880  1.596E-03
     78.171      0.820  0.340E-03
     80.430      0.827  1.596E-03
     83.430      0.834  0.340E-03
     85.168      0.768  1.596E-03
     86.912      0.790  0.340E-03
     89.408      0.841  0.340E-03
     91.626      0.824  1.596E-03
    103.950      0.845  1.596E-03
ENDDATA            150
ENDSUBENT          169
SUBENT        21109005   20191104   20200128   20200115       2283
BIB                  9         34
REACTION  1(67-HO-165(N,EL),,WID)
          2(67-HO-165(N,G),,WID)
          3(67-HO-165(N,0),,J)
ANALYSIS   (AREA) Area analysis applied to capture data and used
                   with scattering areas to give resonance widths
                   with chi-squared fitting to select the spin.
ASSUMED    (ASSUM,67-HO-165(N,0),,J) Value of resonance spin from
                   BNL-325, 3rd.Edn., where this has been assumed
                   to select resonance parameters .
REL-REF    (R,,S.F.Mughabghab+,R,BNL-325,1973) Width data given
           for both possible spins by authors. Compiled data is
           for preferred spin values either from publication or
           from BNL-325, 3rd.Edn.(Comment by compiler).
FLAG       (1.) Spin value taken from BNL-325, 3rd edn., Vol 1,
                by compiler.
           (2.) Spin value provisional in BNL-325, 3rd edn.
           (3.) Preferred spin value measured in publication.
           (4.) Tentative spin assignment from publication from
                chi-squared test.
           (5.) Tentative spin assignment from publication
                assuming gamma width of 75.7+-2.4 milli-eV.
           (6.) No preferred spin from either publication or
                BNL-325. widths for both possible spins given.
CORRECTION  Multiple scattering corrections applied to capture
            data.
ERR-ANALYS (ERR-T) Errors due to multiple scattering
            corrections, to the measurement of the energy
            dependence of the incident neutron flux and
           (ERR-1) error in capture detector efficiency.
STATUS     (TABLE) Table 2 from Nucl.Phys.,A108(1968)535
HISTORY    (19800124A)
           (19800227A)
           (20191104U) SD: STATUS updated. REL-REF added. COMMENT
           deleted (info moved to REL-REF). ERR-ANALYS updated.
ENDBIB              34
COMMON               1          3
ERR-1
PER-CENT
  3.
ENDCOMMON            3
DATA                 8         47
EN-RES     DATA      1ERR-T     1DATA      2ERR-T     2DATA      3
ASSUM      FLAG
EV         MILLI-EV   MILLI-EV   MILLI-EV   MILLI-EV   NO-DIM
NO-DIM     NO-DIM
       8.14       0.17       0.06
         3.         1.
      12.63       15.0       0.15
         4.         1.
      18.08       1.35       0.14
         3.         1.
      20.97       0.63        0.2
         4.         1.
      35.42        7.4        0.1       72.6        5.5         3.
                    3.
      37.24       0.75        0.3
         3.         1.
      39.59       19.5        0.2       90.1        4.5         4.
                    3.
      47.63       26.9        0.3       90.0        2.1
         3.         1.
      51.36       54.0        1.2       79.0        2.6         3.
                    3.
      54.22        3.3        0.8
         4.         1.
      64.96       20.6        0.3       74.6        2.0         4.
                    3.
      68.75         1.        0.3
         4.         1.
      71.73       23.7        0.3       74.9        1.8         4.
                    3.
      79.92        1.6        0.7
         4.         1.
      83.76       11.2        0.2       66.7        4.3
         4.         1.
      93.34       87.4        1.0       76.7        1.6         4.
                    3.
      101.7       18.8        0.3       75.9        2.6         4.
                    3.
      106.1        7.5        0.5
         4.         1.
      117.8       15.3        0.4       80.1        3.6
         3.         6.
      117.8       12.0        0.3       70.3        4.2
         4.         6.
      120.4        7.5        0.7
         3.         6.
      120.4        5.8        0.5
         4.         6.
      124.7       37.1        0.5       74.1        1.6
         4.         1.
      126.6       23.6        0.4       73.0        4.2         4.
                    5.
      128.1       20.7        0.4       65.0        4.6         3.
                    3.
      141.0        1.6        0.4
         3.         6.
      141.0        1.2        0.3
         4.         6.
      150.8       42.5        0.6       71.7        2.7
         3.         1.
      169.4       22.6        0.5       75.6        5.6         3.
                    5.
      169.4       17.7        0.4       60.2         5.
         4.         2.
      180.5       39.6        0.8       161.        9.7
         3.         6.
      180.5       30.4        0.6      121.6        5.5
         4.         6.
      188.4       16.2        0.5       70.6        5.3         4.
                    4.
      201.8       75.6        1.0       75.5        1.7         4.
                    3.
      204.5       12.0        1.4
         3.         6.
      204.5        9.5        1.1
         4.         6.
      214.2       60.6        1.0       75.2        1.7         3.
                    5.
      220.0       29.7        0.7       81.7        5.0         4.
                    5.
      229.6       11.5        1.5
         3.         6.
      229.6        8.5        1.2
         4.         6.
      232.5        7.0        1.0
         3.         6.
      232.5        5.5        0.7
         4.         6.
      239.1       31.2        0.8       83.6        5.0         4.
                    4.
      253.9      160.5        2.3      188.7        4.2
         3.         6.
      253.9      125.0        1.8      146.0        3.5
         4.         6.
      261.0       37.8        1.0       85.8         7.
         3.         6.
      261.0       29.7        0.9        69.        4.3
         4.         6.
ENDDATA             98
ENDSUBENT          141
ENDENTRY             5
