ENTRY            21103     800411
SUBENT        21103001     800411              20050926       0000
BIB                 12         36
INSTITUTE  (2UK HAR)
           (2UK OXF) LAST AUTHOR.
REFERENCE  (J,NP,22,640,6102)
AUTHOR     (P.H.BOWEN,J.P.SCANLON,G.H.STAFFORD,J.J.THRESHER,
            P.E.HODGSON)
TITLE      -NEUTRON TOTAL CROSS-SECTIONS IN THE ENERGY RANGE
            15 TO 120 MEV-
FACILITY   (CYCLO) HARWELL CYCLOTRON.
INC-SOURCE .PROTONS INCIDENT ON ALUMINIUM TARGET.
           .NEUTRONS PRODUCED IN 16 NS (FULL WIDTH), 9 NS(FWHM),
            BURSTS AT INTERVALS OF 5 MILLI-SEC.
METHOD     (TOF  ) TIME-OF-FLIGHT TRANSMISSION METHOD WITH 27 M
                   FLIGHT PATH GIVING A RESOLUTION OF 0.33 NS/M
                   OR ABOUT 3.5 PERCENT AT 15 MEV TO 12.5 PERCENT
                   AT 130 MEV.
DETECTOR   (SCIN ) FAST ORGANIC SCINTILLATORS, 4 CM IN DIAMETER
                   AND 2 CM THICK, USED TO COUNT TRANSMITTED
                   NEUTRONS AND MONITOR THE FLUX.
                   BOTH DETECTORS VIEWED BY RCA 6342 PHOTO-
                   MULTIPLIERS.
STATUS     (NDD  ) FROM NEUDADA. DATA ALSO IN TABLE 1 OF NUCL.
                   PHYS.,22,(1961),640.
HISTORY    (790824C)
           (791001E)
CORRECTION .CORRECTIONS FOR COUNTING LOSSES, PULSE PILE-UP AND
            BACKGROUND. BACKGROUND CORRECTION MADE BY BLOCKING
            THE TRANSMITTED BEAM WITH 1.25 M OF STEEL.
           .CORRECTIONS FOR PLURAL SCATTERING AND IMPURITIES IN
            THE ABSORBERS WERE LESS THAN 0.2 PERCENT AND WERE
            NEGLECTED.
ERR-ANALYS .ONLY STATISTICAL COUNTING ERRORS ARE GIVEN. OTHER
            RANDOM ERRORS BELIEVED TO BE NEGLIGIBLE.
           .SYSTEMATIC ERRORS BELIEVED TO BE LESS THAN 2 PERCENT
            FOR HYDROGEN, LESS THAN 1 PERCENT FOR THE REST.
           .UNCERTAINTIES IN ENERGY ABOUT 2 PERCENT DUE TO ERROR
            IN CALIBRATING THE TIME-SORTER.
ENDBIB              36
NOCOMMON             0          0
ENDSUBENT           39
SUBENT        21103002     800411              20050926       0000
BIB                  3          7
REACTION   (6-C-12(N,TOT),,SIG)
SAMPLE     .CYLINDRICAL CARBON ROD CHECKED FOR ABSENCE OF BLOW
            HOLES AND OTHER INTERNAL FLAWS. LENGTH AND DENSITY
            MEASURED TO BETTER THAN 0.1 PERCENT. TRANSMISSION
            ABOUT 0.1 AT 50 MEV.
STATUS     (NDD  ) FROM NEUDADA. DATA ALSO IN TABLE 1 OF
                   NUCL.PHYS.,22,(1961),640.
ENDBIB               7
NOCOMMON             0          0
DATA                 4         64
EN         EN-ERR     DATA       DATA-ERR
MEV        MEV        B          B
 1.5800E+01 3.3000E-01 1.4600E+00 3.2000E-02
 1.6130E+01 3.3000E-01 1.4800E+00 3.2000E-02
 1.6460E+01 3.4000E-01 1.4500E+00 3.2000E-02
 1.6800E+01 3.5000E-01 1.4500E+00 3.1000E-02
 1.7150E+01 3.6000E-01 1.4700E+00 3.1000E-02
 1.7520E+01 3.7000E-01 1.3900E+00 3.1000E-02
 1.7900E+01 3.9000E-01 1.5200E+00 3.0000E-02
 1.8290E+01 4.0000E-01 1.4700E+00 3.0000E-02
 1.8690E+01 4.2000E-01 1.4800E+00 3.0000E-02
 1.9110E+01 4.3000E-01 1.4500E+00 2.9000E-02
 1.9550E+01 4.4000E-01 1.4800E+00 4.5000E-02
 2.0000E+01 4.6000E-01 1.4500E+00 2.8000E-02
 2.0460E+01 4.7000E-01 1.5000E+00 2.8000E-02
 2.0930E+01 4.8000E-01 1.4600E+00 2.7000E-02
 2.1410E+01 5.0000E-01 1.4100E+00 2.5000E-02
 2.1910E+01 5.1000E-01 1.4200E+00 2.5000E-02
 2.2430E+01 5.2000E-01 1.3960E+00 2.3000E-02
 2.2960E+01 5.4000E-01 1.4390E+00 2.2000E-02
 2.3510E+01 5.7000E-01 1.3670E+00 2.2000E-02
 2.4090E+01 5.9000E-01 1.3750E+00 2.1000E-02
 2.4690E+01 6.1000E-01 1.3930E+00 2.1000E-02
 2.5310E+01 6.3000E-01 1.3400E+00 2.0000E-02
 2.5940E+01 6.5000E-01 1.3350E+00 2.0000E-02
 2.6600E+01 6.8000E-01 1.3490E+00 1.9000E-02
 2.7290E+01 7.2000E-01 1.3150E+00 1.8000E-02
 2.8030E+01 7.6000E-01 1.2980E+00 1.8000E-02
 2.8800E+01 7.8000E-01 1.2910E+00 1.7000E-02
 2.9590E+01 8.0000E-01 1.2580E+00 1.6000E-02
 3.0400E+01 8.3000E-01 1.2500E+00 1.6000E-02
 3.1240E+01 8.6000E-01 1.2370E+00 1.5000E-02
 3.2120E+01 9.0000E-01 1.2200E+00 1.5000E-02
 3.3050E+01 9.6000E-01 1.2310E+00 1.4000E-02
 3.4030E+01 1.0100E+00 1.2030E+00 2.0000E-02
 3.5080E+01 1.0700E+00 1.1800E+00 1.4000E-02
 3.6200E+01 1.1200E+00 1.1910E+00 1.3000E-02
 3.7320E+01 1.1500E+00 1.1430E+00 1.3000E-02
 3.8480E+01 1.2100E+00 1.1230E+00 1.2000E-02
 3.9750E+01 1.2900E+00 1.0960E+00 1.2000E-02
 4.1100E+01 1.3800E+00 1.0810E+00 1.1000E-02
 4.2530E+01 1.4500E+00 1.0680E+00 1.1000E-02
 4.4000E+01 1.5000E+00 1.0520E+00 1.1000E-02
 4.5100E+01 1.6000E+00 1.0120E+00 1.0000E-02
 4.7100E+01 1.7000E+00 9.6700E-01 9.0000E-03
 4.8800E+01 1.8000E+00 9.6900E-01 9.0000E-03
 5.0600E+01 1.9000E+00 9.3000E-01 9.0000E-03
 5.2500E+01 2.0000E+00 9.1200E-01 9.0000E-03
 5.4500E+01 2.1000E+00 8.7800E-01 9.0000E-03
 5.6600E+01 2.2000E+00 8.4400E-01 8.0000E-03
 5.8800E+01 2.3000E+00 8.0800E-01 8.0000E-03
 6.1100E+01 2.4000E+00 7.8200E-01 7.0000E-03
 6.3500E+01 2.5000E+00 7.7500E-01 7.0000E-03
 6.6100E+01 2.2000E+00 7.4000E-01 7.0000E-03
 6.8200E+01 3.0000E+00 6.9800E-01 9.0000E-03
 7.2000E+01 3.2000E+00 6.6600E-01 6.0000E-03
 7.5300E+01 3.5000E+00 6.5400E-01 6.0000E-03
 7.8900E+01 3.8000E+00 6.1700E-01 6.0000E-03
 8.2800E+01 4.0000E+00 5.8200E-01 6.0000E-03
 8.6900E+01 4.3000E+00 5.5500E-01 6.0000E-03
 9.1300E+01 4.6000E+00 5.3500E-01 6.0000E-03
 9.6000E+01 4.8000E+00 5.0900E-01 6.0000E-03
 1.0100E+02 5.0000E+00 4.7200E-01 6.0000E-03
 1.0600E+02 5.3000E+00 4.3600E-01 5.0000E-03
 1.1150E+02 5.7000E+00 4.3500E-01 7.0000E-03
 1.1750E+02 6.0000E+00 4.0500E-01 2.0000E-03
ENDDATA             66
ENDSUBENT           78
SUBENT        21103003     800411              20050926       0000
BIB                  4         11
REACTION   (1-H-1(N,TOT),,SIG)
SAMPLE     .CYLINDRICAL POLYETHYLENE ROD CHECKED FOR THE ABSENCE
            OF BLOW HOLES AND OTHER INTERNAL FLAWS. LENGTH AND
            DENSITY MEASURED TO 0.1 PERCENT. SAMPLE HAD THE SAME
            SURFACE DENSITY OF CARBON AS THE CARBON ABSORBER.
ASSUMED    (6-C-12(N,TOT),,SIG)
           .SAMPLE USED WITH CARBON SAMPLE IN CARBON-POLYETHYLENE
            DIFFERENCE MEASUREMENT TO OBTAIN THE HYDROGEN CROSS-
            SECTION.
STATUS     (NDD  ) FROM NEUDADA. DATA ALSO IN TABLE 1 OF
                   NUCL.PHYS.,22,(1961),640.
ENDBIB              11
NOCOMMON             0          0
DATA                 4         63
EN         EN-ERR     DATA       DATA-ERR
MEV        MEV        B          B
 1.5800E+01 3.3000E-01 5.3700E-01 3.0000E-02
 1.6130E+01 3.3000E-01 6.3400E-01 3.4000E-02
 1.6460E+01 3.4000E-01 5.8000E-01 3.3000E-02
 1.6800E+01 3.5000E-01 5.9700E-01 3.2000E-02
 1.7150E+01 3.6000E-01 5.6100E-01 2.9000E-02
 1.7520E+01 3.7000E-01 5.4400E-01 2.8000E-02
 1.7900E+01 3.9000E-01 5.3300E-01 2.7000E-02
 1.8290E+01 4.0000E-01 5.1700E-01 2.7000E-02
 1.8690E+01 4.2000E-01 5.2300E-01 2.8000E-02
 1.9110E+01 4.3000E-01 4.9800E-01 4.0000E-02
 1.9550E+01 4.4000E-01 5.2200E-01 2.6000E-02
 2.0000E+01 4.6000E-01 4.7900E-01 2.4000E-02
 2.0460E+01 4.7000E-01 4.7900E-01 2.2000E-02
 2.0930E+01 4.8000E-01 4.4900E-01 2.1000E-02
 2.1410E+01 5.0000E-01 4.4700E-01 2.0000E-02
 2.1910E+01 5.1000E-01 4.2000E-01 2.0000E-02
 2.2430E+01 5.2000E-01 4.0800E-01 2.0000E-02
 2.2960E+01 5.4000E-01 4.3300E-01 1.9000E-01
 2.3510E+01 5.7000E-01 3.9770E-01 1.6000E-02
 2.4090E+01 5.9000E-01 3.9300E-01 1.5000E-02
 2.4690E+01 6.1000E-01 3.9350E-01 1.4000E-02
 2.5310E+01 6.3000E-01 3.6290E-01 1.3500E-02
 2.5940E+01 6.5000E-01 3.7760E-01 1.2700E-02
 2.6600E+01 6.8000E-01 3.4570E-01 1.2300E-02
 2.7290E+01 7.2000E-01 3.3540E-01 1.1500E-02
 2.8030E+01 7.6000E-01 3.2150E-01 1.1000E-02
 2.8800E+01 7.8000E-01 3.1220E-01 1.0500E-02
 2.9590E+01 8.0000E-01 3.0910E-01 9.5000E-03
 3.0400E+01 8.3000E-01 2.8170E-01 8.8000E-03
 3.1240E+01 8.6000E-01 2.8640E-01 8.3000E-03
 3.2120E+01 9.0000E-01 2.8870E-01 7.4000E-03
 3.3050E+01 9.6000E-01 2.7600E-01 6.8000E-03
 3.4030E+01 1.0100E+00 2.6010E-01 7.2000E-03
 3.5080E+01 1.0700E+00 2.4580E-01 6.7000E-03
 3.6200E+01 1.1200E+00 2.2000E-01 9.9000E-03
 3.7320E+01 1.1500E+00 2.2680E-01 6.3000E-03
 3.8480E+01 1.2100E+00 2.2350E-01 6.0000E-03
 3.9750E+01 1.2900E+00 2.1910E-01 5.7000E-03
 4.2530E+01 1.4500E+00 1.9600E-01 5.2000E-03
 4.4000E+01 1.5000E+00 1.8910E-01 4.9000E-03
 4.5500E+01 1.6000E+00 1.8730E-01 4.6000E-03
 4.7100E+01 1.7000E+00 1.7030E-01 4.0000E-03
 4.8800E+01 1.8000E+00 1.6680E-01 4.1000E-03
 4.9900E+01 1.3800E+00 2.0460E-01 5.4000E-03
 5.0600E+01 1.9000E+00 1.5200E-01 3.8000E-03
 5.2500E+01 2.0000E+00 1.5200E-01 3.6000E-03
 5.4600E+01 2.1000E+00 1.4480E-01 3.3000E-03
 5.6600E+01 2.2000E+00 1.4150E-01 3.1000E-03
 5.8800E+01 2.3000E+00 1.3580E-01 2.9000E-03
 6.1100E+01 2.4000E+00 1.2430E-01 2.8000E-03
 6.3500E+01 2.5000E+00 1.1680E-01 2.6000E-03
 6.6100E+01 2.7000E+00 1.1490E-01 2.5000E-03
 6.8200E+01 3.0000E+00 1.0960E-01 2.3000E-03
 7.2000E+01 3.2000E+00 1.0010E-01 2.3000E-03
 7.5300E+01 3.5000E+00 1.0030E-01 3.6000E-03
 7.8900E+01 3.6000E+00 9.4700E-02 2.1000E-03
 8.2800E+01 4.0000E+00 8.5300E-02 1.9000E-03
 8.6900E+01 4.3000E+00 8.2100E-02 1.9000E-03
 9.1300E+01 4.6000E+00 7.7700E-02 1.7000E-03
 9.6000E+01 4.8000E+00 7.2100E-02 1.6000E-03
 1.0100E+02 5.0000E+00 7.1500E-02 1.7000E-03
 1.0600E+02 5.3000E+00 6.9400E-02 1.6000E-03
 1.1150E+02 5.7000E+00 6.8300E-02 2.1000E-03
ENDDATA             65
ENDSUBENT           81
SUBENT        21103004     791001              20050926       0000
BIB                  4          8
REACTION   (13-AL-27(N,TOT),,SIG)
SAMPLE     .CYLINDRICAL ALUMINIUM ROD CHECKED FOR ABSENCE OF BLOW
            HOLES AND OTHER INTERNAL FLAWS. LENGTH AND DENSITY
            MEASURED TO BETTER THAN 0.1 PERCENT. TRANSMISSION
            ABOUT 0.1 AT 50 MEV.
MONITOR    (6-C-12(N,TOT),,SIG) MEASURED IN THIS WORK.
STATUS     (NDD  ) FROM NEUDADA. DATA ALSO IN TABLE 1 OF
                   NUCL.PHYS.,22,(1961),640.
ENDBIB               8
NOCOMMON             0          0
DATA                 4         64
EN         EN-ERR     DATA       DATA-ERR
MEV        MEV        B          B
 1.5800E+01 3.3000E-01 1.8400E+00 6.9000E-02
 1.6130E+01 3.3000E-01 1.7500E+00 6.8000E-02
 1.6460E+01 3.4000E-01 1.7700E+00 6.8000E-02
 1.6800E+01 3.5000E-01 1.8000E+00 6.7000E-02
 1.7150E+01 3.6000E-01 1.6600E+00 6.7000E-02
 1.7520E+01 3.7000E-01 1.7600E+00 6.5000E-02
 1.7900E+01 3.9000E-01 1.8900E+00 6.3000E-02
 1.8290E+01 4.0000E-01 1.8700E+00 6.2000E-02
 1.8690E+01 4.2000E-01 1.8000E+00 6.1000E-02
 1.9110E+01 4.3000E-01 1.6900E+00 6.1000E-02
 1.9550E+01 4.4000E-01 1.6500E+00 7.5000E-02
 2.0000E+01 4.6000E-01 1.8000E+00 6.0000E-02
 2.0460E+01 4.7000E-01 1.8500E+00 6.0000E-02
 2.0930E+01 4.8000E-01 1.8400E+00 5.4000E-02
 2.1410E+01 5.0000E-01 1.8500E+00 5.4000E-02
 2.1910E+01 5.1000E-01 1.8300E+00 5.3000E-02
 2.2430E+01 5.2000E-01 1.7700E+00 5.2000E-02
 2.2930E+01 5.4000E-01 1.8400E+00 5.1000E-02
 2.3510E+01 5.7000E-01 1.8200E+00 5.0000E-02
 2.4090E+01 5.9000E-01 1.7400E+00 4.8000E-02
 2.4690E+01 6.1000E-01 1.8800E+00 4.8000E-02
 2.5310E+01 6.3000E-01 1.7800E+00 4.7000E-02
 2.5940E+01 6.5000E-01 1.8200E+00 4.4000E-02
 2.6600E+01 6.8000E-01 1.8700E+00 4.3000E-02
 2.7290E+01 7.2000E-01 1.8400E+00 4.3000E-02
 2.8030E+01 7.6000E-01 1.8800E+00 4.2000E-02
 2.8800E+01 7.8000E-01 1.8800E+00 4.2000E-02
 2.9590E+01 8.0000E-01 1.7900E+00 3.9000E-02
 3.0400E+01 8.3000E-01 1.8200E+00 3.9000E-02
 3.1240E+01 8.6000E-01 1.9000E+00 3.8000E-02
 3.2120E+01 9.0000E-01 1.8100E+00 3.7000E-02
 3.3050E+01 9.6000E-01 1.7900E+00 3.4000E-02
 3.4030E+01 1.0100E+00 1.8000E+00 4.0000E-02
 3.5080E+01 1.0700E+00 1.8200E+00 3.3000E-02
 3.6200E+01 1.1200E+00 1.8800E+00 3.2000E-02
 3.7320E+01 1.1500E+00 1.8000E+00 3.1000E-02
 3.8480E+01 1.2100E+00 1.8300E+00 3.0000E-02
 3.9750E+01 1.2900E+00 1.7900E+00 2.9000E-02
 4.1100E+01 1.3800E+00 1.8100E+00 2.7000E-02
 4.2530E+01 1.4500E+00 1.7800E+00 2.6000E-02
 4.4000E+01 1.5000E+00 1.7700E+00 2.6000E-02
 4.5500E+01 1.6000E+00 1.7700E+00 2.5000E-02
 4.7100E+01 1.7000E+00 1.6900E+00 2.5000E-02
 4.8800E+01 1.8000E+00 1.6900E+00 2.4000E-02
 5.0600E+01 1.9000E+00 1.6800E+00 2.3000E-02
 5.2500E+01 2.0000E+00 1.6300E+00 2.1000E-02
 5.4500E+01 2.1000E+00 1.6200E+00 1.9000E-02
 5.6600E+01 2.2000E+00 1.5300E+00 1.9000E-02
 5.8800E+01 2.3000E+00 1.5000E+00 1.8000E-02
 6.1100E+01 2.4000E+00 1.5100E+00 1.8000E-02
 6.3500E+01 2.5000E+00 1.4530E+00 1.7000E-02
 6.6100E+01 2.7000E+00 1.4060E+00 1.6000E-02
 6.8900E+01 3.0000E+00 1.3430E+00 1.9000E-02
 7.2000E+01 3.2000E+00 1.3190E+00 1.5000E-02
 7.5300E+01 3.5000E+00 1.2720E+00 1.5000E-02
 7.8900E+01 3.8000E+00 1.2540E+00 1.5000E-02
 8.2800E+01 4.0000E+00 1.1840E+00 1.4000E-02
 8.6900E+01 4.3000E+00 1.1030E+00 1.3000E-02
 9.1300E+01 4.6000E+00 1.0620E+00 1.3000E-02
 9.6000E+01 4.8000E+00 1.0320E+00 1.3000E-02
 1.0100E+02 5.0000E+00 9.5500E-01 1.2000E-02
 1.0600E+02 5.3000E+00 9.1000E-01 1.2000E-02
 1.1150E+02 5.7000E+00 8.8900E-01 1.2000E-02
 1.1750E+02 6.0000E+00 8.1800E-01 1.2000E-02
ENDDATA             66
ENDSUBENT           79
SUBENT        21103005     791001              20050926       0000
BIB                  4          8
REACTION   (29-CU-0(N,TOT),,SIG)
SAMPLE     .CYLINDRICAL COPPER ROD CHECKED FOR ABSENCE OF BLOW
            HOLES AND OTHER INTERNAL FLAWS. LENGTH AND DENSITY
            MEASURED TO BETTER THAN 0.1 PERCENT. TRANSMISSION
            ABOUT 0.1 AT 50 MEV.
MONITOR    (6-C-12(N,TOT),,SIG) MEASURED IN THIS WORK.
STATUS     (NDD  ) FROM NEUDADA. DATA ALSO IN TABLE 1 OF
                   NUCL.PHYS.,22,(1961),640.
ENDBIB               8
NOCOMMON             0          0
DATA                 4         64
EN         EN-ERR     DATA       DATA-ERR
MEV        MEV        B          B
 1.5800E+01 3.3000E-01 2.6300E+00 1.1500E-01
 1.6130E+01 3.3000E-01 2.7200E+00 1.1000E-01
 1.6460E+01 3.4000E-01 2.7300E+00 8.0000E-02
 1.6800E+01 3.5000E-01 2.7300E+00 7.8000E-02
 1.7150E+01 3.6000E-01 2.5600E+00 7.5000E-02
 1.7520E+01 3.7000E-01 2.5600E+00 7.5000E-02
 1.7900E+01 3.9000E-01 2.5400E+00 7.4000E-02
 1.8290E+01 4.0000E-01 2.6000E+00 7.2000E-02
 1.8690E+01 4.2000E-01 2.5000E+00 7.2000E-02
 1.9110E+01 4.3000E-01 2.4000E+00 7.1000E-02
 1.9550E+01 4.4000E-01 2.3600E+00 1.0000E-01
 2.0000E+01 4.6000E-01 2.4700E+00 6.8000E-02
 2.0460E+01 4.7000E-01 2.5300E+00 6.8000E-02
 2.0930E+01 4.8000E-01 2.5100E+00 6.7000E-02
 2.1410E+01 5.0000E-01 2.4900E+00 6.6000E-02
 2.1910E+01 5.1000E-01 2.4800E+00 6.4000E-02
 2.2430E+01 5.2000E-01 2.4200E+00 6.2000E-02
 2.2960E+01 5.4000E-01 2.4500E+00 5.9000E-02
 2.3510E+01 5.7000E-01 2.3500E+00 5.6000E-02
 2.4090E+01 5.9000E-01 2.4700E+00 5.6000E-02
 2.4690E+01 6.1000E-01 2.4700E+00 5.5000E-02
 2.5310E+01 6.3000E-01 2.4200E+00 5.4000E-02
 2.5940E+01 6.5000E-01 2.4200E+00 5.2000E-02
 2.6600E+01 6.8000E-01 2.4000E+00 5.0000E-02
 2.7290E+01 7.2000E-01 2.4200E+00 4.9000E-02
 2.8080E+01 7.6000E-01 2.4400E+00 4.8000E-02
 2.8800E+01 7.8000E-01 2.4500E+00 4.6000E-02
 2.9590E+01 8.0000E-01 2.3900E+00 4.3000E-02
 3.0400E+01 8.3000E-01 2.4000E+00 4.3000E-02
 3.1240E+01 8.6000E-01 2.5300E+00 4.3000E-02
 3.2120E+01 9.0000E-01 2.4400E+00 4.3000E-02
 3.3050E+01 9.6000E-01 2.4600E+00 4.0000E-02
 3.4030E+01 1.0100E+00 2.4500E+00 5.6000E-02
 3.5080E+01 1.0700E+00 2.5500E+00 3.8000E-02
 3.6200E+01 1.1200E+00 2.5800E+00 3.7000E-02
 3.7320E+01 1.1500E+00 2.6000E+00 3.6000E-02
 3.8480E+01 1.2100E+00 2.5200E+00 3.6000E-02
 3.9750E+01 1.2900E+00 2.6400E+00 3.6000E-02
 4.1100E+01 1.3800E+00 2.6600E+00 3.5000E-02
 4.2530E+01 1.4500E+00 2.6500E+00 3.5000E-02
 4.4000E+01 1.5000E+00 2.6900E+00 3.5000E-02
 4.5500E+01 1.6000E+00 2.7300E+00 3.5000E-02
 4.7100E+01 1.7000E+00 2.6400E+00 3.5000E-02
 4.8800E+01 1.8000E+00 2.6800E+00 3.5000E-02
 5.0600E+01 1.9000E+00 2.7700E+00 3.3000E-02
 5.2500E+01 2.0000E+00 2.7400E+00 3.1000E-02
 5.4500E+01 2.1000E+00 2.7200E+00 3.1000E-02
 5.6600E+01 2.2000E+00 2.6900E+00 3.0000E-02
 5.8100E+01 2.3000E+00 2.6200E+00 2.8000E-02
 6.1100E+01 2.4000E+00 2.6300E+00 2.8000E-02
 6.3500E+01 2.5000E+00 2.6300E+00 2.7000E-02
 6.6100E+01 2.7000E+00 2.5400E+00 2.6000E-02
 6.8900E+01 3.0000E+00 2.5200E+00 3.6000E-02
 7.2000E+01 3.2000E+00 2.4900E+00 2.4000E-02
 7.5300E+01 3.5000E+00 2.4100E+00 2.2000E-02
 7.8900E+01 3.8000E+00 2.3700E+00 2.1000E-02
 8.2800E+01 4.0000E+00 2.2500E+00 2.0000E-02
 8.6900E+01 4.3000E+00 2.2200E+00 1.9000E-02
 9.1300E+01 4.6000E+00 2.1300E+00 1.9000E-02
 9.6000E+01 4.8000E+00 2.0500E+00 1.9000E-02
 1.0100E+02 5.0000E+00 1.9700E+00 1.7000E-02
 1.0600E+02 5.3000E+00 1.8600E+00 1.7000E-02
 1.1650E+02 5.7000E+00 1.7900E+00 1.7000E-02
 1.7750E+02 6.0000E+00 1.6800E+00 1.7000E-02
ENDDATA             66
ENDSUBENT           79
SUBENT        21103006     791001              20050926       0000
BIB                  4          8
REACTION   (48-CD-0(N,TOT),,SIG)
SAMPLE     .CYLINDRICAL CADMIUM ROD CHECKED FOR ABSENCE OF BLOW
            HOLES AND OTHER INTERNAL FLAWS. LENGTH AND DENSITY
            MEASURED TO BETTER THAN 0.1 PERCENT. TRANSMISSION
            ABOUT 0.1 AT 50 MEV.
MONITOR    (6-C-12(N,TOT),,SIG) MEASURED IN THIS WORK.
STATUS     (NDD  ) FROM NEUDADA. DATA ALSO IN TABLE 1 OF
                   NUCL.PHYS.,22,(1961),640.
ENDBIB               8
NOCOMMON             0          0
DATA                 4         64
EN         EN-ERR     DATA       DATA-ERR
MEV        MEV        B          B
 1.5800E+01 3.3000E-01 4.1000E+00 1.8000E-01
 1.6130E+01 3.3000E-01 4.5400E+00 1.8000E-01
 1.6460E+01 3.4000E-01 3.4800E+00 1.8000E-01
 1.6800E+01 3.5000E-01 4.5500E+00 1.7000E-01
 1.7150E+01 3.6000E-01 4.2200E+00 1.7000E-01
 1.7520E+01 3.7000E-01 3.6500E+00 1.7000E-01
 1.7900E+01 3.9000E-01 3.9900E+00 1.7000E-01
 1.8290E+01 4.0000E-01 3.8800E+00 1.6000E-01
 1.8690E+01 4.2000E-01 3.8800E+00 1.6000E-01
 1.9110E+01 4.3000E-01 3.6800E+00 1.6000E-01
 1.9550E+01 4.4000E-01 3.6600E+00 1.5000E-01
 2.0000E+01 4.6000E-01 3.5300E+00 1.5000E-01
 2.0460E+01 4.7000E-01 4.0100E+00 1.4000E-01
 2.0930E+01 4.8000E-01 3.8500E+00 1.4000E-01
 2.1410E+01 5.0000E-01 3.5800E+00 1.3000E-01
 2.1910E+01 5.1000E-01 3.8400E+00 1.3000E-01
 2.2430E+01 5.2000E-01 3.6100E+00 1.3000E-01
 2.2960E+01 5.4000E-01 3.4600E+00 1.2000E-01
 2.3510E+01 5.7000E-01 3.2400E+00 1.2000E-01
 2.4090E+01 5.9000E-01 3.3600E+00 1.2000E-01
 2.4690E+01 6.1000E-01 3.5000E+00 1.1000E-01
 2.5310E+01 6.3000E-01 3.2500E+00 1.1000E-01
 2.5940E+01 6.5000E-01 3.2500E+00 1.0300E-01
 2.6600E+01 6.8000E-01 3.3800E+00 1.0000E-01
 2.7290E+01 7.2000E-01 3.2100E+00 9.7000E-02
 2.8030E+01 7.6000E-01 3.2200E+00 9.3000E-02
 2.8800E+01 7.8000E-01 3.2300E+00 9.1000E-02
 2.9590E+01 8.0000E-01 3.0500E+00 8.9000E-02
 3.0400E+01 8.3000E-01 3.0800E+00 8.6000E-02
 3.1240E+01 8.6000E-01 3.1700E+00 8.3000E-02
 3.2120E+01 9.0000E-01 3.0800E+00 8.0000E-02
 3.3050E+01 9.6000E-01 2.9800E+00 7.7000E-02
 3.4030E+01 1.0100E+00 3.1100E+00 9.5000E-02
 3.5080E+01 1.0700E+00 3.0700E+00 7.3000E-02
 3.6200E+01 1.1200E+00 3.1900E+00 7.1000E-02
 3.7320E+01 1.1500E+00 3.1800E+00 7.0000E-02
 3.8480E+01 1.2100E+00 3.1000E+00 6.8000E-02
 3.9750E+01 1.2900E+00 3.3500E+00 6.5000E-02
 4.1100E+01 1.3800E+00 3.1900E+00 6.2000E-02
 4.2530E+01 1.4500E+00 3.2300E+00 6.0000E-02
 4.4000E+01 1.5000E+00 3.4200E+00 5.8000E-02
 4.5500E+01 1.6000E+00 3.3600E+00 5.7000E-02
 4.7100E+01 1.7000E+00 3.3000E+00 5.4000E-02
 4.8800E+01 1.8000E+00 3.3700E+00 5.3000E-02
 5.0600E+01 1.9000E+00 3.4000E+00 5.1000E-02
 5.2500E+01 2.0000E+00 3.3900E+00 4.9000E-02
 5.4500E+01 2.1000E+00 3.4500E+00 4.8000E-02
 5.6600E+01 2.2000E+00 3.4400E+00 4.7000E-02
 5.8800E+01 2.3000E+00 3.5000E+00 4.5000E-02
 6.1100E+01 2.4000E+00 3.5000E+00 4.4000E-02
 6.3500E+01 2.5000E+00 3.5400E+00 4.3000E-02
 6.6100E+01 2.7000E+00 3.5300E+00 4.2000E-02
 6.8900E+01 3.0000E+00 3.5800E+00 4.9000E-02
 7.2000E+01 3.2000E+00 3.5200E+00 3.9000E-02
 7.5300E+01 3.5000E+00 3.5400E+00 3.8000E-02
 7.8900E+01 3.8000E+00 3.5300E+00 3.8000E-02
 8.2800E+01 4.0000E+00 3.4000E+00 3.5000E-02
 8.6900E+01 4.3000E+00 3.3200E+00 3.5000E-02
 9.1300E+01 4.6000E+00 3.2400E+00 3.5000E-02
 9.6000E+01 4.8000E+00 3.1700E+00 3.4000E-02
 1.0100E+02 5.0000E+00 3.0200E+00 3.5000E-02
 1.0600E+02 5.3000E+00 2.9300E+00 3.5000E-02
 1.1150E+02 5.7000E+00 2.8200E+00 3.5000E-02
 1.1750E+02 6.0000E+00 2.6600E+00 3.3000E-02
ENDDATA             66
ENDSUBENT           79
SUBENT        21103007     791001              20050926       0000
BIB                  4          8
REACTION   (82-PB-0(N,TOT),,SIG)
SAMPLE     .CYLINDRICAL LEAD ROD CHECKED FOR ABSENCE OF BLOW
            HOLES AND OTHER INTERNAL FLAWS. LENGTH AND DENSITY
            MEASURED TO BETTER THAN 0.1 PERCENT. TRANSMISSION
            ABOUT 0.1 AT 50 MEV.
MONITOR    (6-C-12(N,TOT),,SIG) MEASURED IN THIS WORK.
STATUS     (NDD  ) FROM NEUDADA. DATA ALSO IN TABLE 1 OF
                   NUCL.PHYS.,22,(1961),640.
ENDBIB               8
NOCOMMON             0          0
DATA                 4         64
EN         EN-ERR     DATA       DATA-ERR
MEV        MEV        B          B
 1.5800E+01 3.3000E-01 5.8100E+00 1.8000E-01
 1.6130E+01 3.3000E-01 5.5000E+00 1.8000E-01
 1.6460E+01 3.4000E-01 5.8900E+00 1.7000E-01
 1.6800E+01 3.5000E-01 5.7700E+00 1.7000E-01
 1.7150E+01 3.6000E-01 5.7600E+00 1.7000E-01
 1.7520E+01 3.7000E-01 5.7500E+00 1.7000E-01
 1.7900E+01 3.9000E-01 6.1100E+00 1.7000E-01
 1.8290E+01 4.0000E-01 5.9600E+00 1.7000E-01
 1.8690E+01 4.2000E-01 5.7200E+00 1.6000E-01
 1.9110E+01 4.3000E-01 5.7700E+00 1.6000E-01
 1.9550E+01 4.4000E-01 5.6800E+00 1.6000E-01
 2.0000E+01 4.6000E-01 5.8100E+00 1.6000E-01
 2.0460E+01 4.7000E-01 5.8700E+00 1.6000E-01
 2.0930E+01 4.8000E-01 5.7400E+00 1.5000E-01
 2.1410E+01 5.0000E-01 5.7600E+00 1.4000E-01
 2.1910E+01 5.1000E-01 5.8400E+00 1.4000E-01
 2.2430E+01 5.2000E-01 5.6300E+00 1.3000E-01
 2.2960E+01 5.4000E-01 5.7900E+00 1.3000E-01
 2.3510E+01 5.7000E-01 5.6900E+00 1.3000E-01
 2.4090E+01 5.9000E-01 5.5600E+00 1.2000E-01
 2.4690E+01 6.1000E-01 5.5400E+00 1.2000E-01
 2.5310E+01 6.3000E-01 5.3800E+00 1.2000E-01
 2.5940E+01 6.5000E-01 5.4000E+00 1.1000E-01
 2.6600E+01 6.8000E-01 5.4600E+00 1.1000E-01
 2.7290E+01 7.2000E-01 5.2300E+00 1.1000E-01
 2.8030E+01 7.6000E-01 5.1900E+00 1.0300E-01
 2.8800E+01 7.8000E-01 5.0800E+00 9.9000E-02
 2.9590E+01 8.0000E-01 4.9000E+00 9.7000E-02
 3.0400E+01 8.3000E-01 4.9200E+00 9.2000E-02
 3.1240E+01 8.6000E-01 4.8200E+00 8.7000E-02
 3.2120E+01 9.0000E-01 4.7800E+00 8.5000E-02
 3.3050E+01 9.6000E-01 4.7000E+00 8.3000E-02
 3.4030E+01 1.0100E+00 4.6300E+00 1.1000E-01
 3.5080E+01 1.0700E+00 4.6100E+00 7.7000E-02
 3.6200E+01 1.1200E+00 4.7100E+00 7.5000E-02
 3.7320E+01 1.1500E+00 4.4900E+00 7.3000E-02
 3.8480E+01 1.2100E+00 4.4000E+00 6.8000E-02
 3.9750E+01 1.2900E+00 4.3400E+00 6.5000E-02
 4.1100E+01 1.3800E+00 4.3600E+00 6.2000E-02
 4.2530E+01 1.4500E+00 4.3400E+00 6.0000E-02
 4.4000E+01 1.5000E+00 4.2900E+00 5.8000E-02
 4.5500E+01 1.6000E+00 4.3600E+00 5.6000E-02
 4.7100E+01 1.7000E+00 4.1300E+00 5.4000E-02
 4.8800E+01 1.8000E+00 4.2900E+00 5.2000E-02
 5.0600E+01 1.9000E+00 4.2900E+00 5.0000E-02
 5.2500E+01 2.0000E+00 4.3000E+00 5.0000E-02
 5.4500E+01 2.1000E+00 4.4100E+00 4.8000E-02
 5.6600E+01 2.2000E+00 4.3900E+00 4.6000E-02
 5.8800E+01 2.3000E+00 4.4300E+00 4.5000E-02
 6.1100E+01 2.4000E+00 4.4600E+00 4.4000E-02
 6.3500E+01 2.5000E+00 4.6400E+00 4.3000E-02
 6.6100E+01 2.7000E+00 4.6100E+00 4.2000E-02
 6.8900E+01 3.0000E+00 4.6200E+00 5.5000E-02
 7.2000E+01 3.2000E+00 4.6900E+00 4.0000E-02
 7.5300E+01 3.5000E+00 4.7600E+00 3.9000E-02
 7.8900E+01 3.8000E+00 4.7900E+00 3.8000E-02
 8.2800E+01 4.0000E+00 4.7800E+00 3.7000E-02
 8.6900E+01 4.3000E+00 4.7500E+00 3.6000E-02
 9.1300E+01 4.6000E+00 4.6900E+00 3.6000E-02
 9.6000E+01 4.8000E+00 4.6900E+00 3.5000E-02
 1.0100E+02 5.0000E+00 4.5600E+00 3.5000E-02
 1.0600E+02 5.3000E+00 4.4500E+00 3.4000E-02
 1.1150E+02 5.7000E+00 4.4000E+00 3.4000E-02
 1.1750E+02 6.0000E+00 4.2100E+00 3.4000E-02
ENDDATA             66
ENDSUBENT           79
SUBENT        21103008     791001              20050926       0000
BIB                  4          8
REACTION   (92-U-0(N,TOT),,SIG)
SAMPLE     .CYLINDRICAL URANIUM ROD CHECKED FOR ABSENCE OF BLOW
            HOLES AND OTHER INTERNAL FLAWS. LENGTH AND DENSITY
            MEASURED TO BETTER THAN 0.1 PERCENT. TRANSMISSION
            ABOUT 0.1 AT 50 MEV.
MONITOR    (6-C-12(N,TOT),,SIG) MEASURED IN THIS WORK.
STATUS     (NDD  ) FROM NEUDADA. DATA ALSO IN TABLE 1 OF
                   NUCL.PHYS.,22,(1961),640.
ENDBIB               8
NOCOMMON             0          0
DATA                 4         64
EN         EN-ERR     DATA       DATA-ERR
MEV        MEV        B          B
 1.5800E+01 3.3000E-01 5.8300E+00 2.4000E-01
 1.6130E+01 3.3000E-01 6.3000E+00 2.3000E-01
 1.6460E+01 3.4000E-01 6.2400E+00 2.4000E-01
 1.6800E+01 3.5000E-01 6.2400E+00 2.3000E-01
 1.7150E+01 3.6000E-01 6.4900E+00 2.4000E-01
 1.7520E+01 3.7000E-01 5.8400E+00 2.2000E-01
 1.7900E+01 3.9000E-01 6.5400E+00 2.5000E-01
 1.8290E+01 4.0000E-01 6.0300E+00 2.2000E-01
 1.8690E+01 4.2000E-01 6.4400E+00 2.2000E-01
 1.9110E+01 4.3000E-01 6.1400E+00 2.2000E-01
 1.9550E+01 4.4000E-01 6.3700E+00 2.6000E-01
 2.0000E+01 4.6000E-01 6.3300E+00 2.2000E-01
 2.0460E+01 4.7000E-01 6.5900E+00 2.1000E-01
 2.0930E+01 4.8000E-01 6.4100E+00 2.0000E-01
 2.1410E+01 5.0000E-01 6.2200E+00 1.9000E-01
 2.1910E+01 5.1000E-01 6.4800E+00 1.8000E-01
 2.2430E+01 5.2000E-01 6.3700E+00 1.8000E-01
 2.2960E+01 5.4000E-01 6.5700E+00 1.7000E-01
 2.3510E+01 5.7000E-01 6.1100E+00 1.7000E-01
 2.4090E+01 5.9000E-01 5.8300E+00 1.7000E-01
 2.4690E+01 6.1000E-01 6.3200E+00 1.6000E-01
 2.5310E+01 6.3000E-01 5.9000E+00 1.6000E-01
 2.5940E+01 6.5000E-01 5.9900E+00 1.5000E-01
 2.6600E+01 6.8000E-01 5.9700E+00 1.5000E-01
 2.7290E+01 7.2000E-01 5.7900E+00 1.5000E-01
 2.8030E+01 7.6000E-01 5.7100E+00 1.4000E-01
 2.8800E+01 7.8000E-01 5.9600E+00 1.4000E-01
 2.9590E+01 8.0000E-01 5.7700E+00 1.3000E-01
 3.0400E+01 8.3000E-01 5.6800E+00 1.3000E-01
 3.1240E+01 8.6000E-01 5.7100E+00 1.2000E-01
 3.2120E+01 9.0000E-01 5.4600E+00 1.2000E-01
 3.3050E+01 9.6000E-01 5.5100E+00 1.2000E-01
 3.4030E+01 1.0100E+00 5.4800E+00 1.3000E-01
 3.5080E+01 1.0700E+00 5.2000E+00 1.1000E-01
 3.6200E+01 1.1200E+00 5.2600E+00 1.0400E-01
 3.7320E+01 1.1500E+00 5.1000E+00 1.0100E-01
 3.8480E+01 1.2100E+00 4.8800E+00 9.6000E-02
 3.9750E+01 1.2900E+00 4.9000E+00 9.0000E-02
 4.1100E+01 1.3800E+00 5.0100E+00 8.8000E-02
 4.2530E+01 1.4500E+00 4.8400E+00 8.3000E-02
 4.4000E+01 1.5000E+00 4.8200E+00 8.2000E-02
 4.5500E+01 1.6000E+00 4.7900E+00 7.9000E-02
 4.7100E+01 1.7000E+00 4.6500E+00 7.4000E-02
 4.8800E+01 1.8000E+00 4.7600E+00 7.3000E-02
 5.0600E+01 1.9000E+00 4.8200E+00 6.9000E-02
 5.2500E+01 2.0000E+00 4.6800E+00 6.8000E-02
 5.4500E+01 2.1000E+00 4.7800E+00 6.5000E-02
 5.6600E+01 2.2000E+00 4.6800E+00 6.3000E-01
 5.8800E+01 2.3000E+00 4.6900E+00 6.1000E-01
 6.1100E+01 2.4000E+00 4.8000E+00 5.9000E-01
 6.3500E+01 2.5000E+00 4.8600E+00 5.7000E-01
 6.6100E+01 2.7000E+00 5.0400E+00 5.6000E-01
 6.8900E+01 3.0000E+00 5.0300E+00 6.4000E-01
 7.2000E+01 3.2000E+00 5.1000E+00 5.3000E-01
 7.5300E+01 3.5000E+00 5.1200E+00 5.1000E-01
 7.8900E+01 3.8000E+00 5.0700E+00 5.1000E-01
 8.2800E+01 4.0000E+00 5.2200E+00 5.5000E-01
 8.6900E+01 4.3000E+00 5.1900E+00 4.9000E-01
 9.1300E+01 4.6000E+00 5.1900E+00 4.9000E-01
 9.6000E+01 4.8000E+00 5.2000E+00 4.9000E-01
 1.0100E+02 5.0000E+00 5.0800E+00 4.9000E-01
 1.0600E+02 5.3000E+00 4.9200E+00 5.1000E-01
 1.1150E+02 5.7000E+00 4.8400E+00 5.4000E-01
 1.1750E+02 6.0000E+00 4.6100E+00 6.6000E-01
ENDDATA             66
ENDSUBENT           79
ENDENTRY             8
