ENTRY            21168     860120              20050926       0000
SUBENT        21168001     860120              20050926       0000
BIB                 12         20
INSTITUTE  (2SWTETH)
REFERENCE  (J,NC,8,383,5103)
           (J,HPA,23,561,5006)
           (J,HPA,20,519,4712) SUPERSEDED.
AUTHOR     (R.RICAMO,E.LUESCHER,P.SCHERRER,W.ZUENTI)
TITLE      -ELASTIC SCATTERING AND (N,P) RESONANCES OF P-31 AND S-
FACILITY   (CCW  ) COCKCROFT-WALTON ACCELERATOR,710 KV.
INC-SOURCE (D-D  ) 655 KEV DEUTERON BEAM ON DEUTERIUM ICE TARGET.
SAMPLE     .LAYER ON THE INNER SIDE OF A HOLLOW
            PLASTIC CYLINDER SURROUNDING THE TARGET, 180 MM
            DIAMETER, 40 MM WIDTH, 3MM THICK.
METHOD     (ACTIV) ACTIVATION.
DETECTOR   (IOCH ) BRASS TUBE WITH THIN ALUMINIUM WINDOW
            THICKNESS 6 MM.
PART-DET   (B-   ) DECAY BETA MINUS.
STATUS     (NDD  )
HISTORY    (791217T)
           (800110E)
           (860120U)
           (860210E)
ENDBIB              20
COMMON               1          3
EN-RSL
KEV
 3.0000E+01
ENDCOMMON            3
ENDSUBENT           27
SUBENT        21168002     800110              20050926       0000
BIB                  6          8
REACTION   (16-S-32(N,P)15-P-32,,SIG) CROSS SECTION.
METHOD     (ACTIV) ACTIVATION
MONITOR    (16-S-32(N,P)15-P-32,,SIG) NORMALISED TO ABSOLUTE
            VALUES OF KLEMA AND HANSON, PR,73,105,1948.
RAD-DET    (15-P-32,B-)
STATUS     (NDD  )
ERR-ANALYS .STATISTICAL ERROR OF 2 PERCENT, SYSTEMATIC ERROR
            NOT GIVEN.
ENDBIB               8
COMMON               1          3
DATA-ERR
PER-CENT
 2.0000E+00
ENDCOMMON            3
DATA                 2         39
EN         DATA
MEV        B
 1.9000E+00 1.6000E-02
 1.9400E+00 1.6000E-02
 1.9700E+00 1.9000E-02
 2.0000E+00 2.4000E-02
 2.0100E+00 2.8000E-02
 2.0500E+00 3.5000E-02
 2.1000E+00 4.2000E-02
 2.2100E+00 5.0000E-02
 2.2800E+00 6.2000E-02
 2.3100E+00 1.0000E-01
 2.3800E+00 9.5000E-02
 2.4300E+00 8.2000E-02
 2.5100E+00 9.1000E-02
 2.5700E+00 8.4000E-02
 2.6300E+00 7.0000E-02
 2.7000E+00 7.2000E-02
 2.7600E+00 1.3500E-01
 2.8300E+00 1.0400E-01
 2.9000E+00 1.1000E-01
 2.9500E+00 1.2100E-01
 3.0200E+00 1.6000E-01
 3.0800E+00 1.9000E-01
 3.1300E+00 1.5800E-01
 3.1800E+00 1.3000E-01
 3.2200E+00 1.3500E-01
 3.2700E+00 1.4500E-01
 3.3200E+00 1.9200E-01
 3.3400E+00 2.2700E-01
 3.3800E+00 1.9800E-01
 3.4400E+00 1.9600E-01
 3.4700E+00 1.9900E-01
 3.5000E+00 2.0200E-01
 3.5400E+00 2.5500E-01
 3.5500E+00 2.6400E-01
 3.5800E+00 2.6600E-01
 3.5900E+00 2.7100E-01
 3.6000E+00 2.6000E-01
 3.6300E+00 2.3700E-01
 3.6600E+00 2.0000E-01
ENDDATA             41
ENDSUBENT           58
SUBENT        21168003     800110              20050926       0000
BIB                  4          6
REACTION   (16-S-0(N,TOT),,SIG) TOTAL CROSS SECTION
STATUS     (NDD  )
CORRECTION .CORRECTED FOR SAMPLE IMPURITIES, BACKGROUND FROM
            INSCATTERING AND FINITE GEOMETRY EFFECTS.
ERR-ANALYS .TOTAL ERROR OF ONE PERCENT  MAINLY FROM NEUTRON
            INTENSITY FLUCTUATIONS.
ENDBIB               6
COMMON               1          3
DATA-ERR
PER-CENT
 1.0000E+00
ENDCOMMON            3
DATA                 2         58
EN         DATA
MEV        B
 1.9000E+00 1.9000E+00
 1.9200E+00 1.8700E+00
 1.9400E+00 2.1400E+00
 1.9600E+00 2.1700E+00
 1.9800E+00 2.6500E+00
 1.9900E+00 3.0200E+00
 2.0100E+00 2.7100E+00
 2.0200E+00 2.9200E+00
 2.0600E+00 2.8200E+00
 2.0900E+00 2.4400E+00
 2.1200E+00 3.2800E+00
 2.1400E+00 2.9600E+00
 2.1700E+00 2.5600E+00
 2.1800E+00 2.6200E+00
 2.2000E+00 2.5200E+00
 2.2200E+00 2.2600E+00
 2.2300E+00 2.3000E+00
 2.2500E+00 2.2500E+00
 2.2700E+00 2.2800E+00
 2.2900E+00 2.6500E+00
 2.3000E+00 2.9600E+00
 2.3200E+00 3.1100E+00
 2.3400E+00 3.0800E+00
 2.3600E+00 3.1000E+00
 2.3800E+00 2.8500E+00
 2.4200E+00 2.7600E+00
 2.4500E+00 2.9000E+00
 2.4700E+00 2.8700E+00
 2.5100E+00 3.2200E+00
 2.5500E+00 2.8700E+00
 2.6000E+00 2.6500E+00
 2.6600E+00 3.3400E+00
 2.6900E+00 3.6800E+00
 2.7000E+00 3.3900E+00
 2.7300E+00 3.3500E+00
 2.7500E+00 3.3700E+00
 2.8000E+00 3.5000E+00
 2.8500E+00 3.2200E+00
 2.9000E+00 3.1100E+00
 2.9500E+00 3.0300E+00
 3.0000E+00 3.2500E+00
 3.0500E+00 3.4800E+00
 3.0700E+00 3.3700E+00
 3.0900E+00 3.1600E+00
 3.1500E+00 2.8200E+00
 3.1900E+00 3.0400E+00
 3.2400E+00 3.1000E+00
 3.2900E+00 3.0500E+00
 3.3200E+00 2.9000E+00
 3.3600E+00 2.6200E+00
 3.4000E+00 2.6600E+00
 3.4400E+00 2.6100E+00
 3.4700E+00 2.5600E+00
 3.5000E+00 2.5400E+00
 3.5400E+00 2.5200E+00
 3.5900E+00 2.5700E+00
 3.6300E+00 2.5500E+00
 3.6700E+00 2.4900E+00
ENDDATA             60
ENDSUBENT           75
SUBENT        21168004     800110              20050926       0000
BIB                  6          8
REACTION   (15-P-31(N,P)14-SI-31,,SIG) CROSS SECTION.
METHOD     (ACTIV)
MONITOR    (15-P-31(N,P)14-SI-31,,SIG) NORMALISED TO ABSOLUTE VAL
            OF METZGER,ALDER AND HUBER IN HPA,21,278,1948.
RAD-DET    (14-SI-31,B-)
STATUS     (NDD  )
ERR-ANALYS .STATISTICAL ERRORS LESS THAN 2 PERCENT, SYSTEMATIC
            ERRORS NOT GIVEN.
ENDBIB               8
COMMON               1          3
DATA-ERR
PER-CENT
 2.0000E+00
ENDCOMMON            3
DATA                 2         88
EN         DATA
MEV        B
 1.9100E+00 1.0800E-02
 1.9200E+00 1.0200E-02
 1.9280E+00 8.8000E-03
 1.9350E+00 8.0000E-03
 1.9420E+00 8.1000E-03
 1.9500E+00 8.6000E-03
 1.9600E+00 1.0000E-02
 1.9700E+00 1.0400E-02
 1.9900E+00 9.8000E-03
 2.0000E+00 9.2000E-03
 2.0200E+00 8.0000E-03
 2.0300E+00 1.0000E-02
 2.0400E+00 1.0700E-02
 2.0600E+00 1.4300E-02
 2.0700E+00 1.7000E-02
 2.0800E+00 1.9500E-02
 2.1000E+00 1.4900E-02
 2.1200E+00 1.3200E-02
 2.1300E+00 1.7900E-02
 2.1500E+00 1.9000E-02
 2.1600E+00 2.2200E-02
 2.1800E+00 2.8100E-02
 2.2000E+00 2.4600E-02
 2.2200E+00 3.4800E-02
 2.2300E+00 3.3200E-02
 2.2500E+00 2.3300E-02
 2.2700E+00 2.3800E-02
 2.2800E+00 3.4100E-02
 2.3000E+00 3.0700E-02
 2.3200E+00 2.2000E-02
 2.3500E+00 2.9600E-02
 2.3600E+00 3.8000E-02
 2.3800E+00 2.8500E-02
 2.4000E+00 2.8700E-02
 2.4200E+00 3.4000E-02
 2.4500E+00 3.9500E-02
 2.4700E+00 3.7900E-02
 2.4900E+00 3.9300E-02
 2.5100E+00 3.8000E-02
 2.5400E+00 3.7200E-02
 2.5600E+00 4.5400E-02
 2.5800E+00 5.2300E-02
 2.6000E+00 5.6500E-02
 2.6300E+00 5.5900E-02
 2.6500E+00 4.8500E-02
 2.6800E+00 4.8500E-02
 2.7000E+00 5.4000E-02
 2.7300E+00 6.1500E-02
 2.7500E+00 6.2500E-02
 2.7700E+00 5.7100E-02
 2.8000E+00 5.3200E-02
 2.8200E+00 6.3000E-02
 2.8500E+00 6.7000E-02
 2.8800E+00 6.3000E-02
 2.9000E+00 5.3600E-02
 2.9300E+00 4.6200E-02
 2.9500E+00 4.7600E-02
 2.9800E+00 5.2200E-02
 3.0000E+00 5.3000E-02
 3.0300E+00 5.4800E-02
 3.0500E+00 7.1600E-02
 3.0700E+00 7.2200E-02
 3.0900E+00 7.5500E-02
 3.1200E+00 7.8600E-02
 3.1400E+00 8.3200E-02
 3.1700E+00 8.1400E-02
 3.1900E+00 7.8700E-02
 3.2200E+00 7.7200E-02
 3.2400E+00 7.1000E-02
 3.2600E+00 6.8200E-02
 3.2800E+00 6.3900E-02
 3.3000E+00 6.0700E-02
 3.3400E+00 5.8900E-02
 3.3600E+00 6.1400E-02
 3.3800E+00 6.3300E-02
 3.4000E+00 6.8800E-02
 3.4100E+00 6.4200E-02
 3.4300E+00 6.5500E-02
 3.4500E+00 6.4900E-02
 3.4700E+00 6.3800E-02
 3.4800E+00 6.6200E-02
 3.5000E+00 6.0700E-02
 3.5100E+00 6.2300E-02
 3.5500E+00 6.4200E-02
 3.5800E+00 6.7200E-02
 3.6100E+00 6.9800E-02
 3.6200E+00 7.5200E-02
 3.6400E+00 8.1000E-02
ENDDATA             90
ENDSUBENT          107
SUBENT        21168005     800110              20050926       0000
BIB                  4          6
REACTION   (15-P-31(N,TOT),,SIG) TOTAL CROSS SECTION.
STATUS     (NDD  )
CORRECTION .CORRECTED FOR SAMPLE IMPURITIES, BACKGROUND FROM
            INSCATTERING AND FINITE GEOMETRY EFFECTS.
ERR-ANALYS .TOTAL ERROR OF ONE PERCENT MAINLY FROM NEUTRON
            INTENSITY FLUCTUATIONS.
ENDBIB               6
COMMON               1          3
DATA-ERR
PER-CENT
 1.0000E+00
ENDCOMMON            3
DATA                 2         80
EN         DATA
MEV        B
 1.9100E+00 3.3300E+00
 1.9200E+00 3.0600E+00
 1.9400E+00 2.7100E+00
 1.9600E+00 2.9300E+00
 1.9700E+00 3.3100E+00
 1.9900E+00 3.1500E+00
 2.0200E+00 3.2500E+00
 2.0300E+00 3.2900E+00
 2.0500E+00 3.5100E+00
 2.0600E+00 3.7000E+00
 2.0700E+00 3.5700E+00
 2.0900E+00 3.6400E+00
 2.1000E+00 3.6500E+00
 2.1200E+00 3.8100E+00
 2.1300E+00 3.1200E+00
 2.1500E+00 2.9500E+00
 2.1800E+00 3.0600E+00
 2.1900E+00 3.1100E+00
 2.2000E+00 2.9000E+00
 2.2200E+00 3.0700E+00
 2.2300E+00 3.5700E+00
 2.2500E+00 3.3600E+00
 2.2700E+00 2.7400E+00
 2.2800E+00 2.7700E+00
 2.3000E+00 3.0300E+00
 2.3200E+00 2.7800E+00
 2.3400E+00 2.5500E+00
 2.3600E+00 2.8100E+00
 2.3800E+00 2.8700E+00
 2.4000E+00 2.8700E+00
 2.4200E+00 2.8100E+00
 2.4500E+00 2.8700E+00
 2.4600E+00 2.9100E+00
 2.4800E+00 2.9100E+00
 2.4900E+00 2.9200E+00
 2.5100E+00 2.8600E+00
 2.5400E+00 3.0200E+00
 2.5600E+00 2.9000E+00
 2.5700E+00 2.7700E+00
 2.6000E+00 2.9700E+00
 2.6200E+00 3.2200E+00
 2.6500E+00 3.4900E+00
 2.6800E+00 3.3400E+00
 2.7000E+00 3.1100E+00
 2.7200E+00 2.8800E+00
 2.7500E+00 2.8400E+00
 2.7800E+00 3.0100E+00
 2.8000E+00 3.0000E+00
 2.8200E+00 2.7600E+00
 2.8500E+00 2.7400E+00
 2.8800E+00 2.7900E+00
 2.9000E+00 2.9800E+00
 2.9200E+00 2.9800E+00
 2.9500E+00 2.9900E+00
 2.9800E+00 3.1400E+00
 3.0000E+00 3.1800E+00
 3.0300E+00 3.1700E+00
 3.0500E+00 2.9100E+00
 3.0700E+00 3.0400E+00
 3.0900E+00 3.1300E+00
 3.1200E+00 3.0300E+00
 3.1500E+00 3.0100E+00
 3.1700E+00 3.0900E+00
 3.1900E+00 3.1100E+00
 3.2200E+00 3.1200E+00
 3.2400E+00 3.0300E+00
 3.2600E+00 2.9600E+00
 3.2800E+00 2.8300E+00
 3.3200E+00 2.9800E+00
 3.3600E+00 2.9200E+00
 3.4000E+00 2.9200E+00
 3.4400E+00 2.6700E+00
 3.4700E+00 2.6600E+00
 3.5000E+00 2.5700E+00
 3.5200E+00 2.5300E+00
 3.5300E+00 2.5900E+00
 3.5800E+00 2.6700E+00
 3.6300E+00 2.8100E+00
 3.6500E+00 2.6500E+00
 3.6700E+00 2.7100E+00
ENDDATA             82
ENDSUBENT           97
ENDENTRY             5
