ENTRY            F0203   19990409   19990427
SUBENT        F0203001   19990409   19990427
BIB                  9         17
TITLE      Observation of the isoscalar giant resonance in the
           reaction 10B(d,a)8Be(g.s.)
AUTHOR     (W.BUCK,T.ROHWER,G.STAUDT,A.ZIEMKE,F.VOGLER)
INSTITUTE  (2GERTUE,2GERUEN)
REFERENCE  (J,NP/A,297,231,1978)
MONITOR    (5-B-10(D,EL)5-B-10,,DA,,,EXP) The absolute value of
           the cross section was determined by comparing the
           elastic deuteron scattering at 2 MeV with the
           Rutherford cross section
SAMPLE     Self-supporting enriched boron foils having a thickness
           between 60 and 95 mu-g/cm**2
FACILITY   (VDGT,2GERUEN) Ed=0.8-2.0 MeV
           (VDG,2GERTUE)  Ed=2.0-9.0 MeV
DETECTOR   (SOLST) Silicon surface-barrier detectors. Monitor at
            90 degr.
HISTORY    (19850114C)
           (19990409A) CNPD: corrected 4-dig. year
ENDBIB              17
NOCOMMON
ENDSUBENT           20
SUBENT        F0203002   19990409   19990427
BIB                  4          5
REACTION   (5-B-10(D,A)4-BE-8,PAR,DA,,,EXP)
ERR-ANALYS (ANG-ERR) Digitizing error
           (DATA-ERR) Digitizing error
STATUS     (CURVE) fig 1
EN-SEC     (E-LVL,4-BE-8)
ENDBIB               5
COMMON               3          3
E-LVL      ANG-ERR    DATA-ERR
MEV        ADEG       MB/SR
 0.          1.5       0.02
ENDCOMMON            3
DATA                 3        309
EN         ANG-CM     DATA-CM
MEV        ADEG       MB/SR
     0.8       11.72       0.5772
     0.8       19.42       0.6691
     0.8       29.02       0.6073
     0.8       36.7        0.6071
     0.8       44.38       0.5147
     0.8       50.14       0.4838
     0.8       57.83       0.5142
     0.8       65.52       0.5139
     0.8       73.2        0.4523
     0.8       80.89       0.4827
     0.8       88.58       0.4825
     0.8       94.33       0.4208
     0.8      102.         0.4206
     0.8      107.8        0.3897
     0.8      115.5        0.3587
     0.8      123.2        0.3584
     0.8      130.8        0.3275
     0.8      136.6        0.2658
     0.8      144.3        0.2349
     0.8      150.         0.1733
     0.8      157.7        0.173
     1.3       10.67       1.18
     1.3       18.36       1.116
     1.3       26.04       0.89
     1.3       35.64       0.7932
     1.3       43.33       0.632
     1.3       51.01       0.6319
     1.3       58.7        0.5674
     1.3       66.39       0.5996
     1.3       72.15       0.5351
     1.3       79.84       0.6317
     1.3       87.53       0.6316
     1.3       87.53       0.7606
     1.3       95.22       0.7283
     1.3       95.22       0.7927
     1.3      102.9        0.8249
     1.3      110.6        0.8893
     1.3      116.4        0.857
     1.3      122.1        0.8892
     1.3      131.7        0.8246
     1.3      137.5        0.6634
     1.3      145.2        0.5989
     1.3      150.9        0.4699
     1.3      158.6        0.3732
     1.8       11.15       1.343
     1.8       18.82       1.244
     1.8       28.41       0.9464
     1.8       38.         0.814
     1.8       43.75       0.6486
     1.8       51.44       0.6815
     1.8       59.12       0.6152
     1.8       68.75       0.7471
     1.8       76.44       0.846
     1.8       86.05       0.8787
     1.8       91.84       1.077
     1.8       99.54       1.209
     1.8       99.54       1.308
     1.8      107.2        1.341
     1.8      113.         1.539
     1.8      120.7        1.505
     1.8      126.5        1.406
     1.8      134.1        1.373
     1.8      139.9        0.9764
     1.8      147.6        0.844
     1.8      153.3        0.5466
     1.8      160.9        0.3151
     2.4       18.85       0.5811
     2.4       24.64       0.7235
     2.4       32.31       0.6377
     2.4       36.17       0.7232
     2.4       41.93       0.6945
     2.4       47.69       0.6658
     2.4       51.56       0.8082
     2.4       57.33       0.8365
     2.4       61.18       0.8935
     2.4       66.93       0.8362
     2.4       70.79       0.9502
     2.4       76.55       0.8644
     2.4       82.32       0.9498
     2.4       86.17       0.9497
     2.4       91.95       1.035
     2.4       95.79       1.006
     2.4      105.4        1.12
     2.4      117.         1.291
     2.4      124.7        1.405
     2.4      134.3        1.347
     2.4      143.9        1.119
     2.4      155.3        0.8619
     2.4      163.         0.6621
     3.        18.7        0.8852
     3.        24.46       0.8565
     3.        30.22       0.8563
     3.        35.99       0.8276
     3.        41.76       0.8846
     3.        45.61       0.9702
     3.        49.47       1.056
     3.        59.06       0.9698
     3.        61.         1.084
     3.        66.76       0.9982
     3.        74.44       0.998
     3.        78.28       0.9407
     3.        84.04       0.8549
     3.        87.87       0.7691
     3.        93.63       0.7404
     3.        97.46       0.626
     3.        97.47       0.6831
     3.       103.2        0.6544
     3.       105.1        0.5686
     3.       112.8        0.597
     3.       116.7        0.6255
     3.       122.4        0.6824
     3.       126.3        0.6538
     3.       130.1        0.7394
     3.       134.         0.7964
     3.       139.8        0.7962
     3.       143.6        0.6819
     3.       149.4        0.796
     3.       155.1        0.8244
     3.       159.         0.91
     3.       162.8        0.8813
     3.       168.6        0.8526
     3.       172.4        0.9382
     4.        18.63       0.8525
     4.        24.4        0.935
     4.        32.1        0.99
     4.        35.96       1.1
     4.        43.65       1.155
     4.        49.42       1.183
     4.        53.28       1.265
     4.        59.04       1.265
     4.        64.8        1.21
     4.        68.65       1.265
     4.        74.41       1.237
     4.        80.17       1.209
     4.        84.01       1.182
     4.        91.69       1.099
     4.        95.52       0.9882
     4.        99.36       0.9881
     4.       105.1        0.8501
     4.       108.9        0.7948
     4.       112.8        0.6844
     4.       118.6        0.767
     4.       124.3        0.6841
     4.       128.1        0.7115
     4.       132.         0.8493
     4.       135.9        0.8492
     4.       139.7        0.9043
     4.       147.4        0.8213
     4.       147.4        0.9592
     4.       153.2        1.18
     4.       160.9        1.235
     4.       164.8        1.317
     4.       168.6        1.427
     4.       174.4        1.51
     5.        21.01       1.083
     5.        26.8        1.23
     5.        26.82       1.171
     5.        30.62       1.082
     5.        38.32       1.111
     5.        40.27       1.2
     5.        46.02       1.17
     5.        53.7        1.14
     5.        57.53       1.08
     5.        65.21       1.05
     5.        70.97       1.049
     5.        74.81       1.02
     5.        80.57       1.019
     5.        86.33       0.9892
     5.        92.08       0.9591
     5.        97.84       0.9291
     5.       101.7        0.8696
     5.       107.4        0.8396
     5.       111.3        0.8393
     5.       115.1        0.7206
     5.       120.9        0.7794
     5.       124.7        0.8087
     5.       128.5        0.7492
     5.       134.3        0.8376
     5.       138.2        0.9262
     5.       144.         1.074
     5.       147.9        1.192
     5.       151.8        1.518
     5.       155.7        1.725
     5.       161.6        1.991
     5.       165.5        2.138
     5.       171.3        2.464
     6.        18.4        0.7176
     6.        26.07       0.6213
     6.        31.84       0.6692
     6.        37.64       0.8131
     6.        43.4        0.8129
     6.        49.19       0.9328
     6.        53.06       1.101
     6.        58.85       1.221
     6.        64.6        1.148
     6.        70.38       1.244
     6.        76.14       1.172
     6.        78.07       1.244
     6.        81.91       1.196
     6.        85.76       1.268
     6.        89.6        1.22
     6.        95.34       1.1
     6.       101.1        1.027
     6.       104.9        0.8833
     6.       110.7        0.8591
     6.       116.4        0.6908
     6.       120.3        0.7628
     6.       124.1        0.6426
     6.       129.9        0.7385
     6.       133.7        0.8104
     6.       139.5        0.9303
     6.       141.5        1.05
     6.       149.1        1.098
     6.       151.1        1.386
     6.       158.9        1.65
     6.       160.8        1.842
     6.       164.7        2.058
     6.       170.5        2.226
     7.        20.26       0.4024
     7.        27.98       0.608
     7.        33.73       0.5196
     7.        39.49       0.5194
     7.        43.31       0.3428
     7.        51.         0.3426
     7.        56.76       0.313
     7.        60.61       0.3422
     7.        66.38       0.3715
     7.        70.21       0.2537
     7.        77.9        0.2828
     7.        83.65       0.2238
     7.        89.42       0.2236
     7.        93.26       0.1941
     7.        97.09       0.1058
     7.       102.9        0.1644
     7.       106.7        0.0761
     7.       110.6        0.1347
     7.       116.3        0.1639
     7.       122.1        0.1344
     7.       125.9        0.1342
     7.       129.8        0.1929
     7.       135.6        0.3103
     7.       139.4        0.4278
     7.       143.3        0.6335
     7.       149.1        0.6922
     7.       156.9        1.368
     7.       162.6        1.456
     7.       166.5        1.721
     7.       168.4        1.838
     7.       176.1        1.867
     8.        20.65       0.5291
     8.        26.47       0.6465
     8.        34.14       0.6161
     8.        39.87       0.527
     8.        45.6        0.4673
     8.        51.4        0.5257
     8.        57.14       0.466
     8.        62.87       0.4063
     8.        66.7        0.3764
     8.        72.44       0.3167
     8.        78.19       0.2866
     8.        82.05       0.3157
     8.        89.75       0.3443
     8.       103.2        0.4018
     8.       109.         0.4307
     8.       112.8        0.4008
     8.       118.6        0.3706
     8.       124.3        0.3404
     8.       130.1        0.3398
     8.       132.1        0.3691
     8.       135.9        0.3687
     8.       139.8        0.4568
     8.       143.6        0.5153
     8.       149.5        0.6032
     8.       153.4        0.7503
     8.       159.3        1.074
     8.       163.3        1.339
     8.       167.1        1.428
     8.       169.1        1.604
     9.        22.32       0.5135
     9.        28.02       0.3918
     9.        35.73       0.4211
     9.        39.54       0.3601
     9.        45.26       0.2687
     9.        52.98       0.3282
     9.        58.72       0.267
     9.        62.56       0.2665
     9.        68.31       0.2356
     9.        74.07       0.2349
     9.        77.92       0.2344
     9.        83.68       0.2337
     9.        87.51       0.203
     9.        95.2        0.202
     9.        99.06       0.2318
     9.       104.8        0.2311
     9.       110.6        0.2606
     9.       114.4        0.1996
     9.       120.2        0.1989
     9.       125.9        0.1982
     9.       129.8        0.228
     9.       131.7        0.2277
     9.       135.6        0.2878
     9.       141.4        0.2568
     9.       143.3        0.3473
     9.       149.1        0.3768
     9.       153.         0.4671
     9.       158.9        0.6479
     9.       162.8        0.8894
     9.       164.8        1.071
     9.       174.5        1.13
ENDDATA            311
ENDSUBENT          325
SUBENT        F0203003   19990409   19990427
BIB                  4          5
REACTION   (5-B-10(D,A)4-BE-8,PAR,DA,,,EXP)
ERR-ANALYS (EN-ERR) Digitizing error
           (DATA-ERR) Digitizing error
STATUS     (CURVE) fig 2
EN-SEC     (E-LVL,4-BE-8)
ENDBIB               5
COMMON               3          3
E-LVL      EN-ERR     DATA-ERR
MEV        MEV        MB/SR
 0.         0.06       0.03
ENDCOMMON            3
DATA                 3        248
EN         ANG-CM     DATA-CM
MEV        ADEG       MB/SR
     0.4718   150.         0.1512
     0.489     90.         0.1718
     0.5314    70.         0.1562
     0.5326    50.         0.1603
     0.5525   110.         0.1064
     0.5599   130.         0.0864
     0.636     30.         0.0967
     0.6475    70.         0.449
     0.6773   130.         0.3191
     0.7089   150.         0.3515
     0.7236    90.         0.4219
     0.7345   170.         0.0788
     0.7658    50.         0.5291
     0.7891   110.         0.3699
     0.8404    90.         0.5719
     0.8812    50.         0.7925
     0.8837    70.         0.6933
     0.9072   110.         0.528
     0.9469   150.         0.4519
     0.9582    90.         0.672
     0.9713   170.         0.1796
     0.9849    30.         0.6106
     0.9991    50.         0.898
     1.002     70.         0.8398
     1.004     70.         0.6447
     1.035    130.         0.459
     1.066    150.         0.502
     1.099     30.         0.9186
     1.124     70.         0.5962
     1.145    110.         0.6863
     1.153    130.         0.5522
     1.184    150.         0.6022
     1.197     90.         0.6727
     1.211    170.         0.1305
     1.214     30.         1.124
     1.24      50.         0.7409
     1.244     70.         0.5477
     1.336     30.         1.022
     1.383    110.         0.634
     1.384    110.         0.7919
     1.391    130.         0.6455
     1.424    150.         0.5526
     1.435     90.         0.7233
     1.448    170.         0.1314
     1.45     170.         0.2313
     1.48      50.         0.689
     1.51     130.         0.7387
     1.554     90.         0.7236
     1.575     30.         0.9715
     1.6       50.         0.6368
     1.602     70.         0.5483
     1.621    110.         0.8449
     1.66     150.         0.703
     1.661    150.         0.803
     1.672     90.         0.8237
     1.686    170.         0.2822
     1.739    110.         1.003
     1.746    130.         0.8785
     1.747    130.         1.064
     1.779    150.         0.8531
     1.79      90.         0.9238
     1.814     30.         0.9723
     1.839     50.         0.6375
     1.84      70.         0.6463
     1.857    110.         1.214
     1.863    130.         1.344
     1.898    150.         0.9533
     1.906     90.         1.124
     1.926    170.         0.2331
     1.929    170.         0.083
     1.933     30.         1.024
     1.957     50.         0.743
     1.959     70.         0.6953
     1.974    110.         1.424
     2.102    130.         1.298
     2.136    150.         1.004
     2.167    170.         0.134
     2.17      30.         1.127
     2.174     30.         0.9222
     2.196     70.         0.6957
     2.197     50.         0.6386
     2.197     70.         0.842
     2.213    110.         1.477
     2.265     90.         1.075
     2.269     90.         0.8754
     2.28     170.         0.2844
     2.283    170.         0.4343
     2.335    110.         1.162
     2.374    150.         1.104
     2.396    170.         0.5846
     2.434     70.         0.94
     2.435     50.         0.7445
     2.46     130.         1.344
     2.508     90.         0.8263
     2.533     30.         0.8722
     2.576    110.         0.9517
     2.614    150.         1.054
     2.634    170.         0.6355
     2.654     30.         0.77
     2.67      50.         0.9556
     2.698    110.         0.6362
     2.701    130.         1.112
     2.734    150.         0.9046
     2.823    130.         0.8334
     2.867     90.         0.7775
     2.871    170.         0.7363
     2.892     30.         0.8221
     2.91      70.         1.038
     2.937    110.         0.584
     2.975    150.         0.755
     2.987     90.         0.7778
     3.028     50.         1.009
     3.03      70.         1.039
     3.063    130.         0.6477
     3.106    170.         0.8871
     3.132     30.         0.7717
     3.147     50.         1.01
     3.386     70.         1.186
     3.452    150.         0.7558
     3.504     50.         1.116
     3.534    110.         0.6376
     3.542    130.         0.5553
     3.58      90.         1.029
     3.607     30.         0.9271
     3.696    170.         1.239
     3.983     70.         1.235
     4.011    110.         0.691
     4.048    150.         0.9067
     4.056     90.         1.13
     4.099     50.         1.275
     4.138    130.         0.6491
     4.17     170.         1.441
     4.205     30.         0.8779
     4.404    150.         1.207
     4.486    110.         1.008
     4.532     90.         1.231
     4.575     50.         1.382
     4.579     70.         1.334
     4.614    130.         0.8358
     4.632    170.         2.192
     4.68      30.         1.033
     4.822     70.         0.9932
     4.937     50.         1.12
     4.974    130.         0.7432
     5.014     90.         0.9834
     5.085    110.         0.8507
     5.12     150.         1.258
     5.155     30.         1.189
     5.225    170.         2.394
     5.422     70.         0.7505
     5.454    130.         0.4184
     5.483    150.         0.759
     5.484    170.         1.395
     5.494     90.         0.8353
     5.52      30.         0.831
     5.538     50.         0.8589
     5.564    110.         0.641
     5.955    150.         1.41
     5.962     90.         1.385
     6.012     70.         1.385
     6.039    110.         1.063
     6.049    130.         0.7447
     6.121     30.         0.628
     6.131     50.         1.176
     6.19     150.         1.81
     6.248     50.         1.334
     6.249     70.         1.581
     6.287    130.         0.838
     6.316     90.         1.636
     6.414    170.         2.648
     6.449     90.         0.888
     6.477     30.         0.7317
     6.494     70.         0.9963
     6.512    170.         3.648
     6.521    110.         0.4847
     6.553    150.         1.311
     6.595     30.         0.7834
     6.613     50.         0.8621
     6.647    130.         0.5594
     6.653    170.         2.649
     6.935     90.         0.3907
     6.978     70.         0.4607
     7.001    110.         0.275
     7.095     50.         0.6005
     7.144    170.         2.001
     7.194     30.         0.6829
     7.218     70.         0.3149
     7.246    130.         0.3742
     7.273    150.         0.9618
     7.295     90.         0.2921
     7.391    150.         1.062
     7.432     30.         0.735
     7.454     50.         0.549
     7.479    110.         0.2232
     7.485    130.         0.421
     7.499    170.         2.152
     7.574     50.         0.4967
     7.577     70.         0.2668
     7.631    150.         0.9624
     7.654     90.         0.2433
     7.675     30.         0.5307
     7.724    130.         0.3748
     7.739    170.         2.103
     7.814     50.         0.4448
     7.837    110.         0.2764
     7.871    150.         0.8128
     7.893     90.         0.244
     7.915     30.         0.4802
     7.936     70.         0.2187
     7.964    130.         0.2821
     7.983    170.         1.854
     7.993    150.         0.563
     8.076    110.         0.2768
     8.132     90.         0.2447
     8.154     30.         0.4811
     8.172     50.         0.4459
     8.175     70.         0.2191
     8.203    130.         0.2359
     8.229    170.         1.505
     8.233    150.         0.4134
     8.293     50.         0.3411
     8.355    170.         1.206
     8.372     90.         0.1956
     8.394     30.         0.4306
     8.414     70.         0.1708
     8.442    130.         0.1898
     8.533     50.         0.2892
     8.591    150.         0.4139
     8.597    170.         1.057
     8.674    110.         0.1725
     8.681    130.         0.1901
     8.73      90.         0.1967
     8.753     30.         0.3805
     8.831    150.         0.3143
     8.849     90.         0.197
     8.891     50.         0.3428
     8.913    110.         0.1203
     8.992     30.         0.3814
     9.012     50.         0.238
     9.012     70.         0.1719
     9.039    130.         0.237
     9.07     150.         0.3647
     9.076    170.         1.009
     9.088     90.         0.1978
     9.152    110.         0.1734
     9.194    170.         1.059
     9.231     30.         0.3309
     9.278    130.         0.1909
ENDDATA            250
ENDSUBENT          264
ENDENTRY             3
