ENTRY            F0203   20200628   20200819   20200808       F079
SUBENT        F0203001   20200628   20200819   20200808       F079
BIB                 10         20
TITLE      Observation of the isoscalar giant resonance in the
           reaction 10B(d,alpha)8Be(g.s.)
AUTHOR     (W.Buck,T.Rohwer,G.Staudt,A.Ziemke,F.Vogler)
INSTITUTE  (2GERTUE,2GERUEN)
REFERENCE  (J,NP/A,297,231,1978)
FACILITY   (VDG,2GERUEN) Ed=0.8-2.0 MeV
           (VDGT,2GERTUE)  Ed=2.0-9.0 MeV
MONITOR    (5-B-10(D,EL)5-B-10,,DA,,RTH) The absolute value of
           the cross section was determined by comparing the
           elastic deuteron scattering at 2 MeV with the
           Rutherford cross section
SAMPLE     Self-supporting enriched boron foils having a thickness
           between 60 and 95 mu-g/cm**2
DETECTOR   (SIBAR) Silicon surface-barrier detectors. Monitor at
            90 degr.
ERR-ANALYS No information about uncertainties
HISTORY    (19850114C)
           (19990409U) CNPD: corrected 4-dig. year and lower cases
           (20200628A) SD: Corrections in all Subents. BIB updated
           The accuracy of data presentation  has been revised.
ENDBIB              20
COMMON               2          3
EN-NRM     E-LVL
MEV        MEV
  2.         0.0
ENDCOMMON            3
ENDSUBENT           27
SUBENT        F0203002   20200628   20200819   20200808       F079
BIB                  3          5
REACTION   (5-B-10(D,A)4-BE-8,PAR,DA)
STATUS     (CURVE) fig 1 Nucl.Phys.,A297(1978)231
HISTORY    (20200628A) SD: SF9=EXP deleted from REACTION code.
           EN-SEC,ERR-ANALYS deleted. STATUS updated. E-LVL moved
           to Subent 001. ANG-ERR->ANG-ERR-D; DATA-ERR->ERR-DIG.
ENDBIB               5
COMMON               2          3
ANG-ERR-D  ERR-DIG
ADEG       MB/SR
  1.5       0.02
ENDCOMMON            3
DATA                 3        309
EN         ANG-CM     DATA-CM
MEV        ADEG       MB/SR
        0.8       11.7       0.58
        0.8       19.4       0.67
        0.8       29.0       0.61
        0.8       36.7       0.61
        0.8       44.4       0.51
        0.8       50.1       0.48
        0.8       57.8       0.51
        0.8       65.5       0.51
        0.8       73.2       0.45
        0.8       80.9       0.48
        0.8       88.6       0.48
        0.8       94.3       0.42
        0.8      102.0       0.42
        0.8      107.8       0.39
        0.8      115.5       0.36
        0.8      123.2       0.36
        0.8      130.8       0.33
        0.8      136.6       0.27
        0.8      144.3       0.23
        0.8      150.0       0.17
        0.8      157.7       0.17
        1.3       10.7       1.18
        1.3       18.4       1.12
        1.3       26.0       0.89
        1.3       35.6       0.79
        1.3       43.3       0.63
        1.3       51.0       0.63
        1.3       58.7       0.57
        1.3       66.4       0.60
        1.3       72.2       0.54
        1.3       79.8       0.63
        1.3       87.5       0.63
        1.3       87.5       0.76
        1.3       95.2       0.73
        1.3       95.2       0.79
        1.3      102.9       0.82
        1.3      110.6       0.89
        1.3      116.4       0.86
        1.3      122.1       0.89
        1.3      131.7       0.82
        1.3      137.5       0.66
        1.3      145.2       0.60
        1.3      150.9       0.47
        1.3      158.6       0.37
        1.8       11.2       1.34
        1.8       18.8       1.24
        1.8       28.4       0.95
        1.8       38.0       0.81
        1.8       43.8       0.65
        1.8       51.4       0.68
        1.8       59.1       0.62
        1.8       68.8       0.75
        1.8       76.4       0.85
        1.8       86.1       0.88
        1.8       91.8       1.08
        1.8       99.5       1.21
        1.8       99.5       1.31
        1.8      107.2       1.34
        1.8      113.0       1.54
        1.8      120.7       1.51
        1.8      126.5       1.41
        1.8      134.1       1.37
        1.8      139.9       0.98
        1.8      147.6       0.84
        1.8      153.3       0.55
        1.8      160.9       0.32
        2.4       18.9       0.58
        2.4       24.6       0.72
        2.4       32.3       0.64
        2.4       36.2       0.72
        2.4       41.9       0.69
        2.4       47.7       0.67
        2.4       51.6       0.81
        2.4       57.3       0.84
        2.4       61.2       0.89
        2.4       66.9       0.84
        2.4       70.8       0.95
        2.4       76.6       0.86
        2.4       82.3       0.95
        2.4       86.2       0.95
        2.4       92.0       1.04
        2.4       95.8       1.01
        2.4      105.4       1.12
        2.4      117.0       1.29
        2.4      124.7       1.41
        2.4      134.3       1.35
        2.4      143.9       1.12
        2.4      155.3       0.86
        2.4      163.0       0.66
         3.       18.7       0.89
         3.       24.5       0.86
         3.       30.2       0.86
         3.       36.0       0.83
         3.       41.8       0.88
         3.       45.6       0.97
         3.       49.5       1.06
         3.       59.1       0.97
         3.       61.0       1.08
         3.       66.8       1.00
         3.       74.4       1.00
         3.       78.3       0.94
         3.       84.0       0.85
         3.       87.9       0.77
         3.       93.6       0.74
         3.       97.5       0.63
         3.       97.5       0.68
         3.      103.2       0.65
         3.      105.1       0.57
         3.      112.8       0.60
         3.      116.7       0.63
         3.      122.4       0.68
         3.      126.3       0.65
         3.      130.1       0.74
         3.      134.0       0.80
         3.      139.8       0.80
         3.      143.6       0.68
         3.      149.4       0.80
         3.      155.1       0.82
         3.      159.0       0.91
         3.      162.8       0.88
         3.      168.6       0.85
         3.      172.4       0.94
         4.       18.6       0.85
         4.       24.4       0.94
         4.       32.1       0.99
         4.       36.0       1.10
         4.       43.7       1.16
         4.       49.4       1.18
         4.       53.3       1.26
         4.       59.0       1.26
         4.       64.8       1.21
         4.       68.7       1.26
         4.       74.4       1.24
         4.       80.2       1.21
         4.       84.0       1.18
         4.       91.7       1.10
         4.       95.5       0.99
         4.       99.4       0.99
         4.      105.1       0.85
         4.      108.9       0.79
         4.      112.8       0.68
         4.      118.6       0.77
         4.      124.3       0.68
         4.      128.1       0.71
         4.      132.0       0.85
         4.      135.9       0.85
         4.      139.7       0.90
         4.      147.4       0.82
         4.      147.4       0.96
         4.      153.2       1.18
         4.      160.9       1.24
         4.      164.8       1.32
         4.      168.6       1.43
         4.      174.4       1.51
         5.       21.0       1.08
         5.       26.8       1.23
         5.       26.8       1.17
         5.       30.6       1.08
         5.       38.3       1.11
         5.       40.3       1.20
         5.       46.0       1.17
         5.       53.7       1.14
         5.       57.5       1.08
         5.       65.2       1.05
         5.       71.0       1.05
         5.       74.8       1.02
         5.       80.6       1.02
         5.       86.3       0.99
         5.       92.1       0.96
         5.       97.8       0.93
         5.      101.7       0.87
         5.      107.4       0.84
         5.      111.3       0.84
         5.      115.1       0.72
         5.      120.9       0.78
         5.      124.7       0.81
         5.      128.5       0.75
         5.      134.3       0.84
         5.      138.2       0.93
         5.      144.0       1.07
         5.      147.9       1.19
         5.      151.8       1.52
         5.      155.7       1.73
         5.      161.6       1.99
         5.      165.5       2.14
         5.      171.3       2.46
         6.       18.4       0.72
         6.       26.1       0.62
         6.       31.8       0.67
         6.       37.6       0.81
         6.       43.4       0.81
         6.       49.2       0.93
         6.       53.1       1.10
         6.       58.9       1.22
         6.       64.6       1.15
         6.       70.4       1.24
         6.       76.1       1.17
         6.       78.1       1.24
         6.       81.9       1.20
         6.       85.8       1.27
         6.       89.6       1.22
         6.       95.3       1.10
         6.      101.1       1.03
         6.      104.9       0.88
         6.      110.7       0.86
         6.      116.4       0.69
         6.      120.3       0.76
         6.      124.1       0.64
         6.      129.9       0.74
         6.      133.7       0.81
         6.      139.5       0.93
         6.      141.5       1.05
         6.      149.1       1.10
         6.      151.1       1.39
         6.      158.9       1.65
         6.      160.8       1.84
         6.      164.7       2.06
         6.      170.5       2.23
         7.       20.3       0.40
         7.       28.0       0.61
         7.       33.7       0.52
         7.       39.5       0.52
         7.       43.3       0.34
         7.       51.0       0.34
         7.       56.8       0.31
         7.       60.6       0.34
         7.       66.4       0.37
         7.       70.2       0.25
         7.       77.9       0.28
         7.       83.7       0.22
         7.       89.4       0.22
         7.       93.3       0.19
         7.       97.1       0.11
         7.      102.9       0.16
         7.      106.7       0.08
         7.      110.6       0.13
         7.      116.3       0.16
         7.      122.1       0.13
         7.      125.9       0.13
         7.      129.8       0.19
         7.      135.6       0.31
         7.      139.4       0.43
         7.      143.3       0.63
         7.      149.1       0.69
         7.      156.9       1.37
         7.      162.6       1.46
         7.      166.5       1.72
         7.      168.4       1.84
         7.      176.1       1.87
         8.       20.7       0.53
         8.       26.5       0.65
         8.       34.1       0.62
         8.       39.9       0.53
         8.       45.6       0.47
         8.       51.4       0.53
         8.       57.1       0.47
         8.       62.9       0.41
         8.       66.7       0.38
         8.       72.4       0.32
         8.       78.2       0.29
         8.       82.1       0.32
         8.       89.8       0.34
         8.      103.2       0.40
         8.      109.0       0.43
         8.      112.8       0.40
         8.      118.6       0.37
         8.      124.3       0.34
         8.      130.1       0.34
         8.      132.1       0.37
         8.      135.9       0.37
         8.      139.8       0.46
         8.      143.6       0.52
         8.      149.5       0.60
         8.      153.4       0.75
         8.      159.3       1.07
         8.      163.3       1.34
         8.      167.1       1.43
         8.      169.1       1.60
         9.       22.3       0.51
         9.       28.0       0.39
         9.       35.7       0.42
         9.       39.5       0.36
         9.       45.3       0.27
         9.       53.0       0.33
         9.       58.7       0.27
         9.       62.6       0.27
         9.       68.3       0.24
         9.       74.1       0.23
         9.       77.9       0.23
         9.       83.7       0.23
         9.       87.5       0.20
         9.       95.2       0.20
         9.       99.1       0.23
         9.      104.8       0.23
         9.      110.6       0.26
         9.      114.4       0.20
         9.      120.2       0.20
         9.      125.9       0.20
         9.      129.8       0.23
         9.      131.7       0.23
         9.      135.6       0.29
         9.      141.4       0.26
         9.      143.3       0.35
         9.      149.1       0.38
         9.      153.0       0.47
         9.      158.9       0.65
         9.      162.8       0.89
         9.      164.8       1.07
         9.      174.5       1.13
ENDDATA            311
ENDSUBENT          325
SUBENT        F0203003   20200628   20200819   20200808       F079
BIB                  3          5
REACTION   (5-B-10(D,A)4-BE-8,PAR,DA)
STATUS     (CURVE) fig 2 Nucl.Phys.,A297(1978)231
HISTORY    (20200628A) SD: SF9=EXP deleted from REACTION code.
           EN-SEC,ERR-ANALYS deleted. STATUS updated. E-LVL moved
           to Subent 001. EN-ERR->EN-ERR-DIG; DATA-ERR->ERR-DIG.
ENDBIB               5
COMMON               2          3
EN-ERR-DIG ERR-DIG
MEV        MB/SR
 0.06       0.03
ENDCOMMON            3
DATA                 3        248
ANG-CM     EN         DATA-CM
ADEG       MEV        MB/SR
        30.       0.64       0.10
        30.       0.98       0.61
        30.       1.10       0.92
        30.       1.21       1.12
        30.       1.34       1.02
        30.       1.58       0.97
        30.       1.81       0.97
        30.       1.93       1.02
        30.       2.17       1.13
        30.       2.17       0.92
        30.       2.53       0.87
        30.       2.65       0.77
        30.       2.89       0.82
        30.       3.13       0.77
        30.       3.61       0.93
        30.       4.21       0.88
        30.       4.68       1.03
        30.       5.16       1.19
        30.       5.52       0.83
        30.       6.12       0.63
        30.       6.48       0.73
        30.       6.60       0.78
        30.       7.19       0.68
        30.       7.43       0.74
        30.       7.68       0.53
        30.       7.92       0.48
        30.       8.15       0.48
        30.       8.39       0.43
        30.       8.75       0.38
        30.       8.99       0.38
        30.       9.23       0.33
        50.       0.53       0.16
        50.       0.77       0.53
        50.       0.88       0.79
        50.       1.00       0.90
        50.       1.24       0.74
        50.       1.48       0.69
        50.       1.60       0.64
        50.       1.84       0.64
        50.       1.96       0.74
        50.       2.20       0.64
        50.       2.44       0.74
        50.       2.67       0.96
        50.       3.03       1.01
        50.       3.15       1.01
        50.       3.50       1.12
        50.       4.10       1.27
        50.       4.58       1.38
        50.       4.94       1.12
        50.       5.54       0.86
        50.       6.13       1.18
        50.       6.25       1.33
        50.       6.61       0.86
        50.       7.10       0.60
        50.       7.45       0.55
        50.       7.57       0.50
        50.       7.81       0.44
        50.       8.17       0.45
        50.       8.29       0.34
        50.       8.53       0.29
        50.       8.89       0.34
        50.       9.01       0.24
        70.       0.53       0.16
        70.       0.65       0.45
        70.       0.88       0.69
        70.       1.00       0.84
        70.       1.00       0.64
        70.       1.12       0.60
        70.       1.24       0.55
        70.       1.60       0.55
        70.       1.84       0.65
        70.       1.96       0.70
        70.       2.20       0.70
        70.       2.20       0.84
        70.       2.43       0.94
        70.       2.91       1.04
        70.       3.03       1.04
        70.       3.39       1.19
        70.       3.98       1.24
        70.       4.58       1.33
        70.       4.82       0.99
        70.       5.42       0.75
        70.       6.01       1.39
        70.       6.25       1.58
        70.       6.49       1.00
        70.       6.98       0.46
        70.       7.22       0.31
        70.       7.58       0.27
        70.       7.94       0.22
        70.       8.18       0.22
        70.       8.41       0.17
        70.       9.01       0.17
        90.       0.49       0.17
        90.       0.72       0.42
        90.       0.84       0.57
        90.       0.96       0.67
        90.       1.20       0.67
        90.       1.44       0.72
        90.       1.55       0.72
        90.       1.67       0.82
        90.       1.79       0.92
        90.       1.91       1.12
        90.       2.27       1.08
        90.       2.27       0.88
        90.       2.51       0.83
        90.       2.87       0.78
        90.       2.99       0.78
        90.       3.58       1.03
        90.       4.06       1.13
        90.       4.53       1.23
        90.       5.01       0.98
        90.       5.49       0.84
        90.       5.96       1.39
        90.       6.32       1.64
        90.       6.45       0.89
        90.       6.94       0.39
        90.       7.30       0.29
        90.       7.65       0.24
        90.       7.89       0.24
        90.       8.13       0.24
        90.       8.37       0.20
        90.       8.73       0.20
        90.       8.85       0.20
        90.       9.09       0.20
       110.       0.55       0.11
       110.       0.79       0.37
       110.       0.91       0.53
       110.       1.15       0.69
       110.       1.38       0.63
       110.       1.38       0.79
       110.       1.62       0.84
       110.       1.74       1.00
       110.       1.86       1.21
       110.       1.97       1.42
       110.       2.21       1.48
       110.       2.34       1.16
       110.       2.58       0.95
       110.       2.70       0.64
       110.       2.94       0.58
       110.       3.53       0.64
       110.       4.01       0.69
       110.       4.49       1.01
       110.       5.09       0.85
       110.       5.56       0.64
       110.       6.04       1.06
       110.       6.52       0.48
       110.       7.00       0.28
       110.       7.48       0.22
       110.       7.84       0.28
       110.       8.08       0.28
       110.       8.67       0.17
       110.       8.91       0.12
       110.       9.15       0.17
       130.       0.56       0.09
       130.       0.68       0.32
       130.       1.04       0.46
       130.       1.15       0.55
       130.       1.39       0.65
       130.       1.51       0.74
       130.       1.75       0.88
       130.       1.75       1.06
       130.       1.86       1.34
       130.       2.10       1.30
       130.       2.46       1.34
       130.       2.70       1.11
       130.       2.82       0.83
       130.       3.06       0.65
       130.       3.54       0.56
       130.       4.14       0.65
       130.       4.61       0.84
       130.       4.97       0.74
       130.       5.45       0.42
       130.       6.05       0.74
       130.       6.29       0.84
       130.       6.65       0.56
       130.       7.25       0.37
       130.       7.49       0.42
       130.       7.72       0.37
       130.       7.96       0.28
       130.       8.20       0.24
       130.       8.44       0.19
       130.       8.68       0.19
       130.       9.04       0.24
       130.       9.28       0.19
       150.       0.47       0.15
       150.       0.71       0.35
       150.       0.95       0.45
       150.       1.07       0.50
       150.       1.18       0.60
       150.       1.42       0.55
       150.       1.66       0.70
       150.       1.66       0.80
       150.       1.78       0.85
       150.       1.90       0.95
       150.       2.14       1.00
       150.       2.37       1.10
       150.       2.61       1.05
       150.       2.73       0.90
       150.       2.98       0.76
       150.       3.45       0.76
       150.       4.05       0.91
       150.       4.40       1.21
       150.       5.12       1.26
       150.       5.48       0.76
       150.       5.96       1.41
       150.       6.19       1.81
       150.       6.55       1.31
       150.       7.27       0.96
       150.       7.39       1.06
       150.       7.63       0.96
       150.       7.87       0.81
       150.       7.99       0.56
       150.       8.23       0.41
       150.       8.59       0.41
       150.       8.83       0.31
       150.       9.07       0.36
       170.       0.73       0.08
       170.       0.97       0.18
       170.       1.21       0.13
       170.       1.45       0.13
       170.       1.45       0.23
       170.       1.69       0.28
       170.       1.93       0.23
       170.       1.93       0.08
       170.       2.17       0.13
       170.       2.28       0.28
       170.       2.28       0.43
       170.       2.40       0.58
       170.       2.63       0.64
       170.       2.87       0.74
       170.       3.11       0.89
       170.       3.70       1.24
       170.       4.17       1.44
       170.       4.63       2.19
       170.       5.22       2.39
       170.       5.48       1.40
       170.       6.41       2.65
       170.       6.51       3.65
       170.       6.65       2.65
       170.       7.14       2.00
       170.       7.50       2.15
       170.       7.74       2.10
       170.       7.98       1.85
       170.       8.23       1.51
       170.       8.36       1.21
       170.       8.60       1.06
       170.       9.08       1.01
       170.       9.19       1.06
ENDDATA            250
ENDSUBENT          264
ENDENTRY             3
