ENTRY            F0218   20090319   20090508   20090508       F035
SUBENT        F0218001   20090319   20090508   20090508       F035
BIB                 10         26
TITLE      Neutrons from the bombardment of beryllium by deuterons
AUTHOR     (K.A.Weaver,J.D.Anderson,H.H.Barschall,J.C.Davis)
INSTITUTE  (1USAWIS)
REFERENCE  (J,PMB,18,64,1973)
           (J,NSE,52,35,1973) Data on Li, C, and D were added.
SAMPLE     The deuterium target was gaseous; the lithium,
           beryllium, and carbon targets were solid. Lithium and
           carbon were natural isotopic mixtures. All target
           materials had a chemical purity higher than 98%.
           50-, 70-, 75-, and 100- mu-m beryllium targets were
           also used.
FACILITY   (CYCTM) Deuterons accelerated in a cyclotron-tandem
           Van de Graaf combination.
METHOD     (PSD)
DETECTOR   (SCIN) Liquid scintillator of 5*5 cm NE213.
ERR-ANALYS (ERR-1) Detector efficiency was calculated with an
           uncertainty of 7%. This was the principal source of
           error in the measurements.
           (ERR-DIG) Data digitizing error
HISTORY    (19850124C)
           (20070117A)Low case in AUTHOR record. Changes in
           ERR-ANALYS. COMMON section was added. REACTION code
           in sub002 was changed. Sub003 was changed. Sub004,005,
           006 were added.
           (20090317A) Data from J,NSE,52,35,1973 were added.
           Sub 002-006 were changed. Sub 007-014 were added.
ENDBIB              26
COMMON               1          3
ERR-1
PER-CENT
 7.
ENDCOMMON            3
ENDSUBENT           33
SUBENT        F0218002   20090319   20090508   20090508       F035
BIB                  5         10
REACTION   (4-BE-9(D,N)5-B-10,,DA/DE)
EN-SEC     (E,N)
FLAG       (1.) Target thickness was 9.9 mg/cm2
           (2.) Target thickness was between 10 and 20 mg/cm2
           (3.) Target thickness was 19.2 mg/cm2
ERR-ANALYS (EN-ERR-DIG) Energy digitizing error
           (ERR-S)      Statistical error
           (ERR-SYS)    Systematic error
STATUS     (CURVE) Fig.1(a)   J,PMB,18,64,1973;
                   Fig.3(a,c) J,NSE,52,35,1973
ENDBIB              10
COMMON               4          3
ANG        EN-ERR-DIG ERR-SYS    ERR-DIG
ADEG       MEV        PER-CENT   MB/SR/MEV
 3.5        0.002      10.        0.05
ENDCOMMON            3
DATA                 5        256
EN         E          DATA       ERR-S      FLAG
MEV        MEV        MB/SR/MEV  MB/SR/MEV  NO-DIM
        8.8     2.6223      46.35     1.6693         1.
        8.8     2.7204     49.303                    1.
        8.8     2.8675     53.412                    1.
        8.8     2.9985     62.528                    1.
        8.8     3.2112     73.314                    1.
        8.8     3.3419     75.497                    1.
        8.8     3.5378     74.084     1.5409         1.
        8.8     3.6683     71.901                    1.
        8.8     3.7494     60.215                    1.
        8.8     3.9778     54.693     1.5409         1.
        8.8     4.1084     55.591                    1.
        8.8     4.2391     57.004                    1.
        8.8     4.4026     61.626                    1.
        8.8     4.5662     71.256                    1.
        8.8     4.7296     74.851                    1.
        8.8     4.8926     66.761     1.6693         1.
        8.8     4.9739     60.726                    1.
        8.8     5.1536     62.523                    1.
        8.8     5.2838     52.378     1.5409         1.
        8.8     5.4143     50.066                    1.
        8.8     5.5777     51.607                    1.
        8.8      5.741     53.147     1.2841         1.
        8.8     5.9038     42.489                    1.
        8.8     6.0181     42.232                    1.
        8.8     6.1651     44.029     1.6693         1.
        8.8     6.3121     45.955                    1.
        8.8     6.4755     49.422                    1.
        8.8     6.6223     44.927     1.4125         1.
        8.8     6.7525     35.296                    1.
        8.8     6.9156       31.7                    1.
        8.8     7.0633     49.163                    1.
        8.8     7.1782     64.059                    1.
        8.8      7.358      69.58                    1.
        8.8     7.5049     69.323     1.6693         1.
        8.8     7.6517     65.213                    1.
        8.8     7.7647     35.293                    1.
        8.8     7.9274     20.012                    1.
        8.8     8.0576     9.9954                    1.
        8.8     8.2206     5.1154                    1.
        8.8     8.3511     2.5468                    1.
        8.8      8.547     1.6474                    1.
        8.8     8.6777     2.9312                    1.
        8.8     8.8084     4.4718                    1.
        8.8     9.0859     4.4711                    1.
        8.8     9.2328     2.2877                    1.
        8.8      9.396     1.5169                    1.
        8.8     9.5592    0.87438                    1.
        8.8     9.7225    0.74555                    1.
        8.8     9.8694    0.87358                    1.
        8.8     10.016     1.2584                    1.
        8.8      10.18     2.1569                    1.
        8.8     10.343     3.0554                    1.
        8.8     10.474     2.5414                    1.
        8.8     10.539     3.6969                    1.
        8.8     10.735     3.8248                    1.
        8.8     10.882     3.4392                    1.
        8.8      10.98     2.2833                    1.
        8.8     11.159     2.1544                    1.
        8.8     11.306     2.2824                    1.
        8.8     11.453     2.7957                    1.
        8.8     11.551     3.5659                    1.
        8.8     11.633     4.3362                    1.
        8.8     11.763     4.8495                    1.
        8.8     11.927     5.1059                    1.
        8.8     12.074     4.9771                    1.
        8.8     12.221     4.7199                    1.
        8.8     12.433      5.875                    1.
        8.8     12.547       6.26                    1.
        8.8     12.661     5.6176                    1.
        8.8     12.808     3.5627                    1.
        8.8     12.955      4.718                    1.
        8.8     13.053     3.1768                    1.
        8.8     13.151     1.7641                    1.
        8.8     13.298     1.7637                    1.
        8.8     13.478     1.5064                    1.
        18.      2.553      54.04                    2.
        18.       2.82      52.81       1.33         2.
        18.       3.22      51.76                    2.
        18.      3.705      38.65                    2.
        18.      4.029      38.36        1.9         2.
        18.      4.294      38.64                    2.
        18.       4.54      40.07                    2.
        18.      4.772      35.79                    2.
        18.      5.057      34.93                    2.
        18.      5.344      33.51       1.14         2.
        18.       5.82      31.51                    2.
        18.      6.366      38.91                    2.
        18.      6.875      43.95                    2.
        18.      7.327       48.5      1.235         2.
        18.       7.82      50.21                    2.
        18.      8.103      52.96                    2.
        18.      8.364      59.42                    2.
        18.      8.857      61.13                    2.
        18.      9.309      66.64                    2.
        18.      9.742      71.19                    2.
        18.      10.05      70.91       1.52         2.
        18.      10.27      73.75                    2.
        18.      10.53      63.02                    2.
        18.      10.99      50.95                    2.
        18.      11.47      44.11                    2.
        18.      11.76      38.21                    2.
        18.      12.02      44.01                    2.
        18.      12.17      56.55                    2.
        18.      12.45      63.57      1.615         2.
        18.      12.66      54.93                    2.
        18.      12.88      42.58                    2.
        18.      13.04      37.73                    2.
        18.      13.32      39.53                    2.
        18.      13.62      41.62       1.14         2.
        18.      13.89      39.34                    2.
        18.      14.01      35.82                    2.
        18.      14.27      34.87                    2.
        18.      14.56      29.74       1.14         2.
        18.      14.71      35.72                    2.
        18.      14.99        38.                    2.
        18.      15.14      40.76                    2.
        18.      15.51       39.8                    2.
        18.      15.91      29.64                    2.
        18.       16.1      33.91      1.425         2.
        18.      16.31      31.15                    2.
        18.      16.76      17.47                    2.
        18.      16.97      8.918       0.95         2.
        18.       17.3      3.216                    2.
        18.      17.49     0.5544      1.045         2.
        18.      17.72     0.1729                    2.
        18.      17.87     0.2669                    2.
        18.      18.12     0.7403                    2.
        18.       18.5 7.2800E-02                    2.
        18.      18.84 7.0600E-02                    2.
        18.      19.01     0.4495                    2.
        18.      19.51      2.631                    2.
        18.      19.69       2.82                    2.
        18.      19.94      2.438                    2.
        18.      20.15      2.627                    2.
        18.       20.4      2.435                    2.
        18.      20.64      3.954                    2.
        18.      20.91      3.952                    2.
        18.       21.1      4.046                    2.
        18.      21.29       3.95                    2.
        18.       21.6      2.333                    2.
        18.      21.82      1.571                    2.
        18.      22.15      0.809                    2.
        18.      22.41     0.2378                    2.
       18.1     3.7471     45.867                    3.
       18.1     3.9589     38.346                    3.
       18.1     4.0636     37.635     1.4231         3.
       18.1     4.2193     39.974                    3.
       18.1     4.3768     37.739                    3.
       18.1     4.5586     39.875     1.5248         3.
       18.1      4.715     40.587                    3.
       18.1     4.8211     36.217                    3.
       18.1     4.9525      33.88     1.1182         3.
       18.1     5.1349     34.592                    3.
       18.1      5.239     35.508                    3.
       18.1     5.3966     32.866     1.5248         3.
       18.1     5.6839     32.461                    3.
       18.1     5.8146     31.852    0.91486         3.
       18.1     5.9701       34.8                    3.
       18.1     6.1003     35.513                    3.
       18.1      6.283     35.514     1.3215         3.
       18.1      6.464     39.988                    3.
       18.1     6.6205      40.09                    3.
       18.1     6.7239     42.632     1.4231         3.
       18.1     6.9326     42.938                    3.
       18.1     7.0892     43.041                    3.
       18.1     7.2461      42.33                    3.
       18.1      7.375     46.397                    3.
       18.1     7.5307     48.736                    3.
       18.1     7.6623     45.992                    3.
       18.1     7.7921     47.823                    3.
       18.1     7.9222     48.738                    3.
       18.1      8.077     53.314                    3.
       18.1     8.2084     50.976                    3.
       18.1     8.3361     58.296                    3.
       18.1     8.5454     57.077     1.2198         3.
       18.1     8.6234     57.891                    3.
       18.1     8.6503     55.858                    3.
       18.1     8.7817     53.521                    3.
       18.1     8.9872     61.959     1.4231         3.
       18.1     9.0157     55.759                    3.
       18.1     9.2727     66.129                    3.
       18.1     9.3791     60.945     1.5248         3.
       18.1      9.586     65.826                    3.
       18.1     9.6908      64.81                    3.
       18.1     9.8199     68.368     1.2198         3.
       18.1     9.9246     67.556                    3.
       18.1     10.186     67.557                    3.
       18.1     10.315     71.014     1.5248         3.
       18.1     10.501     61.053                    3.
       18.1     10.608     55.972                    3.
       18.1     10.738     55.566                    3.
       18.1     10.872     46.824                    3.
       18.1     11.056     45.504                    3.
       18.1     11.137     38.287     1.5248         3.
       18.1     11.344      42.66                    3.
       18.1     11.422     43.981                    3.
       18.1     11.633     36.765     1.2198         3.
       18.1     11.738      35.75                    3.
       18.1     11.918      41.85                    3.
       18.1     12.044     53.642                    3.
       18.1     12.148     55.574                    3.
       18.1     12.302     61.064                    3.
       18.1     12.488     52.933                    3.
       18.1     12.699     46.937                    3.
       18.1      12.78     40.127                    3.
       18.1     12.861     34.028     1.2198         3.
       18.1     13.068     37.994                    3.
       18.1     13.096     34.944                    3.
       18.1     13.381     39.215                    3.
       18.1     13.536     43.079                    3.
       18.1     13.667     41.352                    3.
       18.1     13.775     33.525                    3.
       18.1     13.957     34.136                    3.
       18.1     14.062     32.206                    3.
       18.1     14.298     31.699    0.71156         3.
       18.1     14.429     28.142                    3.
       18.1     14.584     34.038                    3.
       18.1     14.741     33.429                    3.
       18.1     14.895     38.818                    3.
       18.1     15.078     39.124                    3.
       18.1     15.156     38.006     1.1182         3.
       18.1     15.313     38.109                    3.
       18.1     15.445     33.332                    3.
       18.1      15.63      28.25     1.2198         3.
       18.1     15.813     28.251                    3.
       18.1     15.994     32.522                    3.
       18.1     16.125     30.286     1.3215         3.
       18.1     16.229     32.625                    3.
       18.1     16.468     22.563                    3.
       18.1     16.626      17.38                    3.
       18.1     16.838     8.9438                    3.
       18.1     16.997      4.472                    3.
       18.1     17.128     2.5414                    3.
       18.1     17.285     1.4242                    3.
       18.1     17.468    0.81537                    3.
       18.1     17.703     1.1217                    3.
       18.1     17.937     1.4281                    3.
       18.1     18.042     1.1237                    3.
       18.1     18.225    0.41326                    3.
       18.1     18.512    0.41497                    3.
       18.1     18.642     0.7207                    3.
       18.1     18.825     1.3317                    3.
       18.1     19.034     1.7395                    3.
       18.1     19.268     2.9607                    3.
       18.1     19.477     3.0636                    3.
       18.1      19.66     2.7598                    3.
       18.1     19.921     2.9646                    3.
       18.1     20.155     2.8644                    3.
       18.1      20.39     4.1872                    3.
       18.1     20.599     4.1885                    3.
       18.1      20.86       4.19                    3.
       18.1     21.121     3.9883                    3.
       18.1     21.356     2.7698                    3.
       18.1      21.67     1.9585                    3.
       18.1     21.931     1.2485                    3.
       18.1     22.088    0.33454                    3.
ENDDATA            258
ENDSUBENT          277
SUBENT        F0218003   20090319   20090508   20090508       F035
BIB                  5          9
REACTION   (4-BE-9(D,N)5-B-10,,TTY/MLT/DA/DE)
EN-SEC     (E,N)
SAMPLE     The thick Be target consisted of 0.47 g/cm2 of Be metal
           of purity higher than 98.5%.
ERR-ANALYS (EN-ERR-DIG) Energy digitizing error
           (ERR-S)      Statistical error
           (ERR-SYS)    Systematic error
STATUS     (CURVE) Fig.1(b)   J,PMB,18,64,1973;
                   Fig.3(b,d) J,NSE,52,35,1973
ENDBIB               9
COMMON               4          3
ANG        EN-ERR-DIG ERR-SYS    ERR-DIG
ADEG       MEV        PER-CENT   P/MEVMUCSR
 3.5        0.017      10.        2.1372E+06
ENDCOMMON            3
DATA                 4        229
EN         E          DATA       ERR-S
MEV        MEV        P/MEVMUCSR P/MEVMUCSR
        8.8     2.7158 1.6058E+09 4.0570E+07
        8.8     2.8625 1.6236E+09
        8.8     3.0099 1.5831E+09
        8.8     3.0908 1.6490E+09 4.5642E+07
        8.8     3.3044 1.5324E+09
        8.8     3.4512 1.5401E+09
        8.8     3.6159 1.4235E+09 3.0428E+07
        8.8     3.7464 1.4311E+09
        8.8     3.8446 1.4109E+09
        8.8      4.042 1.2842E+09 3.0428E+07
        8.8     4.1724 1.3019E+09
        8.8     4.3365 1.2310E+09
        8.8     4.4835 1.2260E+09
        8.8     4.4838 1.1981E+09
        8.8     4.5977 1.2387E+09
        8.8     4.7617 1.1753E+09
        8.8     4.9098 1.0739E+09 2.2821E+07
        8.8     5.0404 1.0714E+09
        8.8     5.2049 9.7260E+08
        8.8     5.3044 8.4078E+08 2.0285E+07
        8.8     5.4837 8.6872E+08
        8.8     5.6146 8.4340E+08
        8.8     5.7948 7.8767E+08 2.5356E+07
        8.8     5.9096 7.4206E+08
        8.8     6.0407 7.0660E+08
        8.8     6.2043 6.7622E+08 2.0285E+07
        8.8     6.3351 6.6357E+08
        8.8     6.4989 6.1037E+08
        8.8     6.6466 5.4956E+08
        8.8     6.7938 5.2424E+08
        8.8     6.9415 4.6090E+08
        8.8     7.1216 4.1784E+08
        8.8     7.2524 4.0520E+08
        8.8     7.4157 4.0271E+08
        8.8     7.5136 4.0274E+08
        8.8     7.6943 3.0897E+08
        8.8     7.8267 1.6194E+08
        8.8     7.9742 1.1381E+08
        8.8     8.1209 1.3160E+08
        8.8     8.2355 1.0627E+08
        8.8     8.3989 9.8713E+07
        8.8     8.5621 9.8759E+07
        8.8     8.6927 9.8797E+07
        8.8      8.856 9.8843E+07
        8.8     8.9867 9.3809E+07
        8.8     9.1337 8.8779E+07
        8.8     9.2807 8.3750E+07
        8.8     9.4116 6.0966E+07
        8.8     9.5911 6.6089E+07
        8.8     9.7543 7.1206E+07
        8.8     9.9013 6.8713E+07
        8.8     10.032 6.8750E+07
        8.8     10.179 9.1612E+07
        8.8     10.326 8.1511E+07
        8.8     10.489 8.1558E+07
        8.8     10.668 8.1609E+07
        8.8     10.766 7.9101E+07
        8.8     10.897 6.8996E+07
        8.8     11.044 6.6502E+07
        8.8     11.208 5.6406E+07
        8.8     11.354 5.3912E+07
        8.8     11.518 6.4101E+07
        8.8     11.616 5.1451E+07
        8.8     11.795 5.9109E+07
        8.8     12.008 5.6633E+07
        8.8     12.154 5.6675E+07
        8.8     12.285 6.1784E+07
        8.8       12.4 3.6460E+07
        8.8     12.595 4.1587E+07
        8.8      12.84 3.1514E+07
        18.      2.882 4.4993E+09
        18.     3.1933 4.4992E+09
        18.     3.5039 4.1866E+09
        18.     3.7526 4.0407E+09
        18.     4.0638 4.0406E+09
        18.     4.5624 4.2697E+09
        18.     4.8741 4.4571E+09
        18.     5.0606 4.3320E+09
        18.     5.3719 4.3111E+09
        18.     5.6203 4.0819E+09
        18.       5.87 4.3526E+09
        18.      6.119 4.3526E+09
        18.     6.3683 4.4567E+09
        18.     6.6798 4.5608E+09
        18.      6.929 4.6232E+09
        18.     7.1149 4.2482E+09
        18.     7.6125 4.0397E+09
        18.     8.1726 3.9562E+09
        18.     8.6082 3.8936E+09
        18.     9.1063 3.9143E+09
        18.     9.3548 3.6642E+09
        18.     9.6033 3.4558E+09
        18.     10.163 3.3515E+09
        18.     10.536 2.9348E+09
        18.     11.095 2.5388E+09
        18.     11.531 2.2678E+09
        18.     11.966 2.0177E+09
        18.     12.152 1.9135E+09
        18.     12.464 1.9968E+09
        18.     12.713 1.9967E+09
        18.     12.961 1.6008E+09
        18.     13.521 1.3507E+09
        18.      14.08 1.1422E+09
        18.     14.516 1.1212E+09
        18.     14.951 9.1279E+08
        18.     15.387 7.8767E+08
        18.     15.947 5.3753E+08
        18.     16.258 4.5412E+08
        18.     16.507 4.5405E+08
        18.     16.942 2.6644E+08
        18.     17.627 1.4126E+08
        18.        18. 1.2033E+08
        18.     18.623 1.4100E+08
        18.     19.245 1.2001E+08
        18.     19.681 1.1989E+08
        18.     20.117 1.4061E+08
        18.     20.553 1.1967E+08
        18.     20.989 1.1955E+08
        18.     21.549 7.7742E+07
        18.     22.047 7.7612E+07
        18.     22.545 5.6650E+07
       18.1     3.4959 4.2199E+09 8.8832E+07
       18.1     3.9414 4.0486E+09 7.6142E+07
       18.1     4.0983 4.1438E+09
       18.1     4.2818 4.0613E+09
       18.1     4.4386 4.2580E+09 5.7106E+07
       18.1     4.5693 4.3976E+09
       18.1     4.6999 4.6324E+09
       18.1     4.9883 4.3786E+09
       18.1     5.1452 4.5500E+09
       18.1     5.2764 4.3279E+09 6.3452E+07
       18.1       5.46 4.1693E+09
       18.1     5.6432 4.2264E+09
       18.1     5.7476 4.4231E+09 5.7106E+07
       18.1     5.9313 4.2201E+09
       18.1     6.1928 4.4041E+09 5.7106E+07
       18.1     6.3497 4.5818E+09
       18.1     6.4808 4.4993E+09
       18.1     6.6115 4.6135E+09 8.2487E+07
       18.1     6.7948 4.6516E+09
       18.1     6.9259 4.5438E+09
       18.1     7.0575 4.0742E+09 5.7106E+07
       18.1     7.2407 4.1504E+09
       18.1     7.3715 4.2266E+09
       18.1     7.5289 4.0743E+09 6.3452E+07
       18.1     7.6864 3.8395E+09
       18.1     7.7647 3.9728E+09
       18.1     7.9221 3.8078E+09
       18.1     8.1315 3.8713E+09
       18.1     8.4197 3.7634E+09 5.7107E+07
       18.1     8.5504 3.8967E+09
       18.1     8.7606 3.4589E+09
       18.1     8.8388 3.7191E+09
       18.1     8.9959 3.6874E+09
       18.1     9.1272 3.4907E+09
       18.1     9.3365 3.6049E+09 5.0761E+07
       18.1      9.468 3.1925E+09
       18.1     9.5987 3.3702E+09
       18.1     9.7297 3.3067E+09
       18.1     9.9393 3.2306E+09
       18.1      10.07 3.1100E+09
       18.1     10.123 2.8943E+09 6.3452E+07
       18.1     10.333 2.9895E+09
       18.1     10.464 2.5898E+09
       18.1     10.674 2.5644E+09 5.7106E+07
       18.1      10.91 2.4122E+09
       18.1     11.093 2.4122E+09
       18.1     11.198 2.1266E+09
       18.1     11.407 2.1901E+09
       18.1     11.486 2.3551E+09 5.0761E+07
       18.1      11.67 2.0379E+09
       18.1     11.801 1.7587E+09
       18.1      12.01 1.8602E+09 3.8071E+07
       18.1     12.037 1.7460E+09
       18.1     12.089 1.9427E+09
       18.1      12.22 1.9871E+09
       18.1     12.429 1.9935E+09
       18.1     12.508 1.6889E+09
       18.1     12.718 1.5430E+09
       18.1     12.875 1.5621E+09
       18.1      12.98 1.3590E+09
       18.1     13.163 1.3971E+09
       18.1     13.268 1.1941E+09
       18.1     13.399 1.3781E+09
       18.1     13.609 1.1751E+09
       18.1     13.766 1.1751E+09
       18.1     13.897 1.0482E+09
       18.1     14.028 1.0863E+09
       18.1     14.263 1.1117E+09
       18.1     14.473 8.5156E+08
       18.1     14.604 8.5792E+08
       18.1     14.761 8.8966E+08
       18.1     14.866 8.3256E+08
       18.1     15.023 8.3258E+08
       18.1     15.181 7.3107E+08
       18.1     15.312 6.7397E+08
       18.1     15.495 6.5495E+08
       18.1     15.652 5.2807E+08
       18.1     15.783 4.5194E+08
       18.1     16.019 4.3927E+08
       18.1     16.124 4.3293E+08
       18.1     16.255 3.6949E+08
       18.1     16.464 3.6316E+08
       18.1     16.595 1.8551E+08
       18.1     16.753 2.1725E+08
       18.1     16.936 1.7920E+08
       18.1     17.198 1.6019E+08
       18.1     17.329 1.4751E+08
       18.1     17.512 1.2214E+08
       18.1     17.748 1.2851E+08
       18.1     17.931 1.4122E+08
       18.1     18.114 1.2854E+08
       18.1     18.324 1.2856E+08
       18.1     18.533 1.2224E+08
       18.1     18.717 1.1591E+08
       18.1       18.9 1.2227E+08
       18.1     19.162 1.1595E+08
       18.1     19.319 1.2231E+08
       18.1     19.502 1.2867E+08
       18.1     19.686 1.3503E+08
       18.1     19.895 1.0967E+08
       18.1     20.131 1.0335E+08
       18.1     20.445 9.7030E+07
       18.1     20.655 9.7049E+07
       18.1     20.864 9.7068E+07
       18.1     21.152 7.8058E+07
       18.1     21.362 7.1732E+07
       18.1     21.676 4.6380E+07
       18.1     21.938 2.1023E+07
ENDDATA            231
ENDSUBENT          249
SUBENT        F0218004   20090319   20090508   20090508       F035
BIB                  5          6
REACTION   (3-LI-7(D,N)4-BE-8,,TTY/MLT/DA/DE)
EN-SEC     (E,N)
SAMPLE     Thick target.
ERR-ANALYS (EN-ERR-DIG) Energy digitizing error
           (DATA-ERR)   Error from the graphic bars
STATUS     (CURVE) Fig.4(a) J,NSE,52,35,1973
ENDBIB               6
COMMON               4          3
EN         ANG        EN-ERR-DIG ERR-DIG
MEV        ADEG       MEV        P/MEVMUCSR
 19.0       3.5        0.0003     4.1044E+06
ENDCOMMON            3
DATA                 3        131
E          DATA       DATA-ERR
MEV        P/MEVMUCSR P/MEVMUCSR
     3.4192 3.8122E+09 1.4225E+08
     3.5643 4.0256E+09
     3.7456 4.0967E+09
     3.8182 4.1750E+09
     3.8907 4.2888E+09
     4.0358 4.1323E+09
     4.1446 4.2319E+09
     4.3259 4.4595E+09 1.0669E+08
     4.4347 4.6942E+09
     4.7248 4.9431E+09 1.0669E+08
     4.9787 4.8720E+09
     5.0875 4.7867E+09
     5.2326 4.6515E+09
      5.559 4.8862E+09
     5.6316 4.7369E+09 1.0669E+08
     5.9217 4.8222E+09
     6.1394 4.5875E+09
     6.2481 4.8436E+09
     6.3932 5.0783E+09
     6.5746 4.9431E+09 7.8236E+07
     6.7921 5.2419E+09
     6.7922 5.0356E+09
     6.9735 5.0925E+09 1.0669E+08
     7.1911 5.0996E+09
     7.3362 5.0427E+09
     7.4813 4.8364E+09
     7.5901 5.0854E+09
      7.844 4.8934E+09 1.3513E+08
     8.0616 4.8293E+09
     8.1704 5.1281E+09
     8.4243 4.8222E+09
     8.4605 5.0712E+09
     8.7507 4.8365E+09 9.9573E+07
     8.9321 5.0000E+09
     9.0409 4.5448E+09
     9.2223 4.5875E+09 1.1380E+08
     9.3674 4.2817E+09
     9.4762 4.4026E+09
     9.6575 4.2888E+09
      9.984 4.1394E+09
     10.165 3.9616E+09 9.9573E+07
     10.238 3.7981E+09
     10.456 3.8621E+09
     10.637 3.7127E+09
     10.746 3.4709E+09
     10.855 3.3571E+09
     11.108 2.9659E+09
     11.399 3.1864E+09
     11.507 2.9232E+09 1.2802E+08
     11.689 2.6814E+09
     11.798 2.7383E+09
     12.052 2.3969E+09
      12.16 2.2618E+09
     12.487 2.0129E+09 9.2461E+07
     12.632 1.8635E+09
     12.704 1.9488E+09
     13.031 1.7284E+09
     13.067 1.5079E+09
     13.249 1.4652E+09
     13.357 1.5790E+09
     13.611 1.4154E+09
     13.829 1.2803E+09
     13.901 1.2447E+09 6.4011E+07
     14.155 1.2803E+09
     14.264 1.1523E+09
     14.482 9.2467E+08
     14.699 8.6066E+08
     14.881 8.3221E+08
     15.135 7.7532E+08
      15.28 6.6152E+08
     15.461 6.4730E+08
     15.606 6.1173E+08
     15.788 5.0505E+08
     15.969 4.1259E+08
     16.114 4.7660E+08
     16.295 3.7703E+08
      16.44 4.4104E+08
     16.622 3.9126E+08
     16.876 4.1971E+08
     16.912 3.1302E+08
     17.129 2.9880E+08
     17.347 1.4233E+08
     17.456 9.9652E+07
     17.746 8.5428E+07
      18.29 8.5431E+07
     18.435 4.2757E+07
     18.689 8.5432E+07
     18.834 4.9871E+07
     19.161 2.8536E+07
     19.451 5.6986E+07
     19.777 1.4314E+07
     19.995 4.9876E+07
     20.285 5.6990E+07
     20.575 2.1430E+07
     20.829 4.9880E+07
     21.119 1.4320E+07
     21.301 4.9882E+07
     21.627 4.2771E+07
     21.953 5.6998E+07
      22.28 6.4111E+07
      22.57 4.9888E+07
     22.824 4.9889E+07
     23.114 2.8553E+07
     23.404 4.2779E+07
     23.731 3.5668E+07
     23.984 4.2782E+07
     24.311 4.2783E+07
     24.565 3.5672E+07
     24.855 2.8561E+07
     25.145 2.8562E+07
     25.472 5.7013E+07
     25.762 3.5677E+07
     26.088 4.9904E+07
     26.487 2.1456E+07
     26.813 2.8570E+07
     27.176 4.2796E+07
     27.466 3.5685E+07
     27.938 4.9912E+07
     28.228 4.2801E+07
     28.591 3.5690E+07
     29.062 4.2805E+07
     29.425 3.5694E+07
     29.933 3.5696E+07
     30.332 2.8586E+07
     30.694 2.8587E+07
     31.093 5.7038E+07
     31.456 2.8591E+07
        32. 2.8593E+07
     32.544 2.1483E+07
     32.979 1.4373E+07
     33.487 2.1487E+07
ENDDATA            133
ENDSUBENT          148
SUBENT        F0218005   20090319   20090508   20090508       F035
BIB                  5          6
REACTION   (6-C-12(D,N)7-N-13,,TTY/MLT/DA/DE)
EN-SEC     (E,N)
SAMPLE     Thick target.
ERR-ANALYS (EN-ERR-DIG) Energy digitizing error
           (DATA-ERR)   Error from the graphic bars
STATUS     (CURVE) Fig.4(b) J,NSE,52,35,1973
ENDBIB               6
COMMON               4          3
EN         ANG        EN-ERR-DIG ERR-DIG
MEV        ADEG       MEV        P/MEVMUCSR
 18.1       3.5        0.009      6.2314E+05
ENDCOMMON            3
DATA                 3         95
E          DATA       DATA-ERR
MEV        P/MEVMUCSR P/MEVMUCSR
     3.3952 2.7089E+09 1.0383E+08
     3.5968 2.5343E+09
     3.7785 2.6664E+09
     3.8996 2.6334E+09 5.6637E+07
     4.0609 2.5343E+09
     4.1819 2.4776E+09
     4.3231 2.4587E+09 5.6637E+07
     4.4847 2.6428E+09
      4.626 2.7372E+09
     4.7876 2.8882E+09 5.6637E+07
     4.9085 2.7560E+09
     5.1104 2.8504E+09
     5.2316 2.9543E+09 6.1357E+07
     5.3729 3.0534E+09
     5.5544 2.9306E+09
     5.6956 2.9448E+09 6.1357E+07
     5.8576 3.4167E+09
     5.9782 3.0439E+09
     6.1196 3.1713E+09 6.1357E+07
     6.3012 3.1949E+09
     6.4427 3.4120E+09
     6.6042 3.5205E+09 4.7198E+07
      6.705 3.4639E+09
     6.8664 3.4356E+09
     7.0074 3.2515E+09
     7.1485 3.0910E+09
     7.3098 2.9588E+09
     7.4512 3.1523E+09 6.6077E+07
     7.5723 3.1523E+09
     7.7535 2.8691E+09
      7.915 2.9446E+09 5.1918E+07
     8.0763 2.7700E+09
     8.2783 2.9965E+09
      8.399 2.6709E+09 5.1917E+07
     8.5202 2.8125E+09
     8.6815 2.7558E+09
     8.8025 2.6567E+09
     8.9232 2.3405E+09
     9.0648 2.6755E+09
     9.2056 2.2744E+09 5.1918E+07
     9.4075 2.4301E+09
      9.589 2.3168E+09
     9.7503 2.2224E+09 5.1918E+07
     9.8712 2.1280E+09
     10.013 2.3593E+09
     10.194 2.2790E+09
     10.255 2.0713E+09
     10.356 2.2837E+09
     10.557 2.0241E+09 4.2478E+07
     10.718 1.9486E+09
      10.86 1.9533E+09
     11.061 1.8306E+09 3.7758E+07
     11.203 1.9250E+09
     11.303 1.8259E+09
     11.525 1.8353E+09
     11.606 1.7173E+09
     11.768 1.8305E+09
     11.888 1.7220E+09 5.1917E+07
      12.09 1.5096E+09
     12.151 1.5757E+09
     12.332 1.6464E+09
     12.534 1.6417E+09
     12.635 1.8777E+09
     12.857 1.5284E+09 4.2478E+07
     12.957 1.3963E+09
     13.079 1.4482E+09
      13.22 1.3490E+09
     13.341 1.4151E+09
     13.482 1.1083E+09
     13.724 9.3839E+08
     13.844 7.1655E+08
     13.986 6.1743E+08
     14.147 4.7111E+08
     14.288 4.5222E+08
     14.409 4.8997E+08
      14.55 4.8524E+08
     14.671 3.2948E+08
     14.833 3.0115E+08
     14.994 2.5395E+08
     15.115 1.8786E+08
     15.297 1.9257E+08
     15.418 1.2177E+08
     15.579 1.1704E+08
     15.761 1.1703E+08
     15.922 1.2174E+08
     16.043 1.1701E+08
     16.245 1.1700E+08
     16.426 1.2171E+08
     16.547 1.3586E+08
     16.709 1.3585E+08
      16.85 1.1224E+08
     17.072 1.0751E+08
     17.254 9.3336E+07
     17.455 6.5005E+07
     17.677 6.0271E+07
ENDDATA             97
ENDSUBENT          112
SUBENT        F0218006   20090319   20090508   20090508       F035
BIB                  5          6
REACTION   (1-H-2(D,N)2-HE-3,,DA/DE)
EN-SEC     (E,N)
SAMPLE     Thin target.
ERR-ANALYS (EN-ERR-DIG) Energy digitizing error
           (DATA-ERR)   Error from the graphic bars
STATUS     (CURVE) Fig.4(c) J,NSE,52,35,1973
ENDBIB               6
COMMON               4          3
EN         ANG        EN-ERR-DIG ERR-DIG
MEV        ADEG       MEV        MB/SR/MEV
 18.6       3.5        0.0027     0.079
ENDCOMMON            3
DATA                 3         86
E          DATA       DATA-ERR
MEV        MB/SR/MEV  MB/SR/MEV
      4.919     11.315
     5.0639     9.7218
     5.2087     6.0047
     5.4022       9.19     5.6637
     5.5233     13.437
     5.6682     10.782
     5.8129     4.4102     4.6018
     5.9824     10.604
     6.0795     21.047
     6.2732     27.064     4.7788
     6.3939     24.586
     6.5632     25.824
     6.7322     22.107
     6.9256     23.345
     7.0223     24.761
     7.2399      26.53     3.7168
     7.4576      30.07
     7.6513     36.087
     7.8449     42.281
     7.9173     40.511
     8.2557     41.572
     8.3281     38.032
     8.5216     41.394     3.1859
     8.7152     47.589
     8.8601     44.756
     9.0053     47.942
     9.1744      46.88
     9.2958     57.676
     9.4649     56.613     3.7168
     9.6339     51.657
     9.7552     62.807
     9.8513     49.356
     10.093      55.55
     10.214     60.505
     10.335     54.487     3.7168
      10.48     59.089
     10.576     48.823
      10.77     54.309     2.4779
     10.939     56.964
      11.06      45.99
     11.229     55.547
      11.35     56.609
     11.519     47.936
     11.664     51.121     4.0708
     11.809     53.598
     12.075     44.394
     12.123     50.589
     12.244      38.73
     12.316     41.916
     12.558     44.393     2.6549
     12.727     45.455
      12.92     35.897     2.8319
     13.162     31.471
     13.475     22.798     2.4779
     13.548     26.514
     13.693     22.797
     13.862     13.947     2.1239
     14.006     6.5132
     14.224     7.0437
     14.417     5.4503
     14.514     2.4412
     14.683     1.7328
     14.876     1.2013
     15.094    0.84676
     15.311     1.0232
     15.432     2.6158
     15.577     1.1995
     15.795      1.022
     16.109     3.1451
     16.447     1.0203
     16.786     2.6124
     17.196     1.0184
     17.704    0.30914
     18.405     1.7233
     19.372     1.3668
     19.686    0.83507
     19.952     2.2503
     20.436     11.453
      20.63     37.647
     20.922     77.646
     21.165     104.73
     21.478     87.202
     21.742     41.361
     21.982     8.9708
     22.224     3.1295
     22.393    0.82819
ENDDATA             88
ENDSUBENT          103
SUBENT        F0218007   20090319   20090508   20090508       F035
BIB                  4          4
REACTION   (4-BE-9(D,N)5-B-10,,DA)
SAMPLE     Thin target.
ERR-ANALYS (EN-ERR-DIG) Energy digitizing error
STATUS     (CURVE)Fig.5(a) J,NSE,52,35,1973
ENDBIB               4
COMMON               3          3
ANG        EN-ERR-DIG ERR-DIG
ADEG       MEV        MB/SR
 3.5        0.009      0.51
ENDCOMMON            3
DATA                 2         13
EN         DATA
MEV        MB/SR
     3.9763     310.66
     6.4148     405.72
     7.4293      428.6
      8.248     453.24
     9.3871      463.8
      10.42     531.57
     11.434     577.34
     12.449     625.75
     13.463     620.46
      14.46     621.34
      15.51     631.01
     16.525     714.63
     17.539     724.31
ENDDATA             15
ENDSUBENT           28
SUBENT        F0218008   20090319   20090508   20090508       F035
BIB                  4          5
REACTION   (4-BE-9(D,N)5-B-10,,TTY/MLT/DA)
SAMPLE     The thick Be target consisted of 0.47 g/cm2 of Be metal
           of purity higher than 98.5%.
ERR-ANALYS (EN-ERR-DIG) Energy digitizing error
STATUS     (CURVE)Fig.5(a)  J,NSE,52,35,1973
ENDBIB               5
COMMON               3          3
ANG        EN-ERR-DIG ERR-DIG
ADEG       MEV        PRT/MUC/SR
 3.5        0.001      5.1244E+07
ENDCOMMON            3
DATA                 2         11
EN         DATA
MEV        PRT/MUC/SR
     2.9789 8.5800E+08
     7.9088 6.7160E+09
     8.7453 9.1125E+09
     9.9199 1.2041E+10
     10.917 1.4349E+10
     11.949 1.8254E+10
     13.996 2.6598E+10
     16.042 3.7515E+10
     18.018 5.0385E+10
     18.997 6.2456E+10
     19.904 7.0799E+10
ENDDATA             13
ENDSUBENT           27
SUBENT        F0218009   20090319   20090508   20090508       F035
BIB                  4          4
REACTION   (3-LI-7(D,N)4-BE-8,,TTY/MLT/DA)
SAMPLE     Thick target.
ERR-ANALYS (EN-ERR-DIG) Energy digitizing error
STATUS     (CURVE)Fig.5(b) J,NSE,52,35,1973
ENDBIB               4
COMMON               3          3
ANG        EN-ERR-DIG ERR-DIG
ADEG       MEV        PRT/MUC/SR
 3.5        0.01       4.6337E+07
ENDCOMMON            3
DATA                 2          5
EN         DATA
MEV        PRT/MUC/SR
     5.0059 1.8680E+09
       8.99 8.1801E+09
     13.988 2.5248E+10
     15.998 3.6449E+10
     19.021 5.8938E+10
ENDDATA              7
ENDSUBENT           20
SUBENT        F0218010   20090319   20090508   20090508       F035
BIB                  4          4
REACTION   (6-C-12(D,N)7-N-13,,TTY/MLT/DA)
SAMPLE     Thick target.
ERR-ANALYS (EN-ERR-DIG) Energy digitizing error
STATUS     (CURVE)Fig.5(b) J,NSE,52,35,1973
ENDBIB               4
COMMON               3          3
ANG        EN-ERR-DIG ERR-DIG
ADEG       MEV        PRT/MUC/SR
 3.5        0.015      3.7999E+07
ENDCOMMON            3
DATA                 2          4
EN         DATA
MEV        PRT/MUC/SR
     11.983 1.3177E+10
     13.992 1.8751E+10
     16.036 2.5563E+10
     18.117 3.4677E+10
ENDDATA              6
ENDSUBENT           19
SUBENT        F0218011   20090319   20090508   20090508       F035
BIB                  4          4
REACTION   (4-BE-9(D,N)5-B-10,,DA)
SAMPLE     Thin target.
ERR-ANALYS (ANG-ERR-D) Angle digitizing error
STATUS     (CURVE) Fig.6(a)  J,NSE,52,35,1973
ENDBIB               4
COMMON               2          3
ANG-ERR-D  ERR-DIG
ADEG       MB/SR
 0.3        0.6
ENDCOMMON            3
DATA                 3         15
EN         ANG        DATA
MEV        ADEG       MB/SR
         9.     3.3307     453.34
         9.     9.2613     411.04
         9.     16.693     310.82
         9.     23.864     223.57
         9.     32.402     159.68
        14.     3.6067     623.68
        14.     9.0926     509.22
        14.     16.733       354.
        14.     23.586     249.98
        14.     32.387     194.61
        18.     3.5946     724.38
        18.     9.0886     543.07
        18.     16.732     360.07
        18.     23.847     243.91
        18.     32.454     179.85
ENDDATA             17
ENDSUBENT           30
SUBENT        F0218012   20090319   20090508   20090508       F035
BIB                  4          5
REACTION   (4-BE-9(D,N)5-B-10,,TTY/MLT/DA)
SAMPLE     The thick Be target consisted of 0.47 g/cm2 of Be metal
           of purity higher than 98.5%.
ERR-ANALYS (ANG-ERR-D) Angle digitizing error
STATUS     (CURVE) Fig.6(b)  J,NSE,52,35,1973
ENDBIB               5
COMMON               2          3
ANG-ERR-D  ERR-DIG
ADEG       PRT/MUC/SR
 0.05       2.8229E+07
ENDCOMMON            3
DATA                 3         15
EN         ANG        DATA
MEV        ADEG       PRT/MUC/SR
         9.     3.6192 8.8176E+09
         9.     9.0016 7.5082E+09
         9.     16.783 5.6095E+09
         9.     23.915 4.3049E+09
         9.     32.473 3.2031E+09
        14.     3.7598 2.6333E+10
        14.      9.344 2.2672E+10
        14.     16.879 1.6823E+10
        14.     23.762 1.2005E+10
        14.     32.391 8.8690E+09
        18.     4.0984 5.0205E+10
        18.     9.6946 4.1174E+10
        18.     16.918 2.9349E+10
        18.     24.068 2.0842E+10
        18.     32.572 1.5072E+10
ENDDATA             17
ENDSUBENT           31
SUBENT        F0218013   20090319   20090508   20090508       F035
BIB                  4          4
REACTION   (6-C-12(D,N)7-N-13,,TTY/MLT/DA)
SAMPLE     Thick target.
ERR-ANALYS (ANG-ERR-D) Angle digitizing error
STATUS     (CURVE)Fig.6(c)  J,NSE,52,35,1973
ENDBIB               4
COMMON               3          3
EN         ANG-ERR-D  ERR-DIG
MEV        ADEG       PRT/MUC/SR
 18.        0.03       4.3553E+06
ENDCOMMON            3
DATA                 2          5
ANG        DATA
ADEG       PRT/MUC/SR
     3.9458 3.3969E+10
     9.5323 2.6354E+10
     17.354 1.6704E+10
     24.518 9.3151E+09
      32.34 6.6748E+09
ENDDATA              7
ENDSUBENT           20
SUBENT        F0218014   20090319   20090508   20090508       F035
BIB                  4          4
REACTION   (3-LI-7(D,N)4-BE-8,,TTY/MLT/DA)
SAMPLE     Thick target.
ERR-ANALYS (ANG-ERR-D) Angle digitizing error
STATUS     (CURVE)Fig.6(c)  J,NSE,52,35,1973
ENDBIB               4
COMMON               3          3
EN         ANG-ERR-D  ERR-DIG
MEV        ADEG       PRT/MUC/SR
 19.        0.01       3.1669E+07
ENDCOMMON            3
DATA                 2          5
ANG        DATA
ADEG       PRT/MUC/SR
      4.096 5.7889E+10
     9.8529 4.3854E+10
      17.31 2.8084E+10
     24.307 1.9106E+10
     32.871 1.4432E+10
ENDDATA              7
ENDSUBENT           20
ENDENTRY            14
