ENTRY            F0212   20141225   20150311   20150310       F057
SUBENT        F0212001   20141225   20150311   20150310       F057
BIB                 11         26
TITLE      Investigation of the interaction between low-energy
           protons and Be-9 nuclei.
AUTHOR     (Yu.G.Mashkarov,A.S.Deineko,I.I.Zalyubovskii,
           R.P.Slabospitskii,B.S.Bezvershuk)
INSTITUTE  (4UKRKFT)
REFERENCE  (J,IZV,37,(8),1729,1973)
           (J,BAS,37,(8),143,1974) English translation
REL-REF    (A,,Yu.G.Mashkarov+,J,IZV,40,(6),1218,1976)
           R-Matrix theory is given.
           (A,,Yu.G.Mashkarov+,J,BAS,40,(6),100,1976)
           English translation of IZV,40,1218
SAMPLE     Self-supporting beryllium foil of 3 keV thick.
DETECTOR   (SIBAR) Si surface-barrier detectors (with 1%
           resolution).
           (MAGSP)
FACILITY   (VDGT,4UKRKFT)
INC-SOURCE (POLIS) For unpolarised beam target a current was 0.1-
           0.2 mu-A, for polarised beam target a current was 200
           pico-A.
ERR-ANALYS (ERR-S,,3.)  Statistical error
           (EN-ERR-DIG) Energy digitizing error
           (ERR-DIG)    Data digitizing error
HISTORY    (20030303C)
           (20141225A) Institute, detector codes were changed.
           English translation was added in REFERENCE. Data
           presentation was changed. New subentry 005 was added.
ENDBIB              26
NOCOMMON             0          0
ENDSUBENT           29
SUBENT        F0212002   20141225   20150311   20150310       F057
BIB                  3          3
REACTION   (4-BE-9(P,EL)4-BE-9,,DA,,REL)
COMMENT    No explanation of relative units is given.
STATUS     (CURVE) Fig.1
ENDBIB               3
COMMON               2          3
EN-ERR-DIG ERR-DIG
MEV        ARB-UNITS
      0.001      0.001
ENDCOMMON            3
DATA                 3        217
ANG        EN         DATA
ADEG       MEV        ARB-UNITS
       160.      2.213      2.318
       160.      2.223      2.315
       160.      2.234      2.383
       160.      2.242      2.226
       160.      2.253      2.329
       160.      2.262      2.322
       160.      2.272      2.329
       160.      2.282      2.414
       160.      2.293      2.513
       160.      2.303      2.609
       160.      2.312      2.343
       160.      2.322      2.466
       160.      2.332      2.517
       160.      2.341      2.398
       160.      2.352      2.507
       160.      2.362      2.904
       160.      2.371      2.979
       160.      2.382      2.876
       160.      2.401      3.256
       160.      2.411      3.119
       160.      2.422      3.338
       160.      2.431      3.482
       160.      2.441      3.567
       160.      2.453      3.725
       160.      2.461      3.903
       160.      2.471      3.916
       160.      2.481      4.224
       160.      2.492      4.381
       160.      2.501      4.720
       160.      2.513      4.795
       160.      2.522      5.329
       160.      2.526      5.421
       160.      2.532      5.428
       160.      2.537      5.407
       160.      2.541      5.619
       160.      2.547      5.647
       160.      2.553      5.913
       160.      2.558      5.575
       160.      2.563      5.493
       160.      2.565      5.274
       160.      2.567      5.110
       160.      2.572      4.820
       160.      2.579      4.755
       160.      2.582      4.433
       160.      2.587      3.671
       160.      2.592      3.449
       160.      2.597      3.353
       160.      2.602      3.158
       160.      2.612      3.121
       160.      2.621      2.830
       160.      2.631      2.649
       160.      2.640      2.342
       160.      2.650      1.788
       160.      2.660      1.733
       160.      2.671      1.788
       160.      2.680      1.679
       160.      2.691      1.699
       160.      2.701      1.713
       160.      2.710      1.832
       160.      2.721      1.795
       160.      2.732      1.723
       160.      2.742      1.648
       160.      2.753      1.717
       160.      2.761      1.638
       160.      2.773      1.628
       160.      2.783      1.683
       160.      2.791      1.515
       140.      2.224      2.485
       140.      2.234      2.662
       140.      2.244      2.509
       140.      2.255      2.418
       140.      2.263      2.452
       140.      2.274      2.310
       140.      2.283      2.422
       140.      2.293      2.527
       140.      2.304      2.544
       140.      2.314      2.541
       140.      2.323      2.331
       140.      2.333      2.568
       140.      2.342      2.433
       140.      2.352      2.589
       140.      2.362      3.006
       140.      2.373      2.833
       140.      2.383      3.132
       140.      2.393      3.041
       140.      2.402      2.980
       140.      2.413      3.268
       140.      2.422      3.370
       140.      2.432      3.496
       140.      2.441      3.530
       140.      2.453      3.557
       140.      2.464      3.682
       140.      2.473      3.706
       140.      2.483      3.889
       140.      2.492      4.080
       140.      2.502      4.215
       140.      2.512      4.358
       140.      2.523      4.578
       140.      2.529      4.528
       140.      2.537      4.697
       140.      2.542      4.775
       140.      2.548      4.741
       140.      2.553      4.779
       140.      2.558      4.643
       140.      2.564      4.874
       140.      2.570      4.813
       140.      2.573      4.586
       140.      2.578      4.362
       140.      2.584      4.169
       140.      2.588      3.634
       140.      2.594      3.566
       140.      2.598      3.386
       140.      2.603      3.210
       140.      2.613      3.343
       140.      2.623      3.207
       140.      2.634      3.017
       140.      2.644      3.055
       140.      2.653      2.774
       140.      2.663      2.659
       140.      2.672      2.364
       140.      2.683      2.222
       140.      2.692      2.307
       140.      2.703      2.320
       140.      2.713      2.415
       140.      2.722      2.388
       140.      2.734      2.419
       140.      2.743      2.165
       140.      2.754      2.138
       140.      2.763      2.193
       140.      2.772      2.027
       140.      2.782      2.105
       140.      2.793      1.986
       120.      2.207      0.249
       120.      2.217      0.242
       120.      2.227      0.243
       120.      2.236      0.240
       120.      2.243      0.244
       120.      2.253      0.251
       120.      2.261      0.248
       120.      2.271      0.248
       120.      2.281      0.247
       120.      2.292      0.238
       120.      2.295      0.225
       120.      2.306      0.239
       120.      2.313      0.239
       120.      2.321      0.236
       120.      2.336      0.235
       120.      2.342      0.238
       120.      2.346      0.218
       120.      2.351      0.204
       120.      2.357      0.208
       120.      2.362      0.254
       120.      2.372      0.263
       120.      2.376      0.273
       120.      2.380      0.264
       120.      2.388      0.265
       120.      2.395      0.241
       120.      2.401      0.260
       120.      2.409      0.258
       120.      2.411      0.278
       120.      2.418      0.281
       120.      2.421      0.291
       120.      2.427      0.286
       120.      2.442      0.299
       120.      2.447      0.307
       120.      2.457      0.320
       120.      2.466      0.328
       120.      2.476      0.335
       120.      2.482      0.346
       120.      2.492      0.357
       120.      2.501      0.354
       120.      2.504      0.369
       120.      2.507      0.389
       120.      2.512      0.411
       120.      2.524      0.421
       120.      2.538      0.441
       120.      2.545      0.454
       120.      2.547      0.495
       120.      2.549      0.517
       120.      2.553      0.511
       120.      2.556      0.492
       120.      2.560      0.518
       120.      2.563      0.529
       120.      2.566      0.494
       120.      2.569      0.440
       120.      2.573      0.419
       120.      2.580      0.395
       120.      2.584      0.355
       120.      2.587      0.344
       120.      2.595      0.332
       120.      2.601      0.318
       120.      2.607      0.333
       120.      2.610      0.377
       120.      2.616      0.367
       120.      2.623      0.347
       120.      2.629      0.335
       120.      2.637      0.323
       120.      2.647      0.324
       120.      2.653      0.317
       120.      2.658      0.311
       120.      2.666      0.311
       120.      2.675      0.307
       120.      2.681      0.304
       120.      2.688      0.291
       120.      2.696      0.292
       120.      2.701      0.282
       120.      2.708      0.287
       120.      2.717      0.282
       120.      2.727      0.284
       120.      2.737      0.278
       120.      2.745      0.266
       120.      2.753      0.261
       120.      2.763      0.259
       120.      2.776      0.265
       120.      2.782      0.258
       120.      2.786      0.250
       120.      2.795      0.246
ENDDATA            219
ENDSUBENT          231
SUBENT        F0212003   20141225   20150311   20150310       F057
BIB                  3          3
REACTION   (4-BE-9(P,A)3-LI-6,PAR,DA,,REL)
COMMENT    No explanation of relative units is given.
STATUS     (CURVE) Fig.2
ENDBIB               3
COMMON               3          3
ANG        EN-ERR-DIG ERR-DIG
ADEG       MEV        ARB-UNITS
        60.      0.002      0.003
ENDCOMMON            3
DATA                 3         67
E-LVL      EN         DATA
MEV        MEV        ARB-UNITS
         0.      2.223      4.273
         0.      2.239      4.302
         0.      2.270      4.510
         0.      2.302      4.662
         0.      2.323      4.942
         0.      2.352      4.930
         0.      2.369      4.959
         0.      2.377      4.666
         0.      2.395      4.427
         0.      2.401      3.733
         0.      2.412      3.212
         0.      2.425      3.422
         0.      2.432      3.815
         0.      2.442      4.294
         0.      2.455      4.079
         0.      2.465      3.794
         0.      2.478      3.524
         0.      2.489      3.625
         0.      2.502      3.544
         0.      2.513      3.243
         0.      2.526      3.076
         0.      2.529      2.367
         0.      2.540      2.105
         0.      2.544      2.246
         0.      2.547      3.592
         0.      2.559      2.637
         0.      2.564      1.589
         0.      2.574      1.942
         0.      2.585      2.381
         0.      2.594      2.986
         0.      2.612      2.810
         0.      2.617      2.069
         0.      2.631      1.579
         0.      2.641      1.294
         0.      2.661      1.409
         0.      2.684      1.673
         0.      2.704      1.709
         0.      2.715      1.566
         0.      2.729      1.611
         0.      2.746      1.380
         0.      2.761      1.448
         0.      2.783      1.248
      3.563      2.247      0.252
      3.563      2.289      0.318
      3.563      2.322      0.378
      3.563      2.350      0.430
      3.563      2.383      0.434
      3.563      2.420      0.524
      3.563      2.450      0.631
      3.563      2.486      0.808
      3.563      2.506      1.035
      3.563      2.529      1.426
      3.563      2.537      2.141
      3.563      2.548      2.872
      3.563      2.560      4.123
      3.563      2.569      3.248
      3.563      2.569      3.799
      3.563      2.578      2.420
      3.563      2.587      1.923
      3.563      2.601      1.630
      3.563      2.621      1.392
      3.563      2.644      1.208
      3.563      2.666      1.119
      3.563      2.689      0.959
      3.563      2.718      1.035
      3.563      2.758      1.014
      3.563      2.790      0.995
ENDDATA             69
ENDSUBENT           81
SUBENT        F0212004   20141225   20150311   20150310       F057
BIB                  3          4
REACTION   (4-BE-9(P,EL)4-BE-9,,DA,,REL)
COMMENT    Elastic cross-sections near threshold is presented.
           No explanation of relative units is given.
STATUS     (CURVE) Fig.5
ENDBIB               4
COMMON               2          3
EN-ERR-DIG ERR-DIG
MEV        ARB-UNITS
      0.001      0.001
ENDCOMMON            3
DATA                 3        131
ANG        EN         DATA
ADEG       MEV        ARB-UNITS
        60.      1.971      1.599
        60.      1.978      1.609
        60.      1.989      1.628
        60.      1.996      1.649
        60.      2.002      1.654
        60.      2.013      1.648
        60.      2.016      1.637
        60.      2.018      1.645
        60.      2.021      1.646
        60.      2.026      1.641
        60.      2.029      1.632
        60.      2.033      1.617
        60.      2.037      1.594
        60.      2.041      1.588
        60.      2.044      1.579
        60.      2.045      1.554
        60.      2.047      1.596
        60.      2.052      1.592
        60.      2.052      1.564
        60.      2.055      1.551
        60.      2.058      1.499
        60.      2.061      1.516
        60.      2.063      1.463
        60.      2.066      1.443
        60.      2.068      1.459
        60.      2.071      1.482
        60.      2.073      1.456
        60.      2.076      1.486
        60.      2.079      1.502
        60.      2.083      1.522
        60.      2.085      1.539
        60.      2.087      1.529
        60.      2.091      1.501
        60.      2.095      1.482
        60.      2.101      1.466
        60.      2.107      1.479
        60.      2.112      1.457
        60.      2.115      1.464
        60.      2.117      1.452
        60.      2.120      1.444
        60.      2.122      1.431
        60.      2.127      1.434
        60.      2.129      1.431
        60.      2.132      1.417
        60.      2.137      1.420
        60.      2.140      1.403
        60.      2.142      1.422
        60.      2.147      1.398
        83.      1.983      0.992
        83.      1.989      0.996
        83.      1.994      0.997
        83.      1.995      1.005
        83.      1.999      1.012
        83.      2.004      1.033
        83.      2.008      1.038
        83.      2.014      1.080
        83.      2.018      1.066
        83.      2.021      1.036
        83.      2.023      1.023
        83.      2.026      1.008
        83.      2.028      0.988
        83.      2.031      0.991
        83.      2.033      0.978
        83.      2.036      0.982
        83.      2.038      0.980
        83.      2.046      0.967
        83.      2.051      0.949
        83.      2.056      0.950
        83.      2.061      0.908
        83.      2.065      0.893
        83.      2.068      0.907
        83.      2.072      0.907
        83.      2.076      0.892
        83.      2.080      0.897
        83.      2.085      0.902
        83.      2.091      0.910
        83.      2.093      0.914
        83.      2.100      0.909
        83.      2.103      0.912
        83.      2.108      0.922
        83.      2.111      0.928
        83.      2.117      0.930
        83.      2.120      0.923
        83.      2.125      0.875
        83.      2.132      0.860
        83.      2.137      0.874
        83.      2.140      0.862
        83.      2.144      0.859
        83.      2.148      0.853
        83.      2.152      0.852
       120.      1.956      0.276
       120.      1.961      0.272
       120.      1.966      0.278
       120.      1.976      0.277
       120.      1.986      0.286
       120.      1.995      0.294
       120.      2.001      0.294
       120.      2.006      0.291
       120.      2.013      0.287
       120.      2.018      0.283
       120.      2.022      0.280
       120.      2.030      0.268
       120.      2.033      0.253
       120.      2.035      0.243
       120.      2.040      0.247
       120.      2.048      0.245
       120.      2.053      0.245
       120.      2.055      0.251
       120.      2.060      0.268
       120.      2.063      0.270
       120.      2.067      0.273
       120.      2.069      0.279
       120.      2.073      0.279
       120.      2.074      0.287
       120.      2.077      0.289
       120.      2.079      0.280
       120.      2.083      0.281
       120.      2.087      0.275
       120.      2.095      0.269
       120.      2.103      0.268
       120.      2.105      0.262
       120.      2.109      0.261
       120.      2.115      0.269
       120.      2.120      0.262
       120.      2.125      0.258
       120.      2.130      0.250
       120.      2.142      0.245
       120.      2.155      0.246
       120.      2.163      0.240
       120.      2.170      0.238
       120.      2.174      0.244
ENDDATA            133
ENDSUBENT          146
SUBENT        F0212005   20141225   20150311   20150310       F057
BIB                  4          5
REACTION   (4-BE-9(P,EL)4-BE-9,,POL/DA,,ANA)
ERR-ANALYS (DATA-ERR)   No information on source of uncertainties
           for the graphic bars is given.
STATUS     (CURVE) Figure 3(a,b).
HISTORY    (20141008C)
ENDBIB               5
COMMON               2          3
EN-ERR-DIG ERR-DIG
MEV        NO-DIM
      0.001     0.0017
ENDCOMMON            3
DATA                 4        114
ANG        EN         DATA       DATA-ERR
ADEG       MEV        NO-DIM     NO-DIM
       120.      2.204    -0.1399     0.0477
       120.      2.215    -0.1356     0.0516
       120.      2.224    -0.2205     0.0425
       120.      2.234    -0.1597     0.0470
       120.      2.246    -0.2212     0.0423
       120.      2.265    -0.1373     0.0475
       120.      2.275    -0.1611     0.0516
       120.      2.286    -0.2460     0.0423
       120.      2.295    -0.2745     0.0377
       120.      2.306    -0.1386     0.0376
       120.      2.316    -0.1014     0.0424
       120.      2.326    -0.0078     0.0427
       120.      2.335    -0.1208     0.0422
       120.      2.347    -0.3420     0.0376
       120.      2.355    -0.1873     0.0424
       120.      2.365    -0.2111     0.0428
       120.      2.375    -0.1128     0.0473
       120.      2.385    -0.1084     0.0423
       120.      2.396    -0.2168     0.0470
       120.      2.406    -0.1514     0.0427
       120.      2.416    -0.0719     0.0424
       120.      2.424     0.0406     0.0427
       120.      2.434     0.1482     0.0423
       120.      2.446    -0.1011     0.0470
       120.      2.457    -0.3363     0.0427
       120.      2.465    -0.1299     0.0423
       120.      2.475    -0.0833     0.0470
       120.      2.486    -0.1494     0.0476
       120.      2.495    -0.0464     0.0423
       120.      2.506    -0.0749     0.0429
       120.      2.516     0.0375     0.0425
       120.      2.536     0.0603     0.0470
       120.      2.541     0.0460     0.0420
       120.      2.546    -0.1326     0.0423
       120.      2.553     0.0409     0.0376
       120.      2.556     0.2569     0.0426
       120.      2.563     0.1063     0.0425
       120.      2.566    -0.0018     0.0478
       120.      2.575     0.2562     0.0422
       120.      2.586     0.1854     0.0470
       120.      2.600     0.1474     0.0424
       120.      2.606     0.2599     0.0423
       120.      2.616     0.4239     0.0470
       120.      2.625     0.2874     0.0516
       120.      2.636     0.1978     0.0423
       120.      2.677     0.1871     0.0518
       120.      2.698     0.1347     0.0511
       120.      2.707     0.0686     0.0479
       120.      2.717     0.0918     0.0563
       120.      2.726     0.0539     0.0516
       120.      2.737     0.2930     0.0564
       120.      2.747     0.4148     0.0423
       120.      2.758     0.2313     0.0476
       120.      2.767     0.1136     0.0471
       120.      2.777     0.1414     0.0423
       120.      2.787     0.2256     0.0470
       150.      2.204    -0.0658     0.0376
       150.      2.215    -0.1979     0.0329
       150.      2.226    -0.2265     0.0421
       150.      2.236    -0.1939     0.0423
       150.      2.244    -0.0671     0.0376
       150.      2.255    -0.1333     0.0329
       150.      2.266    -0.1995     0.0471
       150.      2.277    -0.0963     0.0423
       150.      2.284    -0.1342     0.0470
       150.      2.297    -0.2899     0.0471
       150.      2.305    -0.1349     0.0428
       150.      2.316     0.1047     0.0329
       150.      2.327     0.0056     0.0377
       150.      2.337    -0.0465     0.0329
       150.      2.348    -0.0562     0.0423
       150.      2.359    -0.1648     0.0424
       150.      2.367    -0.0522     0.0376
       150.      2.377    -0.0336     0.0375
       150.      2.388    -0.0763     0.0424
       150.      2.398    -0.1237     0.0517
       150.      2.417    -0.1243     0.0423
       150.      2.427    -0.0540     0.0371
       150.      2.439     0.0068     0.0420
       150.      2.449    -0.2429     0.0424
       150.      2.459    -0.1868     0.0423
       150.      2.467    -0.0318     0.0376
       150.      2.478    -0.1168     0.0423
       150.      2.488    -0.1406     0.0470
       150.      2.496     0.0097     0.0475
       150.      2.506     0.0752     0.0428
       150.      2.517    -0.0710     0.0470
       150.      2.528    -0.1278     0.0421
       150.      2.537     0.0037     0.0423
       150.      2.548    -0.1284     0.0376
       150.      2.554    -0.0157     0.0330
       150.      2.558     0.0501     0.0424
       150.      2.562     0.1205     0.0329
       150.      2.568     0.0450     0.0374
       150.      2.577     0.0636     0.0470
       150.      2.586     0.1339     0.0423
       150.      2.597     0.1853     0.0376
       150.      2.607     0.1614     0.0427
       150.      2.616     0.1705     0.0425
       150.      2.628     0.1184     0.0376
       150.      2.636     0.2640     0.0420
       150.      2.647     0.1649     0.0429
       150.      2.658     0.2916     0.0470
       150.      2.678     0.1357     0.0377
       150.      2.696     0.0175     0.0428
       150.      2.707     0.1771     0.0423
       150.      2.718     0.1579     0.0377
       150.      2.727     0.2988     0.0329
       150.      2.736     0.2326     0.0517
       150.      2.748     0.2276     0.0329
       150.      2.759     0.1190     0.0330
       150.      2.767     0.2034     0.0423
       150.      2.778     0.1513     0.0472
       150.      2.787     0.1322     0.0470
ENDDATA            116
ENDSUBENT          130
ENDENTRY             5
