ENTRY            F0247   19990410   19990429
SUBENT        F0247001   19990410   19990429
BIB                 10         20
TITLE      Resolved neutrons from the 9Be(alpha,n) reaction
AUTHOR     (J.R.RISSER,J.E.PRICE,C.M.CLASS)
INSTITUTE  (1USARIC)
REFERENCE  (J,PR,105,1288,195702)
MONITOR    (3-LI-7(A,N)5-B-10,,DA) Threshold, which was calculated
           from the mass values to occur at 4.385 MeV was used for
           calibration at the higher energies and
           (3-LI-7(P,N)4-BE-7,,DA) threshold for the molecular
           hydrogen beam at lower energie.
ERR-ANALYS (DATA-ERR) Digitizing error.
SAMPLE     Most of evaporated targets were on heavy tantalum or
           silver backing, but several weighed standard targets
           were on 2-mil aluminium
FACILITY   (VDG)
DETECTOR   (SCIN) 8-mm diameter spherical plastic scintillator for
           ground state neutron group.
           (MAGSP) Neutron spectrometer for excitation curve of
           the neutrons to the first excited state all the
           angular distributions
HISTORY    (19850228C)
ENDBIB              20
NOCOMMON
ENDSUBENT           23
SUBENT        F0247002   19990410   19990429
BIB                  4         12
REACTION   (4-BE-9(A,N)6-C-12,PAR,DA,,,EXP)
ERR-ANALYS (EN-ERR) Digitizing error
           (EN-ERR1) Scale error
           (DATA-ERR1) The errors are everwhere smaller than the
           points.from 1.9 to 2.7 MeV errors were about 3%;from
           3.9 to 4.5 MeV, about 2%;from 3.1 to 3.5 MeV,about 5
           to 10%.The combined corrections for nonlinearity of
           pulse height with recoil-proton energy and for finite
           volume of the scintillator were found to Be less than
           2% between extremes of the curve and were omitted.
STATUS     (CURVE) fig 3,5
EN-SEC     (E-LVL,6-C-12)
ENDBIB              12
COMMON               4          3
EN-ERR     EN-ERR1    ANG        DATA-ERR
MEV        MEV        ADEG       MB/SR
 0.004      0.025      0.          0.04
ENDCOMMON            3
DATA                 4        120
EN         E-LVL      DATA       DATA-ERR1
MEV        MEV        MB/SR      MB/SR
     1.641      0.         1.054
     1.691      0.         2.089
     1.741      0.         3.73
     1.79       0.         5.337
     1.809      0.         6.041      0.7403
     1.82       0.         6.847
     1.841      0.         7.887
     1.871      0.         9.127
     1.901      0.         9.223
     1.927      0.         9.454
     1.953      0.         9.786
     1.98       0.        10.69
     2.008      0.        11.29
     2.032      0.        11.08
     2.06       0.        10.88
     2.09       0.        10.33
     2.115      0.        11.88       0.4376
     2.116      0.        10.83
     2.142      0.        11.13
     2.166      0.        11.9
     2.194      0.        12.81
     2.223      0.        12.84
     2.247      0.        13.07
     2.277      0.        13.57
     2.309      0.        13.16
     2.32       0.        12.21       0.5383
     2.343      0.        12.98
     2.362      0.        13.52
     2.392      0.        12.77
     2.422      0.        13.03
     2.442      0.        13.67
     2.471      0.        13.97
     2.508      0.        16.15       0.6399
     2.514      0.        14.94
     2.551      0.        15.27
     2.582      0.        15.16
     2.612      0.        15.05
     2.629      0.        14.82       0.6056
     2.643      0.        13.57
     2.662      0.        12.45
     2.69       0.        10.9
     2.74       0.         7.962
     2.789      0.         5.865
     2.837      0.         4.577
     2.888      0.         3.659
     2.904      0.         3.69       0.2023
     2.923      0.         2.811
     2.98       0.         2.161
     3.037      0.         1.545
     3.099      0.         1.096
     3.107      4.44       9.873      0.4525
     3.128      0.         1.327      0.202
     3.15       0.         0.7506
     3.209      0.         0.4371
     3.268      0.         0.2919
     3.331      0.         0.247
     3.392      0.         0.4717
     3.428      4.44      13.17       0.4525
     3.441      0.         0.665      0.2017
     3.451      0.         0.7978
     3.513      0.         1.393
     3.562      0.         2.226
     3.617      0.         2.923
     3.655      4.44      17.01       2.191
     3.673      0.         4.428      0.3363
     3.732      0.         6.303
     3.783      0.         9.29
     3.839      0.        12.95
     3.855      4.44      21.41       0.4525
     3.865      0.        14.22
     3.88       0.        15.94       0.5386
     3.889      0.        16.54       0.336
     3.895      0.        17.25
     3.908      4.44      41.13       2.739
     3.917      0.        19.
     3.926      0.        19.8
     3.935      4.44      43.32       4.383
     3.946      0.        23.84       0.5389
     3.956      0.        23.23
     3.961      4.44      52.09       4.383
     3.976      0.        23.09
     3.988      4.44      51.54       4.383
     4.007      0.        23.16
     4.015      4.44      47.71       2.74
     4.031      0.        24.23
     4.042      4.44      45.52       4.383
     4.049      0.        25.3
     4.063      0.        23.68       0.6396
     4.069      4.44      42.78       3.287
     4.076      0.        25.84
     4.106      0.        26.84
     4.122      4.44      42.23       2.191
     4.134      0.        25.52
     4.149      0.        25.72       1.01
     4.166      0.        25.58
     4.186      0.        25.08
     4.216      0.        24.2
     4.236      0.        22.81
     4.256      4.44      43.33       3.834
     4.265      0.        22.1
     4.284      0.        21.19
     4.285      0.        22.23       0.7409
     4.317      0.        19.63
     4.333      0.        19.02
     4.349      4.44      38.96       3.835
     4.363      0.        18.14
     4.405      0.        13.62       0.572
     4.413      0.        15.68
     4.464      0.        15.2
     4.513      0.        14.01
     4.564      0.        13.39
     4.576      4.44      38.96       3.834
     4.611      0.        11.87
     4.616      0.        10.02       0.6059
     4.661      0.        10.78
     4.711      0.         9.259
     4.76       0.         7.028
     4.777      4.44      35.14       2.739
     4.809      0.         5.336
     4.831      0.         5.376
ENDDATA            122
ENDSUBENT          143
SUBENT        F0247003   19990410   19990429
BIB                  4          5
REACTION   (4-BE-9(A,N)6-C-12,PAR,DA,,,EXP)
ERR-ANALYS (ANG-ERR) Digitizing error
           (EN-ERR1) Energy scale error
STATUS     (CURVE) fig 4,6
EN-SEC     (E-LVL,6-C-12)
ENDBIB               5
COMMON               2          3
ANG-ERR    EN-ERR1
ADEG       MEV
  1.0       0.04
ENDCOMMON            3
DATA                 5        185
EN         E-LVL      ANG-CM     DATA-CM    DATA-ERR
MEV        MEV        ADEG       MB/SR      MB/SR
     2.02       0.         2.236      9.366      0.2402
     2.02       0.        22.77       7.993      0.2402
     2.02       0.        46.74       3.518      0.2402
     2.02       0.        67.26       3.179      0.2402
     2.02       0.        82.65       3.872      0.2402
     2.02       0.        96.34       2.497      0.2402
     2.02       0.       110.         3.19       0.2402
     2.02       0.       123.7        2.849      0.2402
     2.02       0.       137.4        1.818      0.2402
     2.02       0.       151.1        1.477      0.2402
     2.29       0.         4.558     10.77       0.1538
     2.29       0.        39.68       8.08       0.1538
     2.29       0.        60.1        6.403      0.1538
     2.29       0.        73.71       5.396      0.1538
     2.29       0.        90.71       3.721      0.1538
     2.29       0.       104.3        4.045      0.1538
     2.29       0.       117.9        2.372      0.1538
     2.29       0.       131.6        2.031      0.1538
     2.29       0.       146.9        1.355      0.1538
     2.5        0.         1.715     12.67       0.2297
     2.5        0.        12.02       9.342      0.2297
     2.5        0.        22.27      10.02       0.2297
     2.5        0.        32.56       8.689      0.2297
     2.5        0.        46.28       6.031      0.2297
     2.5        0.        65.1        5.71       0.2297
     2.5        0.        82.21       5.388      0.2297
     2.5        0.        95.9        4.73       0.2297
     2.5        0.       109.6        3.739      0.2297
     2.5        0.       125.         3.082      0.2297
     2.5        0.       138.7        2.758      0.2297
     2.5        0.       150.6        3.099      0.2297
     2.69       0.         0.3195     9.001      0.2297
     2.69       0.        21.92       8.685      0.2297
     2.69       0.        45.93       5.37       0.2297
     2.69       0.        68.19       4.054      0.2297
     2.69       0.        81.88       3.398      0.2297
     2.69       0.        97.27       3.744      0.2297
     2.69       0.       109.2        3.753      0.2297
     2.69       0.       122.9        2.097      0.2297
     2.69       0.       138.4        1.109      0.2297
     2.69       0.       152.1        1.12       0.2297
     3.22       0.         0.8064 0.5800E-02     0.1447
     3.22       0.         9.444  0.9893E-02     0.1447
     3.22       0.        19.68       0.4338     0.1447
     3.22       0.        43.6        1.076      0.1447
     3.22       0.        64.06       2.34       0.1447
     3.22       0.        81.17       2.144      0.1447
     3.22       0.        94.87       1.738      0.1447
     3.22       0.       108.6        1.331      0.1447
     3.22       0.       120.6        0.9232     0.1447
     3.22       0.       130.8        0.5142     0.1447
     3.22       0.       148.         0.1101     0.1447
     3.73       0.         0.1471     5.536      0.1235
     3.73       0.        22.12       3.756      0.1235
     3.73       0.        46.09       2.512      0.1235
     3.73       0.        66.57       4.66       0.1235
     3.73       0.        83.66       5.199      0.1235
     3.73       0.        97.34       5.203      0.1235
     3.73       0.       111.         5.385      0.1235
     3.73       0.       124.7        3.602      0.1235
     3.73       0.       140.1        2.534      0.1235
     3.73       0.       152.1        4.68       0.1235
     3.83       0.         2.481     10.47       0.2456
     3.83       0.        21.55       5.137      0.2456
     3.83       0.        45.55       2.302      0.2456
     3.83       0.        67.75       3.746      0.2456
     3.83       0.        81.39       6.252      0.2456
     3.83       0.        95.08       5.549      0.2456
     3.83       0.       110.5        5.917      0.2456
     3.83       0.       124.2        4.145      0.2456
     3.83       0.       139.6        3.443      0.2456
     3.83       0.       149.8        6.66       0.2456
     3.94       0.         3.039     18.25       0.2335
     3.94       0.        10.69      15.89       0.2335
     3.94       0.        19.33      11.49       0.2335
     3.94       0.        33.14       5.396      0.2335
     3.94       0.        43.44       3.371      0.2335
     3.94       0.        63.94       4.404      0.2335
     3.94       0.        80.98       7.468      0.2335
     3.94       0.        94.63       8.834      0.2335
     3.94       0.       108.3        7.151      0.2335
     3.94       0.       122.1        5.128      0.2335
     3.94       0.       132.3        4.797      0.2335
     3.94       0.       137.4        6.157      0.2335
     3.94       0.       149.3       12.27       0.2335
     4.         4.44       0.575     37.42       0.3818
     4.         4.44      12.68      40.18       0.3818
     4.         4.44      24.61      30.78       0.3818
     4.         4.44      34.84      22.73       0.3818
     4.         4.44      46.7       16.03       0.3818
     4.         4.44      66.85      10.72       0.3818
     4.         4.44      83.59       8.102      0.3818
     4.         4.44      96.87       9.516      0.3818
     4.         4.44     113.5       10.27       0.3818
     4.         4.44     126.8       10.33       0.3818
     4.         4.44     135.        15.1        0.3818
     4.         4.44     143.4       13.79       0.3818
     4.         4.44     155.        15.19       0.3818
     4.18       0.         1.709     19.92       0.233
     4.18       0.        22.39      12.16       0.233
     4.18       0.        44.81       2.371      0.233
     4.18       0.        65.32       3.063      0.233
     4.18       0.        80.66       5.78       0.233
     4.18       0.        94.32       6.805      0.233
     4.18       0.       109.7        6.479      0.233
     4.18       0.       125.2        4.462      0.233
     4.18       0.       138.8        4.811      0.233
     4.18       0.       143.9        8.873      0.233
     4.18       0.       148.9       12.26       0.233
     4.18       0.       152.3       13.61       0.233
     4.18       0.       160.8       17.68       1.691
     4.18       0.       170.9       23.43       2.029
     4.19       4.44       0.3008    31.09       0.3494
     4.19       4.44      11.98      30.48       0.3494
     4.19       4.44      23.84      22.64       0.3494
     4.19       4.44      35.61      18.75       0.3494
     4.19       4.44      45.74      13.54       0.3494
     4.19       4.44      67.56       7.054      0.3494
     4.19       4.44      82.57       6.457      0.3494
     4.19       4.44      97.58       5.86       0.3494
     4.19       4.44     110.9        6.57       0.3494
     4.19       4.44     125.9        7.943      0.3494
     4.19       4.44     140.8        8.66       0.3494
     4.19       4.44     152.5        8.049      0.3494
     4.54       0.         3.8       11.26       0.1208
     4.54       0.         8.222      9.856      0.7022
     4.54       0.        22.02       6.705      0.877
     4.54       0.        30.66       4.077      0.1208
     4.54       0.        44.4        2.504      0.1208
     4.54       0.        64.96       1.635      0.1208
     4.54       0.        81.97       3.921      0.1208
     4.54       0.        95.61       5.154      0.1208
     4.54       0.       109.3        5.51       0.1208
     4.54       0.       123.         4.112      0.1208
     4.54       0.       133.3        3.59       0.1208
     4.54       0.       151.9        9.911      0.7016
     4.65       4.44       1.246     28.34       0.4052
     4.65       4.44      10.52      24.98       0.4052
     4.65       4.44      22.29      21.62       0.4052
     4.65       4.44      34.06      18.26       0.4052
     4.65       4.44      45.87      13.53       0.4052
     4.65       4.44      65.97      10.22       0.4052
     4.65       4.44      82.63      10.31       0.4052
     4.65       4.44      97.65       9.703      0.4052
     4.65       4.44     112.6       11.15       0.4052
     4.65       4.44     127.6       11.23       0.4052
     4.65       4.44     135.9       12.64       0.4052
     4.65       4.44     152.5       12.73       0.4052
     4.67       0.         1.045      8.833      0.1083
     4.67       0.        21.45       6.499      0.6667
     4.67       0.        43.94       2.497      0.3333
     4.67       0.        66.44       1.829      0.1083
     4.67       0.        83.77       2.995      0.1083
     4.67       0.        95.89       3.994      0.1083
     4.67       0.       111.5        3.994      0.6668
     4.67       0.       125.3        3.16       0.5
     4.67       0.       139.2        3.492      0.5
     4.67       0.       151.3        6.491      0.5001
     5.07       0.         1.724      0.862      0.119
     5.07       0.         8.513      1.727      0.119
     5.07       0.        20.44       3.454      0.119
     5.07       0.        30.68       4.147      0.119
     5.07       0.        44.36       4.15       0.119
     5.07       0.        54.68       2.085      0.119
     5.07       0.        66.68       0.7086     0.119
     5.07       0.        83.78       0.8858     0.119
     5.07       0.        97.43       1.924      0.119
     5.07       0.       106.         2.099      0.119
     5.07       0.       116.3        1.24       0.119
     5.07       0.       124.8        0.8972     0.119
     5.07       0.       135.1        0.5553     0.119
     5.07       0.       143.6        1.075      0.119
     5.07       0.       153.9        2.629      0.119
     5.08       4.44       0.2604    28.08       0.3663
     5.08       4.44      10.27      27.45       0.3663
     5.08       4.44      23.72      22.74       0.3663
     5.08       4.44      33.93      14.63       0.3663
     5.08       4.44      45.63      13.32       0.3663
     5.08       4.44      67.42       7.97       0.3663
     5.08       4.44      85.73       8.728      0.3663
     5.08       4.44      99.03      10.15       0.3663
     5.08       4.44     114.        10.21       0.3663
     5.08       4.44     127.3       11.63       0.3663
     5.08       4.44     142.2       16.45       0.3663
     5.08       4.44     155.4       19.91       2.72
ENDDATA            187
ENDSUBENT          201
ENDENTRY             3
