ENTRY            F0243   19991202   20001115
SUBENT        F0243001   19991202   20001115
BIB                  9         10
TITLE      Investigation of the 9Be + t reaction
AUTHOR     (KIM-SYN-NA,G.M.OSETINSKIJ)
INSTITUTE  (4ZZZDUB)
REFERENCE  (J,YF,9,487,196903)
SAMPLE     Self-supporting 9Be was evaporated in vacuum, thickness
           targets were 10-12 mu-g/cm**2
ERR-ANALYS (ERR-T) Absolute error
FACILITY   (VDG)
DETECTOR   (SOLST) Two Si surface-barrier detector
HISTORY    (19860505C)
ENDBIB              10
COMMON               1          3
ERR-T
PER-CENT
  8.000
ENDCOMMON            3
ENDSUBENT           17
SUBENT        F0243002   19991202   20001115
BIB                  4          5
REACTION   (4-BE-9(T,A)3-LI-8,PAR,DA,,,EXP)
ERR-ANALYS (EN-ERR) Digitizing error
           (DATA-ERR) Digitizing error
STATUS     (CURVE) FIG 2,1
EN-SEC     (E-LVL,3-LI-8)
ENDBIB               5
COMMON               1          3
EN-ERR
MEV
 0.0035
ENDCOMMON            3
DATA                 5        508
EN         E-LVL      ANG        DATA       DATA-ERR
MEV        MEV        ADEG       MB/SR      MB/SR
     0.5097     0.98      90.         0.8737     0.0264
     0.5101     0.        90.         0.9683     0.0264
     0.5162     0.        90.         1.25       0.1442
     0.5241     0.        90.         0.9141     0.0264
     0.5243     0.98      90.         0.9614     0.0264
     0.5248     0.        90.         1.056      0.0264
     0.5293     0.98      90.         1.007      0.0264
     0.5343     0.        90.         1.051      0.0264
     0.5347     0.        90.         1.146      0.0264
     0.539      0.98      90.         1.049      0.0264
     0.5433     0.        90.         0.9524     0.0264
     0.5435     0.98      90.         0.9997     0.0264
     0.5437     0.        90.         1.047      0.0264
     0.5489     0.        90.         1.139      0.0264
     0.553      0.        90.         0.9951     0.0264
     0.553      0.98      90.         0.9951     0.0264
     0.5543     0.        90.         1.279      0.0264
     0.5581     0.        90.         1.087      0.0264
     0.5633     0.        90.         1.18       0.0264
     0.5633     0.98      90.         1.18       0.0264
     0.5685     0.98      90.         1.272      0.0264
     0.5733     0.        90.         1.27       0.0264
     0.5773     0.98      90.         1.126      0.0264
     0.5827     0.98      90.         1.265      0.0264
     0.5834     0.        90.         1.407      0.0264
     0.5875     0.        90.         1.263      0.0264
     0.5881     0.        90.         1.405      0.0264
     0.5881     0.98      90.         1.405      0.0264
     0.5972     0.        90.         1.306      0.0264
     0.5978     0.98      90.         1.448      0.0264
     0.5983     0.98      90.         1.542      0.0264
     0.599      0.        90.         1.684      0.0264
     0.6127     0.98      90.         1.583      0.0264
     0.6134     0.98      90.         1.725      0.0264
     0.6139     0.        90.         1.819      0.0264
     0.6222     0.98      90.         1.578      0.0264
     0.6231     0.        90.         1.767      0.0264
     0.6238     0.        90.         1.909      0.0264
     0.6278     0.        90.         1.765      0.0264
     0.6278     0.98      90.         1.765      0.0264
     0.6287     0.        90.         1.954      0.0264
     0.6319     0.98      90.         1.621      0.0264
     0.6346     0.        90.         2.188      0.0264
     0.6378     0.        90.         1.855      0.0264
     0.6378     0.98      90.         1.855      0.0264
     0.6432     0.        90.         1.995      0.0264
     0.6468     0.98      90.         1.756      0.0264
     0.6481     0.        90.         2.04       0.0264
     0.6533     0.        90.         2.132      0.0264
     0.6621     0.98      90.         1.986      0.0264
     0.6623     0.        90.         2.033      0.0264
     0.663      0.        90.         2.175      0.0264
     0.6718     0.98      90.         2.029      0.0264
     0.6725     0.        90.         2.17       0.0264
     0.6741     0.        90.         2.501      0.0264
     0.6772     0.98      90.         2.168      0.0264
     0.6781     0.        70.         1.926      0.0534
     0.6785     0.98      70.         1.687      0.0534
     0.6833     0.        90.         2.45       0.0264
     0.6862     0.98      90.         2.069      0.0264
     0.6912     0.98      90.         2.114      0.0264
     0.6917     0.        70.         2.072      0.0534
     0.6921     0.98      70.         1.881      0.0534
     0.6932     0.        90.         2.54       0.0264
     0.6971     0.        90.         2.348      0.0264
     0.7009     0.98      70.         2.122      0.1913
     0.7025     0.        90.         2.488      0.0264
     0.7063     0.98      90.         2.296      0.0264
     0.7129     0.        90.         2.672      0.1892
     0.7142     0.        70.         2.507      0.0534
     0.7147     0.98      70.         2.22       0.0534
     0.7214     0.98      90.         2.479      0.1892
     0.7219     0.98      90.         2.573      0.0264
     0.7234     0.        70.         2.509      0.0534
     0.7236     0.98      70.         2.414      0.0534
     0.7268     0.        90.         2.618      0.0264
     0.7371     0.        70.         2.655      0.0534
     0.7374     0.98      70.         2.512      0.0534
     0.7397     0.98      90.         2.47       0.0264
     0.7404     0.98      90.         2.328      0.0264
     0.7413     0.        90.         2.659      0.0264
     0.7429     0.        90.         2.99       0.0264
     0.7465     0.98      70.         2.609      0.0534
     0.7503     0.98      90.         2.56       0.0264
     0.7601     0.        70.         2.755      0.0534
     0.7602     0.98      70.         2.708      0.0534
     0.7602     0.98      90.         2.65       0.0264
     0.7613     0.        90.         2.886      0.0264
     0.7648     0.98      70.         2.756      0.0534
     0.7703     0.98      90.         2.787      0.0264
     0.7713     0.        90.         2.976      0.0264
     0.7739     0.        70.         2.854      0.0534
     0.7787     0.98      70.         2.759      0.0534
     0.7803     0.98      90.         2.877      0.0264
     0.781      0.        90.         3.019      0.0264
     0.7828     0.        70.         3.047      0.1435
     0.7861     0.        90.         3.111      0.0264
     0.7873     0.        70.         3.095      0.0534
     0.7878     0.98      70.         2.856      0.0534
     0.79       0.98      90.         2.92       0.0264
     0.7917     0.        70.         3.24       0.0534
     0.7943     0.98      90.         2.823      0.0264
     0.7968     0.        90.         3.343      0.0264
     0.7971     0.98      70.         2.858      0.1922
     0.8013     0.        70.         3.098      0.0534
     0.8017     0.98      70.         2.859      0.0534
     0.8044     0.98      90.         2.96       0.0264
     0.8056     0.        70.         3.29       0.0534
     0.81       0.        90.         3.147      0.0264
     0.815      0.98      70.         3.053      0.0534
     0.8153     0.98      70.         3.197      0.0534
     0.8191     0.        70.         3.293      0.0534
     0.8191     0.98      90.         3.048      0.0264
     0.8195     0.        70.         3.484      0.0534
     0.8204     0.        90.         3.332      0.0264
     0.8239     0.        70.         3.389      0.0534
     0.8242     0.98      70.         3.246      0.0534
     0.8281     0.        70.         3.629      0.0534
     0.8291     0.98      70.         3.103      0.0534
     0.8297     0.98      90.         3.28       0.0264
     0.8332     0.        70.         3.391      0.0534
     0.8353     0.        90.         3.467      0.0264
     0.8373     0.        70.         3.679      0.0534
     0.8376     0.98      70.         3.44       0.0534
     0.8378     0.98      70.         3.536      0.0534
     0.8407     0.        90.         3.607      0.0264
     0.8418     0.        70.         3.776      0.0534
     0.8441     0.98      90.         3.321      0.1892
     0.8486     0.98      90.         3.271      0.0264
     0.849      0.98      90.         3.366      0.0264
     0.8504     0.        90.         3.649      0.2838
     0.8506     0.        70.         3.921      0.2869
     0.8508     0.        70.         4.064      0.0534
     0.8514     0.98      70.         3.586      0.0534
     0.8563     0.        90.         3.884      0.0264
     0.8563     0.98      70.         3.444      0.0534
     0.8637     0.98      90.         3.454      0.0264
     0.8641     0.        70.         4.115      0.0534
     0.8644     0.        70.         4.258      0.0534
     0.8694     0.        90.         3.64       0.0264
     0.8698     0.98      70.         3.685      0.0534
     0.8737     0.        70.         4.117      0.0534
     0.8747     0.98      70.         3.543      0.0534
     0.8781     0.        70.         4.213      0.0534
     0.8792     0.98      70.         3.639      0.0534
     0.8829     0.98      90.         3.492      0.0264
     0.883      0.        70.         4.118      0.0534
     0.8837     0.98      70.         3.736      0.0534
     0.8854     0.        90.         4.012      0.0264
     0.887      0.        70.         4.454      0.0534
     0.8874     0.98      90.         3.442      0.0264
     0.8884     0.98      70.         3.689      0.0534
     0.8928     0.98      70.         3.833      0.0534
     0.8928     0.98      70.         3.786      0.2869
     0.8951     0.        90.         4.055      0.0264
     0.8962     0.        70.         4.504      0.0534
     0.8973     0.98      70.         3.882      0.0534
     0.8977     0.98      70.         3.691      0.0534
     0.9005     0.        90.         4.194      0.0264
     0.9009     0.        70.         4.457      0.0534
     0.9012     0.        70.         4.313      0.0534
     0.9061     0.        70.         4.171      0.0534
     0.9066     0.        90.         4.476      0.0264
     0.9068     0.98      70.         3.788      0.0534
     0.9077     0.98      90.         3.717      0.0264
     0.9098     0.        70.         4.65       0.0534
     0.9111     0.98      70.         3.932      0.0534
     0.9146     0.        70.         4.603      0.0534
     0.9158     0.        90.         4.424      0.0264
     0.9201     0.98      70.         4.126      0.0534
     0.921      0.98      90.         3.521      0.0264
     0.9241     0.        70.         4.461      0.0534
     0.925      0.98      70.         3.983      0.0534
     0.9257     0.        90.         4.514      0.0264
     0.9329     0.        70.         4.367      0.0534
     0.9336     0.        70.         4.75       0.0534
     0.9343     0.98      70.         3.937      0.0534
     0.9361     0.        90.         4.699      0.0264
     0.9365     0.98      90.         3.798      0.0264
     0.937      0.        70.         5.038      0.0534
     0.9388     0.98      70.         4.034      0.0534
     0.9467     0.        70.         4.8        0.0534
     0.947      0.        90.         4.978      0.0264
     0.9483     0.98      70.         3.94       0.0534
     0.9512     0.98      90.         3.886      0.0264
     0.9558     0.        70.         4.898      0.0534
     0.9576     0.98      70.         3.894      0.0534
     0.9618     0.98      70.         4.134      0.0534
     0.962      0.98      70.         4.038      0.0534
     0.9645     0.98      90.         3.69       0.0264
     0.9646     0.        70.         4.756      0.0534
     0.9653     0.        70.         5.187      0.0534
     0.9689     0.        70.         5.331      0.0534
     0.9713     0.        90.         5.109      0.0264
     0.972      0.        90.         5.25       0.0264
     0.9742     0.98      90.         3.732      0.0264
     0.9755     0.98      70.         4.184      0.0534
     0.9757     0.98      70.         4.041      0.0534
     0.9758     0.98      90.         4.063      0.0264
     0.9759     0.98      70.         4.28       0.0534
     0.9767     0.98      90.         4.253      0.0264
     0.9785     0.        70.         5.046      0.3825
     0.9787     0.        70.         5.189      0.0534
     0.9805     0.98      70.         4.089      0.0534
     0.9849     0.98      70.         4.234      0.0534
     0.9875     0.        70.         5.287      0.0534
     0.9876     0.        70.         5.334      0.0534
     0.9898     0.98      90.         4.009      0.0264
     0.9912     0.        90.         5.289      0.0264
     0.9941     0.98      70.         4.283      0.0534
     0.9944     0.98      70.         4.092      0.0534
     0.9997     0.        90.         5.095      0.0264
     0.9999     0.98      90.         4.147      0.0264
     1.         0.98      90.         4.194      0.4257
     1.001      0.        70.         5.289      0.0534
     1.002      0.        70.         5.576      0.0534
     1.005      0.        90.         5.234      0.0264
     1.006      0.98      90.         4.381      0.0264
     1.008      0.98      70.         4.238      0.0534
     1.008      0.98      70.         4.286      0.0534
     1.01       0.        70.         5.578      0.0534
     1.01       0.        90.         5.374      0.0264
     1.011      0.        90.         5.469      0.0264
     1.011      0.98      90.         4.473      0.0264
     1.012      0.        90.         5.753      0.0264
     1.015      0.        70.         5.722      0.0534
     1.015      0.98      90.         4.329      0.0264
     1.016      0.        90.         5.608      0.0264
     1.017      0.98      70.         4.431      0.0534
     1.018      0.        90.         5.038      0.0264
     1.019      0.        90.         5.133      0.0264
     1.019      0.        90.         5.228      0.0264
     1.02       0.        90.         5.417      0.0264
     1.021      0.98      70.         4.671      0.0534
     1.021      0.98      70.         4.576      0.3347
     1.021      0.98      90.         4.563      0.0264
     1.023      0.        70.         5.868      0.3834
     1.024      0.        70.         6.155      0.4304
     1.024      0.        90.         5.225      0.0264
     1.024      0.98      90.         4.183      0.0264
     1.025      0.        90.         5.367      0.0264
     1.026      0.        90.         5.698      0.1419
     1.03       0.98      90.         4.417      0.0264
     1.031      0.98      70.         4.434      0.0534
     1.032      0.        70.         6.539      0.0534
     1.032      0.        70.         6.204      0.0534
     1.034      0.98      90.         4.273      0.0264
     1.036      0.        90.         5.694      0.0264
     1.037      0.        90.         5.978      0.0264
     1.039      0.98      70.         4.866      0.0534
     1.04       0.        90.         5.55       0.0264
     1.041      0.        90.         5.739      0.0264
     1.045      0.98      70.         4.532      0.0534
     1.045      0.98      90.         4.552      0.0264
     1.049      0.98      90.         4.597      0.0264
     1.05       0.        70.         6.781      0.0534
     1.052      0.        90.         5.779      0.0264
     1.052      0.98      70.         5.49       0.0534
     1.054      0.98      90.         4.547      0.0264
     1.055      0.        90.         6.065      0.0264
     1.058      0.98      70.         5.013      0.0534
     1.058      0.98      90.         4.451      0.0264
     1.062      0.        90.         6.25       0.0264
     1.067      0.98      70.         5.206      0.0534
     1.068      0.        70.         7.12       0.0534
     1.068      0.        70.         7.024      0.0534
     1.07       0.98      90.         4.824      0.0264
     1.072      0.98      90.         4.302      0.0264
     1.076      0.        90.         6.101      0.0264
     1.076      0.98      70.         5.112      0.0534
     1.076      0.98      70.         4.921      0.0534
     1.079      0.98      90.         4.725      0.0264
     1.082      0.        70.         7.075      0.0534
     1.084      0.        90.         5.955      0.0264
     1.086      0.        70.         7.123      0.0534
     1.086      0.98      90.         4.2        0.0264
     1.087      0.        90.         6.428      0.0264
     1.09       0.98      70.         5.306      0.0534
     1.09       0.98      70.         5.067      0.0534
     1.09       0.98      90.         4.151      0.0264
     1.091      0.        70.         7.22       0.0534
     1.092      0.        90.         6.281      0.0264
     1.095      0.        70.         7.46       0.0534
     1.095      0.98      90.         4.243      0.0264
     1.096      0.        90.         6.568      0.0264
     1.101      0.98      90.         4.477      0.0264
     1.103      0.        90.         6.894      0.0264
     1.104      0.        70.         7.366      0.0534
     1.104      0.98      70.         5.118      0.0534
     1.105      0.        70.         7.51       0.0534
     1.108      0.98      70.         5.214      0.0534
     1.108      0.98      90.         4.853      0.0264
     1.112      0.        90.         6.842      0.3311
     1.112      0.98      90.         4.804      0.0264
     1.117      0.        70.         7.273      0.0534
     1.117      0.        90.         6.698      0.0264
     1.119      0.        70.         8.134      0.6216
     1.121      0.98      70.         5.839      0.0534
     1.121      0.98      90.         4.61       0.2838
     1.125      0.        90.         6.504      0.0264
     1.125      0.98      90.         4.513      0.0264
     1.126      0.        70.         8.231      0.0534
     1.131      0.98      70.         5.697      0.0534
     1.132      0.        90.         6.88       0.0264
     1.136      0.98      90.         4.84       0.0264
     1.137      0.        90.         7.067      0.0264
     1.14       0.98      70.         5.603      0.0534
     1.14       0.98      90.         4.554      0.0264
     1.144      0.        70.         7.9        0.0534
     1.144      0.98      70.         5.986      0.0534
     1.145      0.        70.         8.809      0.0534
     1.15       0.98      90.         4.833      0.0264
     1.151      0.        90.         6.919      0.0264
     1.154      0.98      90.         4.594      0.0264
     1.157      0.        70.         8.907      0.6216
     1.162      0.        90.         7.245      0.0264
     1.163      0.98      70.         6.038      0.4782
     1.165      0.98      90.         4.873      0.0264
     1.168      0.        70.         8.335      0.0534
     1.169      0.98      90.         4.777      0.0264
     1.17       0.        90.         6.91       0.0264
     1.174      0.        90.         6.813      0.0264
     1.175      0.98      90.         5.106      0.0264
     1.181      0.        90.         7.236      0.0264
     1.183      0.98      90.         4.675      0.0264
     1.186      0.        90.         7.328      0.0264
     1.189      0.        70.         9.63       0.0534
     1.189      0.98      70.         6.569      0.0534
     1.191      0.        90.         7.421      0.0264
     1.194      0.98      90.         5.096      0.0264
     1.198      0.        70.         9.776      0.0534
     1.199      0.98      70.         6.332      0.0534
     1.201      0.        90.         7.511      0.0264
     1.203      0.98      90.         4.997      0.0264
     1.205      0.        90.         7.414      0.0264
     1.208      0.98      90.         4.9        0.0264
     1.214      0.98      70.         6.143      0.0534
     1.215      0.        90.         7.409      0.0264
     1.215      0.        90.         7.504      0.0264
     1.216      0.        70.         9.875      0.0534
     1.216      0.98      90.         4.707      0.0264
     1.218      0.98      90.         5.085      0.0264
     1.219      0.        90.         7.218      0.0264
     1.221      0.98      90.         4.799      0.0264
     1.225      0.        70.        10.07       0.0534
     1.231      0.98      70.         6.53       0.0534
     1.231      0.98      90.         4.842      0.0264
     1.235      0.        90.         7.59       0.0264
     1.241      0.        90.         7.918      0.0264
     1.241      0.98      70.         6.436      0.0534
     1.241      0.98      90.         4.979      0.0264
     1.242      0.98      90.         5.121      0.0264
     1.245      0.        90.         7.774      0.0264
     1.248      0.        70.        10.22       0.0534
     1.249      0.        90.         7.677      0.0264
     1.251      0.98      90.         5.022      0.0264
     1.254      0.        90.         7.675      0.0264
     1.255      0.98      90.         4.925      0.0264
     1.257      0.        70.        10.41       0.0534
     1.259      0.98      70.         6.726      0.0534
     1.264      0.        90.         7.765      0.0264
     1.264      0.98      90.         4.826      0.0264
     1.269      0.        90.         7.905      0.0264
     1.27       0.        70.        10.89       0.0534
     1.273      0.98      70.         6.777      0.0534
     1.275      0.98      90.         5.01       0.0264
     1.281      0.98      90.         5.292      0.0264
     1.282      0.98      70.         6.731      0.0534
     1.285      0.        90.         8.134      0.0264
     1.288      0.        70.        11.04       0.0534
     1.289      0.98      90.         5.004      0.0264
     1.294      0.        90.         8.083      0.0264
     1.295      0.98      70.         7.02       0.0534
     1.298      0.        90.         7.844      0.0264
     1.298      0.98      90.         4.857      0.0264
     1.301      0.        70.        11.52       0.0534
     1.304      0.        90.         8.078      0.5676
     1.307      0.98      90.         4.9        0.0264
     1.309      0.98      70.         7.262      0.4782
     1.311      0.        70.        11.28       0.766
     1.313      0.        90.         7.979      0.0264
     1.313      0.98      90.         5.04       0.2861
     1.317      0.98      90.         4.99       0.0264
     1.318      0.        90.         8.118      0.0264
     1.323      0.98      70.         7.169      0.0534
     1.325      0.        70.        11.28       0.0534
     1.326      0.98      90.         4.938      0.0264
     1.328      0.        90.         8.209      0.0264
     1.331      0.98      90.         4.936      0.0264
     1.338      0.        90.         8.346      0.0264
     1.34       0.98      90.         4.884      0.0264
     1.341      0.98      70.         7.364      0.0534
     1.342      0.        70.        12.05       0.0534
     1.346      0.98      90.         5.024      0.0264
     1.347      0.        90.         8.2        0.0264
     1.348      0.        90.         8.531      0.0264
     1.349      0.98      90.         4.785      0.0264
     1.355      0.98      70.         7.367      0.0534
     1.357      0.        70.        11.43       0.0534
     1.357      0.        90.         8.29       0.0264
     1.359      0.98      90.         4.875      0.0264
     1.362      0.        90.         8.382      0.0264
     1.366      0.        90.         8.238      0.0264
     1.369      0.98      90.         4.871      0.0264
     1.37       0.        90.         8.046      0.0264
     1.373      0.98      90.         4.774      0.0264
     1.374      0.98      70.         7.37       0.0534
     1.375      0.        70.        11.91       0.0534
     1.381      0.        90.         8.42       0.0264
     1.383      0.98      90.         4.911      0.0264
     1.386      0.98      90.         4.578      0.0264
     1.388      0.98      70.         7.086      0.0534
     1.389      0.        70.        11.49       0.0534
     1.391      0.        90.         8.463      0.0264
     1.395      0.        90.         8.413      0.0264
     1.395      0.98      90.         4.478      0.0264
     1.401      0.98      90.         4.713      0.0264
     1.406      0.        90.         8.598      0.0264
     1.407      0.        70.        12.02       0.0534
     1.407      0.98      90.         4.852      0.0264
     1.414      0.        90.         8.451      0.0264
     1.415      0.98      90.         4.611      0.0264
     1.421      0.98      70.         7.092      0.0534
     1.422      0.        70.        11.59       0.0534
     1.425      0.98      90.         4.749      0.0264
     1.426      0.98      90.         5.032      0.0264
     1.429      0.        90.         8.445      0.0264
     1.429      0.        90.         8.634      0.0264
     1.436      0.        70.        11.5        0.0534
     1.439      0.        90.         8.535      0.0264
     1.439      0.98      70.         7.144      0.0534
     1.44       0.98      90.         4.837      0.0264
     1.444      0.98      90.         4.645      0.0264
     1.445      0.        70.        11.4        0.0534
     1.449      0.        90.         8.625      0.0264
     1.451      0.        90.         8.15       0.0264
     1.452      0.98      90.         4.499      0.0264
     1.453      0.98      70.         7.051      0.0534
     1.459      0.98      90.         4.78       0.0264
     1.462      0.        90.         8.523      0.0264
     1.464      0.        70.        11.41       0.766
     1.467      0.98      70.         7.245      0.6694
     1.467      0.98      90.         4.634      0.4257
     1.471      0.        90.         8.33       0.0264
     1.471      0.        90.         8.424      0.6644
     1.477      0.98      90.         4.582      0.0264
     1.485      0.        90.         8.37       0.0264
     1.485      0.98      90.         4.388      0.0264
     1.486      0.98      90.         4.625      0.0264
     1.49       0.        90.         8.462      0.0264
     1.499      0.98      90.         4.381      0.0264
     1.5        0.        90.         8.552      0.0264
     1.504      0.        90.         8.314      0.0264
     1.509      0.98      90.         4.424      0.0264
     1.518      0.        90.         8.354      0.0264
     1.519      0.98      90.         4.561      0.0264
     1.524      0.98      90.         4.559      0.0264
     1.528      0.        90.         8.302      0.0264
     1.528      0.98      90.         4.368      0.0264
     1.53       0.        90.         8.823      0.0264
     1.538      0.98      90.         4.505      0.0264
     1.539      0.        90.         8.724      0.0264
     1.541      0.        90.         8.106      0.0264
     1.542      0.98      90.         4.314      0.0264
     1.556      0.98      90.         4.449      0.0264
     1.559      0.        90.         8.998      0.0264
     1.561      0.        90.         8.428      0.0264
     1.561      0.98      90.         4.399      0.0264
     1.567      0.        90.         8.521      0.0264
     1.571      0.98      90.         4.489      0.0264
     1.574      0.98      90.         4.25       0.0264
     1.581      0.        90.         8.467      0.0264
     1.59       0.        90.         8.509      0.0264
     1.594      0.98      90.         4.289      0.0264
     1.597      0.        90.         8.885      0.0264
     1.598      0.98      90.         4.144      0.0264
     1.604      0.98      90.         4.521      0.0264
     1.609      0.        90.         8.5        0.0264
     1.613      0.98      90.         4.28       0.0264
     1.62       0.        90.         8.685      0.0264
     1.623      0.98      90.         4.417      0.0264
     1.627      0.        90.         8.302      0.0264
     1.629      0.        90.         8.68       0.0264
     1.636      0.98      90.         4.268      0.0264
     1.637      0.98      90.         4.363      0.0264
     1.642      0.        90.         8.343      0.0264
     1.646      0.98      90.         4.405      0.0264
     1.648      0.        90.         8.719      0.0264
     1.655      0.        90.         8.147      0.0264
     1.655      0.98      90.         4.212      0.0264
     1.665      0.98      90.         4.396      0.0264
     1.669      0.98      90.         4.11       0.2838
     1.67       0.98      90.         4.3        0.0264
     1.674      0.        90.         8.185      0.6171
     1.679      0.98      90.         4.2        0.0264
     1.689      0.        90.         8.225      0.0264
     1.692      0.98      90.         3.957      0.0264
     1.697      0.98      90.         4.049      0.0264
     1.699      0.        90.         8.505      0.0264
     1.706      0.98      90.         4.045      0.0264
     1.717      0.        90.         8.259      0.0264
     1.725      0.98      90.         3.989      0.0264
     1.732      0.        90.         8.394      0.0264
     1.74       0.98      90.         4.076      0.0264
     1.754      0.98      90.         4.069      0.0264
     1.761      0.        90.         8.428      0.0264
     1.778      0.        90.         8.04       0.0264
     1.778      0.98      90.         4.106      0.0264
ENDDATA            510
ENDSUBENT          524
SUBENT        F0243003   19991202   20001115
BIB                  4          5
REACTION   (4-BE-9(T,A)3-LI-8,PAR,DA,,,EXP)
ERR-ANALYS (ANG-ERR) Digitizing error
           (DATA-ERR) Digitizing error and from graphic
STATUS     (CURVE) Fig.4
EN-SEC     (E-LVL,3-LI-8)
ENDBIB               5
COMMON               2          3
E-LVL      ANG-ERR
MEV        ADEG
 0.0000E+00 0.7
ENDCOMMON            3
DATA                 4        170
EN         ANG-CM     DATA-CM    DATA-ERR
MEV        ADEG       MB/SR      MB/SR
     0.519     34.049      0.7231
     0.519     51.0165     0.9206     0.164
     0.519     66.7719     1.0319
     0.519     82.9817     1.0965
     0.519     98.2826     1.1453     0.1328
     0.519    112.3715     1.1939
     0.519    126.3087     1.1566
     0.519    140.5489     1.1037
     0.519    147.669      1.0968     0.125
     0.722     43.5766     3.0316     0.3674
     0.722     52.3863     2.7513
     0.722     67.9976     2.7691
     0.722     83.7828     2.4428
     0.722     99.0726     2.7419     0.2111
     0.722    106.1886     2.868
     0.722    128.2967     3.2071
     0.722    140.8618     3.4511
     0.722    148.9034     3.3271     0.3362
     0.859     40.112      4.9347
     0.859     46.1351     4.4926     0.6915
     0.859     51.889      4.5167
     0.859     56.708      4.6417
     0.859     62.3906     4.3472
     0.859     68.2288     4.0371
     0.859     73.2209     4.0766
     0.859     78.7638     3.7355     0.5594
     0.859     89.8227     3.7603
     0.859     99.5195     3.7771
     0.859    109.2855     4.1203
     0.859    118.7105     4.0127
     0.859    118.9294     4.3469
     0.859    127.3861     4.4723     0.6837
     0.859    138.353      4.8622
     0.859    139.0318     4.5748
     0.859    145.1326     5.0263
     0.859    146.0655     4.9332
     0.859    153.9278     5.0119
     0.859    153.9728     4.8332
     0.859    162.4178     5.0053
     0.859    163.0006     5.0986     0.2564
     1.02      20.8768     7.3335
     1.02      27.9768     7.5209
     1.02      40.2707     7.3283
     1.02      45.7042     7.5154
     1.02      51.6234     7.423
     1.02      57.7411     6.9113
     1.02      62.954      6.3606
     1.02      68.7122     6.3536
     1.02      74.9258     6.3389
     1.02      85.4433     5.7733
     1.02      90.5972     5.7507
     1.02     100.1639     5.5578
     1.02     100.1873     5.3482
     1.02     110.3245     5.4737
     1.02     119.8486     5.6614     0.4893
     1.02     129.6767     5.8413
     1.02     138.1159     6.2463
     1.02     145.8368     6.3016
     1.02     155.522      6.4039     0.5436
     1.02     159.7373     6.6452
     1.02     163.6973     6.4593
     1.152     24.366      8.7006
     1.152     35.582      8.8024
     1.152     35.588      8.9028
     1.152     41.628      8.5793
     1.152     42.254      8.9114
     1.152     48.293      8.5802
     1.152     48.297      8.6342     1.003
     1.152     48.43       8.3331
     1.152     59.955      8.5276
     1.152     60.075      8.018
     1.152     69.778      8.1428
     1.152     70.401      8.4209
     1.152     86.56       7.7203
     1.152    102.282      7.0583
     1.152    111.52       7.1367
     1.152    120.779      7.3078
     1.152    130.19       7.7646
     1.152    139.143      7.8816
     1.152    148.265      8.4156
     1.152    156.577      8.0846
     1.152    161.317      8.8111
     1.152    164.788      8.6031     0.8339
     1.307     28.58      10.91
     1.307     35.686     11.191
     1.307     41.754     10.943      0.5065
     1.307     48.274     10.757
     1.307     53.862     11.022
     1.307     60.216     11.109
     1.307     65.38      10.619
     1.307     70.247     10.347
     1.307     76.002     10.301
     1.307     81.762     10.177      0.3272
     1.307     91.757     10.116
     1.307     97.986      9.673
     1.307    101.039      9.1825     0.3974
     1.307    111.942      9.1285
     1.307    112.254      8.9581
     1.307    116.656      8.7249
     1.307    121.345      8.8035
     1.307    121.657      8.6321
     1.307    130.432      8.7501
     1.307    130.564      9.1242
     1.307    143.558      9.648
     1.307    147.937      9.8668
     1.307    155.96       9.899      0.6546
     1.307    160.033     10.187
     1.425     23.4        9.674
     1.425     30.6       10.073
     1.425     35.75      10.044
     1.425     47.72       9.5282     0.9799
     1.425     58.71       9.1908
     1.425     70.6        9.075
     1.425     90.55       8.9083
     1.425    101.97       8.4349     0.7009
     1.425    121.18       7.6818
     1.425    130.06       7.924
     1.425    146.98       8.5801
     1.425    156.56       8.7435     0.9441
     1.425    164.6        9.1502
     1.476     24.56      11.137
     1.476     36.38      11.006      0.9836
     1.476     47.79      10.89
     1.476     59.05      10.91
     1.476     70.17      11.072
     1.476     81.58      10.942      0.8909
     1.476     92.29      10.961
     1.476    102.04      10.475
     1.476    116.12       9.8744
     1.476    130.16       9.9149     0.898
     1.476    143.38       9.7844
     1.476    156.01      10.309
     1.476    165.03      10.593
     1.55      31.954     13.576      1.609
     1.55      37.922     13.469
     1.55      49.344     13.745
     1.55      60.015     13.361
     1.55      71.41      13.409      1.184
     1.55      93.04      12.663
     1.55     103.205     12.867
     1.55     118.393     11.639
     1.55     131.484     11.936
     1.55     144.231     11.431
     1.55     157.11      12.515      0.9857
     1.55     165.275     12.089
     1.585     36.973     14.388
     1.585     48.38      15.089      1.015
     1.585     59.095     14.767
     1.585     70.504     14.942
     1.585     81.357     14.912
     1.585     92.211     14.625
     1.585    102.367     14.964      0.8951
     1.585    116.982     13.647
     1.585    130.61      13.936
     1.585    143.69      13.99       0.9094
     1.585    156.078     14.208
     1.585    164.844     14.192
     1.672     25.647     16.429
     1.672     37.467     16.485      1.007
     1.672     48.313     16.363
     1.672     59.716     16.462
     1.672     71.257     16.526
     1.672     81.965     16.397
     1.672     91.977     16.582
     1.672    100.876     16.467
     1.672    117.285     15.902
     1.672    131.33      16.065      0.978
     1.672    145.097     15.965
     1.672    157.333     16.521
     1.672    164.703     16.82       0.978
ENDDATA            172
ENDSUBENT          186
SUBENT        F0243004   19991202   20001115
BIB                  4          5
REACTION   (4-BE-9(T,A)3-LI-8,PAR,DA,,,EXP)
ERR-ANALYS (ANG-ERR) Digitizing error
           (DATA-ERR) Digitizing error and from graphic
STATUS     (CURVE) Fig.5
EN-SEC     (E-LVL,3-LI-8)
ENDBIB               5
COMMON               2          3
E-LVL      ANG-ERR
MEV        ADEG
 0.9800     0.8
ENDCOMMON            3
DATA                 4        197
EN         ANG-CM     DATA-CM    DATA-ERR
MEV        ADEG       MB/SR      MB/SR
     0.519     35.827      0.3752     0.1079
     0.519     51.7273     0.6514
     0.519     68.918      0.6982     0.1294
     0.519     82.5536     0.7644
     0.519     85.0205     0.73
     0.519     98.2292     0.8606
     0.519    114.7374     0.907      0.1295
     0.519    118.4328     0.8734
     0.519    128.6866     0.8224
     0.519    137.5927     0.7057
     0.519    141.5669     0.6507
     0.519    145.6661     0.6389
     0.722     43.9978     1.4971
     0.722     52.637      1.7237     0.1214
     0.722     52.8078     1.5953     0.2428
     0.722     68.9404     1.762
     0.722     69.1657     1.9336
     0.722     86.2846     1.9723     0.2928
     0.722    101.6426     2.4886
     0.722    116.1402     2.6687     0.2998
     0.722    129.3793     2.4766
     0.722    142.2126     2.2771
     0.722    149.2572     1.8671     0.2428
     0.859     30.1967     2.8309     0.3194
     0.859     36.0536     3.1401
     0.859     41.1598     3.2891
     0.859     47.1611     3.5775
     0.859     52.8897     3.1992
     0.859     59.7349     3.4188
     0.859     64.3397     3.4633
     0.859     69.7658     3.4945     0.368
     0.859     80.5555     3.3762
     0.859     86.554      3.6716
     0.859     91.6005     3.6331
     0.859     96.4264     3.8027
     0.859    100.7449     3.5485
     0.859    100.8466     3.2986
     0.859    101.0482     3.8056
     0.859    106.0125     3.6351
     0.859    111.3567     3.8676
     0.859    115.9809     3.5303
     0.859    120.6709     3.6998
     0.859    122.1916     3.6383     0.2359
     0.859    138.073      3.3705
     0.859    138.2686     3.5581
     0.859    147.0895     2.9317
     0.859    147.3618     3.2652
     0.859    154.8035     2.6866
     0.859    162.7576     1.8514     0.1735
     1.02      24.3208     4.7356
     1.02      30.186      4.6684     0.6143
     1.02      35.9256     4.9825
     1.02      42.2924     5.0427
     1.02      42.3319     4.9227
     1.02      47.9277     4.8483
     1.02      47.9868     5.0814
     1.02      53.6836     5.113
     1.02      59.4966     4.7916
     1.02      64.7021     5.0771
     1.02      71.508      4.6291
     1.02      76.9261     4.6817     0.5722
     1.02      87.5161     4.7091
     1.02      97.3803     4.8774
     1.02     102.5745     4.372
     1.02     103.0445     5.0078
     1.02     103.7972     4.3727
     1.02     112.5629     4.5756     0.3743
     1.02     117.6675     4.7551
     1.02     122.08       4.56
     1.02     122.6966     4.751
     1.02     130.2804     4.4165
     1.02     130.3628     4.579
     1.02     139.4607     4.5984
     1.02     143.3962     3.7886
     1.02     148.1164     3.8973
     1.02     148.4845     4.0176
     1.02     155.9128     3.3299     0.2684
     1.02     159.7624     2.7813
     1.02     164.0587     2.9392
     1.152     36.9693     7.4545
     1.152     42.0517     7.8054     0.3903
     1.152     48.2165     7.6176
     1.152     48.3095     7.795
     1.152     60.0385     7.6532
     1.152     71.268      6.766      0.5819
     1.152     80.4758     6.9278
     1.152     82.0521     6.5953
     1.152     86.2        6.8746
     1.152     92.2563     6.5732
     1.152    103.087      6.7714
     1.152    103.1972     6.878
     1.152    103.2745     6.5587
     1.152    112.551      6.4367
     1.152    112.5873     6.8483
     1.152    122.7019     6.6345     0.2341
     1.152    131.9302     6.7112
     1.152    139.1088     6.8291     0.4825
     1.152    156.24       6.2791
     1.152    160.3104     6.3171
     1.152    163.909      6.0567     0.3972
     1.307     23.9554     9.7334     1.0024
     1.307     30.1582     9.928
     1.307     36.4223     9.9179
     1.307     42.3888     9.9923
     1.307     42.3902     9.5334
     1.307     47.9316     9.664      1.0165
     1.307     54.1941     8.7502
     1.307     59.9308     8.6832
     1.307     65.4989     8.2703
     1.307     70.9676     8.189
     1.307     76.7162     7.6279
     1.307     82.6405     7.8435     0.7271
     1.307     87.8793     7.6209
     1.307     93.6223     7.5328
     1.307     98.4508     7.317
     1.307    102.8866     7.5034
     1.307    112.9336     7.5874
     1.307    112.997      7.3757
     1.307    118.2916     7.4214
     1.307    122.0689     7.9886
     1.307    130.9101     8.0084
     1.307    139.9022     7.9788
     1.307    147.9967     7.7651
     1.307    155.8952     7.2971     0.3955
     1.307    159.7161     7.2643
     1.307    163.6435     7.3303
     1.425     23.056      8.9004     1.3468
     1.425     30.6993     9.2352
     1.425     37.3185     8.6816
     1.425     49.5773     8.7939
     1.425     60.5491     7.676
     1.425     61.1945     6.8858
     1.425     72.6283     6.0804     0.7515
     1.425     82.6556     5.5184
     1.425     93.4098     5.0446
     1.425    104.1113     4.7268     0.5173
     1.425    113.1841     4.75
     1.425    123.0993     4.5197
     1.425    131.4398     5.0305     1.0636
     1.425    148.7069     5.4376
     1.425    156.0728     4.9136
     1.425    163.993      4.4288     1.4248
     1.476     18.5066    10.7416
     1.476     24.1762    10.9967
     1.476     30.3848    10.6866
     1.476     36.5637    10.4837
     1.476     42.8988     9.7155
     1.476     49.145      9.2689     0.3606
     1.476     72.5508     6.9657
     1.476     82.9684     5.9648
     1.476     93.2055     5.6168
     1.476    104.3022     5.62
     1.476    114.111      6.1297     0.3704
     1.476    123.2488     6.2981
     1.476    132.3649     6.5444
     1.476    140.511      6.1471
     1.476    149.1771     5.9449
     1.476    157.2638     5.7621
     1.476    160.5864     6.2017
     1.476    164.3563     5.7154
     1.55      36.2438    12.1917     1.4124
     1.55      48.8026    12.0605
     1.55      60.2577     9.9029
     1.55      72.1814     8.7195     0.7403
     1.55      83.3157     8.276
     1.55      93.3091     7.8417
     1.55     104.2479     7.4176     0.3798
     1.55     118.9366     7.1412
     1.55     144.1181     6.6644
     1.55     156.7674     8.1404
     1.55     164.8815     7.6469     1.5197
     1.585     29.336     13.9885
     1.585     48.6005    13.1882     0.9054
     1.585     60.1878    11.4793
     1.585     82.9854     9.4635     0.5452
     1.585     94.8218     8.9328
     1.585    104.9609     8.4014     0.37
     1.585    118.6885     8.553
     1.585    144.2342     8.242
     1.585    155.8769     8.4317
     1.672     25.5494    17.123      1.1189
     1.672     30.9085    16.4088
     1.672     36.474     16.2147
     1.672     36.5202    16.6465     0.9029
     1.672     42.3765    16.1484
     1.672     49.4094    14.9638
     1.672     55.7978    13.4355
     1.672     62.2165    12.9572
     1.672     71.914     11.1751
     1.672     72.101     11.7542     0.5101
     1.672     88.8818    10.3478
     1.672    104.9214    10.0304     0.3434
     1.672    117.4328    10.0551
     1.672    123.62      10.2734
     1.672    131.0692    10.1194     0.5102
     1.672    149.7966     9.705      0.7947
     1.672    165.9927     8.9166
ENDDATA            199
ENDSUBENT          213
SUBENT        F0243005   19991202   20001115
BIB                  4          4
REACTION   (4-BE-9(T,A)3-LI-8,PAR,SIG,,,EXP)
ERR-ANALYS (DATA-ERR) Absolute error
STATUS     (TABLE) Table P.490
EN-SEC     (E-LVL,3-LI-8)
ENDBIB               4
NOCOMMON             0          0
DATA                 4         22
E-LVL      EN         DATA       DATA-ERR
MEV        MEV        MB         MB
     0.         0.519      8.8        1.
     0.         0.722     36.         3.
     0.         0.859     51.         1.8
     0.         1.02      78.         3.4
     0.         1.152    100.         8.
     0.         1.307    113.         8.
     0.         1.425    112.        10.
     0.         1.476    108.        10.
     0.         1.53     111.        11.
     0.         1.585    108.         9.6
     0.         1.672    105.         9.
     0.98       0.519      8.7        1.3
     0.98       0.722     30.         4.4
     0.98       0.859     42.         3.
     0.98       1.02      60.         3.
     0.98       1.152     58.         5.
     0.98       1.307     78.         4.
     0.98       1.425     76.         8.
     0.98       1.476     78.         2.4
     0.98       1.53      73.         9.
     0.98       1.585     80.         7.
     0.98       1.672     73.         6.
ENDDATA             24
ENDSUBENT           33
ENDENTRY             5
