ENTRY            F0277   20010126   20030930
SUBENT        F0277001   20010126   20030930
BIB                  8         23
TITLE      A study of some (t,p) reactions I. Method and results
           for 7Li,10B and 11B
AUTHOR     (R.MIDDLETON,D.J.PULLEN)
INSTITUTE  (2UK OXF,2UK ALD)
REFERENCE  (J,NP,51,50,196402)
SAMPLE     The 10B and 11B targets were both prepared by
           evaporation of the enriched  metals (92% and 98.6%
           respectively) using the electron bombardment technique
           described by Muggleton and Howe).Both targets were
           about 50 mu-g/cm**2 in thickness and in the case of 11B
           a thin carbon backing was used.This later permitted
           measurements to be made of the higher excited states of
           14C formed in the 12C(t,p)14C reaction.
DETECTOR   (MAGSP)
ERR-ANALYS Absolute differential cross sections have
           been measured in a number of cases and these were
           determined either by directly weighing the targets or
           by making separate measurements of the elastically
           scattered tritons.The former method is considered
           accurate to only +-30% and the latter to +-10%.
HISTORY    (19800611C)
           (20010126A) Added SUBENTRY 004
           (20030505U) Changed headings in sub.004
ENDBIB              23
NOCOMMON
ENDSUBENT           26
SUBENT        F0277002   19991202   20001115
BIB                  3          5
REACTION   (5-B-10(T,P)5-B-12,PAR,DA,,,EXP)
ERR-ANALYS (ANG-ERR) Digitizing error
           (DATA-ERR1) Absolute error
           (DATA-ERR2) Error from graphic bars and digitizing
STATUS     (CURVE) Fig.4
ENDBIB               5
COMMON               3          3
EN         DATA-ERR1  ANG-ERR
MEV        PER-CENT   ADEG
  10.00      30.00      1.5
ENDCOMMON            3
DATA                 4        265
E-LVL      ANG-CM     DATA       DATA-ERR2
MEV        ADEG       MB/SR      MB/SR
     0.         3.9879     0.8002     0.0243
     0.        12.2455     0.7238     0.0197
     0.        20.8454     0.6353     0.0152
     0.        29.9001     0.5605     0.0137
     0.        37.9097     0.4363     0.001
     0.        45.1245     0.3546     0.0152
     0.        54.4387     0.2814     0.0122
     0.        62.0278     0.271      0.001
     0.        77.9548     0.3042     0.0129
     0.        85.6703     0.3174     0.0152
     0.        91.9295     0.3047     0.0152
     0.        97.874      0.2997     0.0167
     0.       106.0741     0.2772     0.0137
     0.       112.5883     0.2668     0.0129
     0.       120.9974     0.2542     0.0106
     0.       127.1464     0.2598     0.0114
     0.       133.7639     0.2767     0.0129
     0.       141.794      0.2823     0.0122
     0.       147.8694     0.3        0.0144
     0.       155.199      0.2881     0.0129
     0.       162.3333     0.2641     0.0106
     0.       169.385      0.2537     0.001
     0.       177.0109     0.2373     0.001
     0.95       5.0243     0.654      0.0356
     0.95      13.9368     0.5007     0.0261
     0.95      21.4294     0.4069     0.016
     0.95      31.1112     0.3051     0.0145
     0.95      38.3847     0.2455     0.0116
     0.95      46.6507     0.209      0.0138
     0.95      54.4559     0.2096     0.0138
     0.95      62.7261     0.179      0.0131
     0.95      71.2619     0.1781     0.0123
     0.95      78.3407     0.186      0.0123
     0.95      86.6289     0.18       0.0123
     0.95      93.7014     0.1792     0.0123
     0.95      99.3073     0.174      0.0131
     0.95     107.3617     0.1819     0.0145
     0.95     113.7056     0.1854     0.0131
     0.95     121.0108     0.1693     0.001
     0.95     127.595      0.1677     0.001
     0.95     135.4081     0.1792     0.001
     0.95     142.2345     0.1755     0.001
     0.95     149.2879     0.1485     0.001
     0.95     156.3667     0.1564     0.001
     0.95     161.7208     0.1403     0.001
     0.95     169.2503     0.0974     0.001
     0.95     176.563      0.0914     0.001
     1.67       5.3325     0.4174     0.0355
     1.67      12.7286     0.4741     0.0229
     1.67      22.2156     0.4434     0.0262
     1.67      29.2592     0.4116     0.024
     1.67      37.9138     0.2995     0.0164
     1.67      55.2673     0.3107     0.0137
     1.67      63.3533     0.3324     0.0137
     1.67      71.5202     0.2209     0.0142
     1.67      79.8002     0.2016     0.0131
     1.67      94.9444     0.2036     0.0153
     1.67      99.345      0.2074     0.0142
     1.67     106.4434     0.2204     0.0131
     1.67     114.7301     0.2066     0.0142
     1.67     121.8124     0.2065     0.0131
     1.67     129.3765     0.2009     0.0148
     1.67     135.2236     0.1894     0.0137
     1.67     141.8282     0.198      0.0137
     1.67     148.9433     0.2247     0.0142
     1.67     156.027      0.2257     0.0153
     1.67     161.1951     0.2579     0.0164
     1.67     168.0546     0.2753     0.0148
     1.67     175.3965     0.2877     0.0137
     2.62       7.0075     0.6748     0.0184
     2.62      14.8455     0.4994     0.0173
     2.62      22.974      0.2411 0.7496E-02
     2.62      31.9969     0.2351     0.0109
     2.62      39.5106     0.228  0.7496E-02
     2.62      48.5482     0.2278 0.7502E-02
     2.62      56.8106     0.219  0.8067E-02
     2.62      64.5724     0.2108     0.0115
     2.62      72.6029     0.2095     0.0132
     2.62      80.8858     0.2087 0.8073E-02
     2.62      87.9298     0.2143 0.7496E-02
     2.62      95.9749     0.2188 0.9209E-02
     2.62     100.2559     0.2238 0.8643E-02
     2.62     107.2851     0.2237 0.8649E-02
     2.62     116.0702     0.2229 0.8078E-02
     2.62     122.3816     0.2366 0.7496E-02
     2.62     129.3873     0.2272 0.8073E-02
     2.62     136.6779     0.2311 0.7496E-02
     2.62     142.9261     0.22   0.8643E-02
     2.62     149.4591     0.2222 0.8083E-02
     2.62     156.2725     0.2359 0.8062E-02
     2.62     163.036      0.23   0.7496E-02
     2.62     169.343      0.242  0.8073E-02
     2.62     176.2211     0.281  0.8083E-02
     2.72       0.2258     0.1677     0.012
     2.72      13.4646     0.0935 0.1000E-01
     2.72      21.9748 0.5694E-02 0.5570E-02
     2.72      30.9591     0.0104 0.5572E-02
     2.72      38.9976     0.0128 0.5570E-02
     2.72      48.2184     0.0197 0.5570E-02
     2.72      56.7298     0.0199 0.5288E-02
     2.72      64.059      0.0215 0.5017E-02
     2.72      71.8611     0.0192 0.5015E-02
     2.72      80.1362     0.027  0.5570E-02
     2.72      87.7017     0.0174 0.5017E-02
     2.72      95.2673     0.0107 0.5292E-02
     2.72     100.7051     0.0104 0.5297E-02
     2.72     107.7979 0.8635E-02 0.5292E-02
     2.72     114.8907 0.8579E-02 0.5572E-02
     2.72     121.7472     0.0127 0.4737E-02
     2.72     128.8401     0.0177 0.5845E-02
     2.72     136.4058     0.0218 0.5011E-02
     2.72     142.08       0.0173 0.4454E-02
     2.72     149.1729     0.0242 0.5295E-02
     2.72     156.2657     0.0266 0.5568E-02
     2.72     161.94       0.0246 0.5015E-02
     3.39       6.14       0.7275     0.0216
     3.39      13.7332     0.5676     0.021
     3.39      21.7971     0.4071     0.0198
     3.39      31.1789     0.3663 0.9576E-02
     3.39      38.8737     0.2938 0.8383E-02
     3.39      47.1186     0.2889 0.8980E-02
     3.39      56.3183     0.2943 0.8380E-02
     3.39      63.6384     0.305  0.8982E-02
     3.39      72.1121     0.2942 0.8982E-02
     3.39      80.1276     0.2947 0.8980E-02
     3.39      94.9723     0.2892 0.8378E-02
     3.39     100.8648     0.2886 0.9582E-02
     3.39     115.238      0.2831 0.8386E-02
     3.39     129.388      0.2884 0.8383E-02
     3.39     136.2353     0.298  0.8983E-02
     3.39     142.3768     0.3087 0.9582E-02
     3.39     149.2498     0.3404 0.8980E-02
     3.39     156.3704     0.3823 0.9580E-02
     3.39     161.3848     0.4373 0.8982E-02
     3.39     168.2502     0.4624 0.8384E-02
     3.39     176.2232     0.4265 0.8387E-02
     3.75       6.0328     0.5032     0.0249
     3.75      15.2937     0.4866     0.0268
     3.75      23.3748     0.3088     0.0174
     3.75      31.3084     0.2935     0.0175
     3.75      40.1879     0.2483     0.0174
     3.75      48.7685     0.1951     0.0118
     3.75      57.1526     0.1592     0.0112
     3.75      64.4484     0.1178     0.0112
     3.75      72.9849     0.12       0.0125
     3.75      88.539      0.1443     0.0112
     3.75      97.083      0.1484     0.0112
     3.75     102.1281     0.1438 0.9986E-02
     3.75     108.7519     0.1342     0.0118
     3.75     115.7838     0.0935     0.0118
     3.75     123.013      0.1019     0.0118
     3.75     130.4437     0.0941     0.0137
     3.75     136.6045     0.102      0.0131
     3.75     143.5523     0.1067     0.0118
     3.75     150.6149     0.1401     0.0125
     3.75     156.3028     0.1629     0.0125
     3.75     163.8384     0.1813     0.0125
     3.75     169.4514     0.1855     0.0131
     3.75     176.7205     0.2039     0.0131
     4.3        6.4384     0.0981 0.9192E-02
     4.3       14.9295     0.1191 0.8107E-02
     4.3       23.5716     0.093  0.7028E-02
     4.3       31.6949     0.0629 0.5950E-02
     4.3       48.7905     0.0747 0.5672E-02
     4.3       57.0797     0.0586 0.5684E-02
     4.3       64.7199     0.0475 0.5947E-02
     4.3       72.5645     0.0536 0.5677E-02
     4.3       80.1352     0.0565 0.5404E-02
     4.3       88.9975     0.0491 0.5409E-02
     4.3       96.1452     0.0561 0.5407E-02
     4.3      102.5002     0.0557 0.5407E-02
     4.3      109.0364     0.0508 0.5139E-02
     4.3      116.0563     0.047  0.4864E-02
     4.3      122.9724     0.0742 0.4864E-02
     4.3      129.9572     0.0674 0.4596E-02
     4.3      137.0506     0.0697 0.4862E-02
     4.3      144.0929     0.0677 0.5137E-02
     4.3      151.4512     0.0925 0.4859E-02
     4.3      157.3536     0.0738 0.5139E-02
     4.3      164.1725     0.0529 0.5137E-02
     4.3      170.2321     0.0675 0.4869E-02
     4.3      177.1882     0.0582 0.4591E-02
     4.51       7.0053     0.8705     0.0427
     4.51      15.2846     0.8495     0.0398
     4.51      24.5298     0.7134     0.0347
     4.51      32.2454     0.6657     0.034
     4.51      40.7899     0.466      0.0268
     4.51      48.001      0.4074     0.0188
     4.51      56.0912     0.3979     0.0174
     4.51      64.4646     0.4022     0.0166
     4.51      71.9911     0.366      0.0174
     4.51      80.0733     0.3544     0.0166
     4.51      87.4805     0.3486     0.0181
     4.51      95.0929     0.3356     0.0166
     4.51     100.6886     0.342      0.0166
     4.51     107.4263     0.3434     0.0166
     4.51     114.9678     0.3738     0.0181
     4.51     121.4894     0.3795     0.0159
     4.51     128.5451     0.4041     0.0166
     4.51     135.9093     0.3867     0.0188
     4.51     162.2182     0.3446     0.0174
     4.51     168.0864     0.362      0.0159
     4.51     175.2641     0.3569     0.0152
     5.         5.7237     0.1032     0.0114
     5.        14.1572     0.081      0.0106
     5.        22.8359     0.0542 0.9387E-02
     5.        31.9766     0.1069 0.9098E-02
     5.        39.8978     0.0856 0.9684E-02
     5.        48.0635     0.0594 0.7925E-02
     5.        57.038      0.0476 0.6745E-02
     5.        65.2406     0.0357 0.6158E-02
     5.        73.251      0.0491 0.6459E-02
     5.        81.1994     0.0384 0.6748E-02
     5.        88.1572     0.0427 0.6162E-02
     5.        96.3833     0.04   0.6756E-02
     5.       101.5244     0.0381 0.6459E-02
     5.       117.757      0.0473 0.7045E-02
     5.       123.1296     0.0355 0.5869E-02
     5.       130.3229     0.0313 0.6158E-02
     5.       149.9122     0.0451 0.5869E-02
     5.       155.337      0.0535 0.6752E-02
     5.       162.7874     0.0493 0.6451E-02
     5.       168.7335     0.0603 0.6455E-02
     5.       176.436      0.0541 0.6154E-02
     5.61       5.9696     5.802      0.2586
     5.61      14.5036     3.7219     0.1741
     5.61      23.4737     1.6529     0.1797
     5.61      32.201      0.6738     0.118
     5.61      40.1645     1.5259     0.2246
     5.61      48.5149     0.8726     0.1011
     5.61      57.613      0.7696     0.0843
     5.61      72.4896     0.1992     0.001
     5.61      81.6212     0.2873     0.001
     5.61      87.4913     0.3422     0.001
     5.61      95.5437     0.4641     0.001
     5.61     100.5515     0.553      0.001
     5.61     107.7179     0.574      0.001
     5.61     117.6823     0.4596     0.001
     5.61     123.5415     0.4528     0.001
     5.61     143.2502     0.2072     0.001
     5.61     149.3245     0.1891     0.001
     5.61     154.7428     0.143      0.001
     5.61     162.3305     0.0909     0.001
     5.61     168.8438     0.1008     0.001
     5.61     176.0043     0.0881     0.001
     5.72       6.3836     0.9235     0.0368
     5.72      14.4428     0.6558     0.0258
     5.72      23.0707     0.4162     0.025
     5.72      31.1543     0.3105     0.0196
     5.72      40.1749     0.3512     0.018
     5.72      65.5152     0.3065     0.0203
     5.72      72.7667     0.2422     0.0188
     5.72      81.0223     0.2688     0.0219
     5.72      88.0248     0.279      0.018
     5.72      96.0668     0.3142     0.0188
     5.72     100.8743     0.3141     0.0188
     5.72     107.5803     0.3063     0.0164
     5.72     129.2333     0.3124     0.018
     5.72     135.9319     0.3022     0.0164
     5.72     142.8393     0.2819     0.0172
     5.72     149.0694     0.2756     0.0164
     5.72     155.496      0.2552     0.018
     5.72     162.4473     0.2489     0.018
     5.72     168.6823     0.2442     0.0172
     5.72     176.4132     0.2567     0.0196
ENDDATA            267
ENDSUBENT          281
SUBENT        F0277003   19991202   20001115
BIB                  4          5
REACTION   (5-B-11(T,P)5-B-13,PAR,DA,,,EXP)
ERR-ANALYS (ANG-ERR) Digitizing error
           (DATA-ERR2) Digitizing error
STATUS     (CURVE) Fig.6
EN-SEC     (E-LVL,5-B-13)
ENDBIB               5
COMMON               2          3
EN         ANG-ERR
MEV        ADEG
  11.00      1.67
ENDCOMMON            3
DATA                 4        135
E-LVL      ANG-CM     DATA       DATA-ERR2
MEV        ADEG       MB/SR      MB/SR
     0.         0.4929     6.9659 0.01
     0.         5.1478     6.563  0.01
     0.        13.2351     3.8937 0.01
     0.        22.6017     1.644  0.01
     0.        31.7185     0.9034 0.01
     0.        40.0323     1.1544 0.01
     0.        48.0335     1.2745 0.01
     0.        57.043      0.9153 0.01
     0.        64.8589     0.4525 0.01
     0.        72.808      0.1369 0.01
     0.        81.0192     0.1317 0.01
     0.        87.6031     0.3227 0.01
     0.        95.776      0.4538 0.01
     0.       101.3303     0.5793 0.01
     0.       108.1257     0.6395 0.01
     0.       117.7357     0.629  0.01
     0.       123.8662     0.5693 0.01
     0.       130.3658     0.4388 0.01
     0.       136.3522     0.2701 0.01
     0.       143.1798     0.2159 0.01
     0.       150.536      0.1454 0.01
     0.       155.7808     0.1293 0.01
     0.       163.1201     0.1187 0.01
     0.       168.6943     0.1734 0.01
     0.       176.0046     0.2663 0.01
     3.48       6.4778     0.573  0.001
     3.48      14.5558     0.5399 0.001
     3.48      23.7185     0.4138 0.001
     3.48      31.7585     0.2599 0.001
     3.48      40.4816     0.155  0.001
     3.48      49.2615     0.123  0.001
     3.48      57.275      0.1058 0.001
     3.48      66.4999     0.0946 0.001
     3.48      74.4872     0.0838 0.001
     3.48      81.5718     0.078  0.001
     3.48      90.7939     0.1108 0.001
     3.48      97.951      0.0872 0.001
     3.48     102.4275     0.115  0.001
     3.48     110.3483     0.1206 0.001
     3.48     117.9584     0.1157 0.001
     3.48     124.1564     0.1109 0.001
     3.48     131.2148     0.1115 0.001
     3.48     137.335      0.0824 0.001
     3.48     144.8008     0.0696 0.001
     3.48     150.6841     0.0554 0.001
     3.48     156.7117     0.049  0.001
     3.48     164.5104     0.0413 0.001
     3.48     169.6828     0.0715 0.001
     3.53       6.3958     0.5051 0.001
     3.53      15.2226     0.4697 0.001
     3.53      24.0571     0.4017 0.001
     3.53      32.0889     0.3379 0.001
     3.53      41.1227     0.2747 0.001
     3.53      50.3473     0.2524 0.001
     3.53      58.3824     0.1745 0.001
     3.53      66.603      0.1605 0.001
     3.53      74.6323     0.1072 0.001
     3.53      82.8475     0.1158 0.001
     3.53      90.663      0.1197 0.001
     3.53      98.077      0.1261 0.001
     3.53     102.8833     0.1425 0.001
     3.53     111.1041     0.127  0.001
     3.53     118.7167     0.1413 0.001
     3.53     124.9358     0.1158 0.001
     3.53     132.9538     0.1107 0.001
     3.53     138.374      0.0731 0.001
     3.53     145.1879     0.0749 0.001
     3.53     151.8042     0.0645 0.001
     3.53     157.2174     0.0563 0.001
     3.53     163.8122     0.1377 0.001
     3.53     170.4298     0.1216 0.001
     3.68       6.4115     2.3591 0.005
     3.68      16.0276     1.8744 0.005
     3.68      24.9882     1.3167 0.005
     3.68      34.6075     0.7883 0.005
     3.68      43.5461     0.5391 0.005
     3.68      51.3231     0.361  0.005
     3.68      60.4192     0.2195 0.005
     3.68      68.1826     0.2313 0.005
     3.68      75.2864     0.2283 0.005
     3.68      84.536      0.2493 0.005
     3.68      91.6379     0.2719 0.005
     3.68      99.3997     0.3074 0.005
     3.68     105.3447     0.3372 0.005
     3.68     112.4487     0.3306 0.005
     3.68     119.2231     0.313  0.005
     3.68     125.664      0.3374 0.005
     3.68     132.4388     0.3144 0.005
     3.68     139.3805     0.2676 0.005
     3.68     145.3302     0.2317 0.005
     3.71       6.8478     1.0213 0.002
     3.71      14.5103     1.0208 0.002
     3.71      24.2586     0.8765 0.002
     3.71      32.895      0.7635 0.002
     3.71      42.0817     0.6453 0.002
     3.71      50.7018     0.562  0.002
     3.71      59.2014     0.3662 0.002
     3.71      67.4438     0.3064 0.002
     3.71      75.1379     0.2483 0.002
     3.71      82.8258     0.2016 0.002
     3.71      91.0284     0.2143 0.002
     3.71      98.6823     0.2295 0.002
     3.71     104.8661     0.2639 0.002
     3.71     111.2382     0.2878 0.002
     3.71     118.3333     0.3239 0.002
     3.71     125.2689     0.3182 0.002
     3.71     132.5723     0.3072 0.002
     3.71     139.7144     0.2579 0.002
     3.71     144.8756     0.1613 0.002
     4.13      13.4831     2.3598 0.005
     4.13      23.1509     2.0358 0.005
     4.13      31.3355     1.6143 0.005
     4.13      40.8626     1.1968 0.005
     4.13      50.1864     0.9008 0.005
     4.13      59.822      0.6871 0.005
     4.13      68.4348     0.5256 0.005
     4.13      76.5198     0.4464 0.005
     4.13      84.7776     0.3503 0.005
     4.13      92.3472     0.3102 0.005
     4.13     100.0778     0.2944 0.005
     4.13     105.7956     0.269  0.005
     4.13     111.8429     0.2661 0.005
     4.13     119.7299     0.2896 0.005
     4.13     127.1257     0.2701 0.005
     5.01      15.3968     0.621  0.001
     5.01      24.6443     0.5019 0.001
     5.01      34.0179     0.3119 0.001
     5.01      43.675      0.2127 0.001
     5.01      51.8251     0.1688 0.001
     5.01      60.5939     0.1593 0.001
     5.01      69.6127     0.2063 0.001
     5.01      76.9684     0.1477 0.001
     5.01      86.1327     0.1438 0.001
     5.01      93.1259     0.1137 0.001
     5.01     101.5606     0.1619 0.001
ENDDATA            137
ENDSUBENT          151
SUBENT        F0277004   20010126   20030930
BIB                  4          6
REACTION   (3-LI-7(T,P)3-LI-9,PAR,DA,,REL)
ERR-ANALYS (ANG-ERR) Digitizing error
           (DATA-ERR1) Digitizing error
           (DATA-ERR2) Error from graphic bars
EN-SEC     (E-LVL,3-LI-9)
STATUS     (CURVE) fig.2
ENDBIB               6
COMMON               4          3
EN         E-LVL      ANG-ERR    DATA-ERR1
MEV        MEV        ADEG       ARB-UNITS
  11.28     0.0         0.5        0.01
ENDCOMMON            3
DATA                 3         18
ANG-CM     DATA-CM    DATA-ERR2
ADEG       ARB-UNITS  ARB-UNITS
  5.872      23.74     0.7718
  15.60      17.68     0.5513
  25.05      14.23     0.4190
  34.53      15.19     0.3748
  43.75      15.33     0.3749
  52.56      15.01     0.2867
  61.87      12.02     0.3308
  70.46      8.322     0.2867
  78.77      5.677
  86.93      3.772
  95.48      4.093
  102.7      4.359
  107.7      5.352
  115.1      6.004
  121.9      6.270
  128.3      7.970     0.3087
  134.9      7.949     0.3197
  141.7      8.535     0.3418
ENDDATA             20
ENDSUBENT           35
ENDENTRY             4
