ENTRY            F0293   19991202   20001115
SUBENT        F0293001   19991202   20001115
BIB                  9         16
TITLE      Alpha-cluster break-up and reation mechanism in
            (p,alpha) reactions on light nuclei
AUTHOR     (W.BUCK,F.HOYLER,A.STABLER,G.STAUDT,H.V.KLAPDOR,
           H.OESCHLER)
INSTITUTE  (2GERTUE)
REFERENCE  (J,NP/A,398,189,1983)
MONIT-REF  (,BUCK+,J,NP/A,281,469,1977)
SAMPLE     The boron targets consisted of self-supporting
           highly enriched boron foils with thickness between
           40 and 180 mu-g/cm2 while the sodium targets were
           prepared by evaporating either metallic sodium or
           sodium-fluoride onto 20 mu-g/cm2 carbon foils. The
           sodium target thickness was between 100 - 250 mu-g/cm2.
FACILITY   (VDGT)
DETECTOR   (SOLST) Silicon surface barrier with 300 mu-m thick
HISTORY    (19850722C)
ENDBIB              16
NOCOMMON             0          0
ENDSUBENT           19
SUBENT        F0293002   19991202   20001115
BIB                  4          6
REACTION   (5-B-11(P,A)4-BE-8,PAR,DA,,,EXP)
ERR-ANALYS (ANG-ERR) Digitizing error
           (DATA-ERR) Error from graphic bars (statistical error)
           and digitizing error
STATUS     (CURVE) Fig.2
EN-SEC     (E-LVL,4-BE-8)
ENDBIB               6
COMMON               2          3
E-LVL      ANG-ERR
MEV        ADEG
 0.0         3.0
ENDCOMMON            3
DATA                 4        450
EN         ANG-CM     DATA-CM    DATA-ERR
MEV        ADEG       MB/SR      MB/SR
     6.        21.71       0.3614     0.0164
     6.        28.01       0.4265     0.0163
     6.        34.22       0.4589     0.0327
     6.        38.47       0.524      0.0245
     6.        44.53       0.4993     0.0164
     6.        50.76       0.5398     0.0246
     6.        54.75       0.507  0.8164E-02
     6.        60.77       0.4659 0.8250E-02
     6.        66.84       0.4493     0.0164
     6.        72.82       0.3919 0.8250E-02
     6.        78.72       0.31       0.0245
     6.        82.7        0.269      0.0244
     6.        86.82       0.2852     0.0163
     6.        92.9        0.2686     0.0163
     6.        98.98       0.252      0.0163
     6.       103.1        0.26       0.0163
     6.       109.2        0.2679     0.0163
     6.       111.2        0.227      0.0162
     6.       117.3        0.2431     0.0163
     6.       123.6        0.3163 0.4300E-02
     6.       127.7        0.3243     0.0245
     6.       131.9        0.3404     0.0245
     6.       136.         0.3484     0.0327
     6.       142.         0.3074 0.4300E-02
     6.       146.         0.2827 0.4300E-02
     6.       152.         0.2416     0.0246
     6.       156.         0.1925 0.4300E-02
     6.       160.         0.1596     0.0163
     6.       163.9        0.1105 0.4300E-02
     6.       167.9        0.0777     0.0163
     6.       171.9        0.0367 0.4300E-02
     6.75      15.84       0.1231 0.5886E-02
     6.75      24.06       0.1808 0.5886E-02
     6.75      32.28       0.2302 0.5886E-02
     6.75      38.49       0.3292 0.5886E-02
     6.75      42.66       0.4117 0.5886E-02
     6.75      48.83       0.4612     0.0166
     6.75      52.91       0.4611 0.8259E-02
     6.75      59.06       0.4941     0.0166
     6.75      65.12       0.4279 0.5886E-02
     6.75      69.21       0.4278 0.5886E-02
     6.75      75.28       0.3782 0.5886E-02
     6.75      81.4        0.3781 0.5886E-02
     6.75      85.48       0.378  0.5886E-02
     6.75      93.67       0.4027 0.5886E-02
     6.75      95.7        0.3861     0.0165
     6.75     101.8        0.386      0.0248
     6.75     105.9        0.3612     0.0165
     6.75     109.9        0.3446 0.5886E-02
     6.75     116.         0.2867 0.5886E-02
     6.75     120.1        0.2784     0.0248
     6.75     126.2        0.2783 0.5886E-02
     6.75     128.2        0.2617 0.5886E-02
     6.75     136.4        0.2781     0.0165
     6.75     138.5        0.2946 0.5886E-02
     6.75     144.6        0.3193 0.5886E-02
     6.75     148.7        0.3357 0.5886E-02
     6.75     154.8        0.3439 0.5886E-02
     6.75     161.         0.3851 0.5886E-02
     6.75     165.1        0.3767 0.5886E-02
     6.75     169.2        0.3849 0.5886E-02
     6.75     173.2        0.3684     0.0248
     7.5       18.3        0.1848 0.4881E-02
     7.5       26.53       0.2245 0.4881E-02
     7.5       30.71       0.2803 0.4881E-02
     7.5       34.75       0.2562 0.4881E-02
     7.5       38.88       0.2881 0.4881E-02
     7.5       43.05       0.3359 0.4881E-02
     7.5       45.03       0.3039 0.4881E-02
     7.5       49.13       0.3117 0.4881E-02
     7.5       55.27       0.3196 0.4881E-02
     7.5       55.32       0.3515 0.4881E-02
     7.5       61.46       0.3593 0.4881E-02
     7.5       65.58       0.3832 0.4881E-02
     7.5       71.77       0.4229 0.4881E-02
     7.5       75.92       0.4627 0.4881E-02
     7.5       75.96       0.4867 0.4881E-02
     7.5       86.21       0.5104 0.4881E-02
     7.5       86.28       0.5503     0.0239
     7.5       92.4        0.5501 0.4881E-02
     7.5       96.44       0.5261 0.4881E-02
     7.5       98.55       0.5659 0.4881E-02
     7.5       98.58       0.5819 0.4881E-02
     7.5      102.5        0.502  0.4881E-02
     7.5      106.5        0.4619 0.4881E-02
     7.5      110.5        0.382  0.4881E-02
     7.5      114.5        0.334  0.4881E-02
     7.5      116.5        0.31   0.4881E-02
     7.5      120.5        0.2779 0.4881E-02
     7.5      124.5        0.2459 0.4881E-02
     7.5      130.6        0.2377 0.4881E-02
     7.5      136.8        0.2455 0.4881E-02
     7.5      138.9        0.2694 0.4881E-02
     7.5      145.1        0.3172 0.4881E-02
     7.5      149.2        0.349  0.4881E-02
     7.5      153.4        0.4288     0.0239
     7.5      153.4        0.4367 0.4881E-02
     7.5      159.7        0.5005 0.4881E-02
     7.5      163.9        0.5722     0.016
     7.5      168.1        0.636  0.4881E-02
     7.5      174.3        0.6917 0.4881E-02
     8.25      17.7        0.2109 0.5797E-02
     8.25      23.9        0.2803 0.5797E-02
     8.25      30.08       0.3236 0.5797E-02
     8.25      38.24       0.3234     0.0261
     8.25      40.37       0.3929     0.0261
     8.25      46.52       0.4188     0.0261
     8.25      52.65       0.4274     0.0348
     8.25      56.75       0.436      0.026
     8.25      62.86       0.4271     0.0261
     8.25      68.98       0.427      0.0174
     8.25      73.03       0.4008     0.0261
     8.25      81.22       0.418  0.5797E-02
     8.25      85.24       0.3658 0.5797E-02
     8.25      89.31       0.357  0.5797E-02
     8.25      93.36       0.3309 0.5797E-02
     8.25      99.47       0.3221 0.5797E-02
     8.25     105.6        0.3132     0.0174
     8.25     111.7        0.2957 0.5797E-02
     8.25     115.7        0.2609     0.0347
     8.25     119.8        0.2608 0.5797E-02
     8.25     123.9        0.2955 0.5797E-02
     8.25     130.         0.2866 0.5797E-02
     8.25     134.1        0.2952     0.0261
     8.25     138.2        0.2604 0.5797E-02
     8.25     142.3        0.2603 0.5797E-02
     8.25     146.3        0.2428 0.5797E-02
     8.25     152.4        0.234  0.5797E-02
     8.25     154.4        0.1731 0.5797E-02
     8.25     160.5        0.173  0.5797E-02
     8.25     170.7        0.1206 0.5797E-02
     8.25     176.7        0.0857 0.5797E-02
     9.        19.95       0.0663 0.4574E-02
     9.        32.26       0.0991 0.4574E-02
     9.        38.42       0.1156 0.4574E-02
     9.        44.56       0.1237 0.4574E-02
     9.        48.61       0.1069 0.4574E-02
     9.        52.65       0.09   0.4574E-02
     9.        58.79       0.0981 0.4574E-02
     9.        67.05       0.1395 0.4574E-02
     9.        71.11       0.131  0.4574E-02
     9.        75.27       0.1642 0.4574E-02
     9.        79.33       0.1557 0.4574E-02
     9.        85.6        0.2221 0.4574E-02
     9.        91.65       0.1886 0.4574E-02
     9.        95.77       0.2051     0.0167
     9.        99.85       0.205  0.4574E-02
     9.       103.9        0.1881 0.4574E-02
     9.       107.9        0.163  0.4574E-02
     9.       114.         0.1294 0.4574E-02
     9.       122.2        0.1374 0.4574E-02
     9.       126.2        0.1206 0.4574E-02
     9.       128.2        0.1122 0.4574E-02
     9.       134.3        0.112  0.4574E-02
     9.       138.4        0.1118 0.4574E-02
     9.       142.5        0.095  0.4574E-02
     9.       148.6        0.0948 0.4574E-02
     9.       152.7        0.103  0.4574E-02
     9.       156.7        0.0861 0.4574E-02
     9.       160.9        0.1027 0.4574E-02
     9.       164.8        0.0608 0.4574E-02
     9.       171.         0.0856 0.4574E-02
     9.5       29.03       0.1283 0.6199E-02
     9.5       35.15       0.1119 0.6199E-02
     9.5       43.3        0.1037 0.6199E-02
     9.5       47.38       0.0874 0.6199E-02
     9.5       55.56       0.1117 0.6199E-02
     9.5       59.65       0.1279 0.6199E-02
     9.5       65.78       0.136      0.0244
     9.5       67.83       0.1522     0.0163
     9.5       69.89       0.1766     0.0163
     9.5       76.02       0.1847 0.6199E-02
     9.5       82.15       0.2008 0.6199E-02
     9.5       86.25       0.2252 0.6199E-02
     9.5       92.38       0.2332 0.6199E-02
     9.5       96.46       0.2332 0.6199E-02
     9.5      100.5        0.2169 0.6199E-02
     9.5      106.7        0.2087 0.6199E-02
     9.5      110.7        0.1924 0.6199E-02
     9.5      114.8        0.2005 0.6199E-02
     9.5      118.9        0.2086 0.6199E-02
     9.5      123.         0.2248 0.6199E-02
     9.5      131.2        0.2653     0.0244
     9.5      133.3        0.3059     0.0244
     9.5      139.4        0.3546     0.0163
     9.5      141.4        0.3627 0.6199E-02
     9.5      147.6        0.4277 0.6199E-02
     9.5      153.8        0.4358     0.0163
     9.5      157.9        0.4601     0.0163
     9.5      164.         0.4925     0.0163
     9.5      164.         0.5007     0.0162
     9.5      170.1        0.5006     0.0325
    10.        16.08       0.116      0.011
    10.        24.22       0.1244     0.011
    10.        30.35       0.1247     0.011
    10.        34.49       0.1004     0.011
    10.        42.69       0.0845     0.011
    10.        48.89       0.0522     0.011
    10.        55.03       0.0443     0.011
    10.        59.12       0.0444     0.011
    10.        63.18       0.0527     0.011
    10.        69.27       0.0692     0.011
    10.        75.36       0.0857     0.011
    10.        79.36       0.1183     0.011
    10.        87.53       0.1186     0.011
    10.        89.51       0.1431     0.011
    10.        95.66       0.1352     0.011
    10.        99.76       0.1272     0.011
    10.       105.9        0.1356     0.011
    10.       109.9        0.152      0.011
    10.       116.         0.1847     0.011
    10.       117.9        0.2254     0.011
    10.       123.9        0.2825     0.011
    10.       129.9        0.3396     0.011
    10.       133.9        0.3723     0.011
    10.       138.         0.3724     0.011
    10.       142.1        0.3726     0.011
    10.       146.2        0.3565     0.011
    10.       150.4        0.3241     0.011
    10.       154.6        0.2674     0.011
    10.       160.8        0.2107     0.011
    10.       165.         0.1621     0.011
    10.       169.2        0.1054     0.011
    11.        24.01       0.0643 0.3669E-02
    11.        30.04       0.1216 0.3669E-02
    11.        36.06       0.156  0.3669E-02
    11.        42.04       0.1329 0.3669E-02
    11.        48.03       0.0984 0.3669E-02
    11.        52.04       0.1213 0.3669E-02
    11.        60.03       0.1211 0.3669E-02
    11.        64.06       0.167  0.3669E-02
    11.        70.1        0.2473 0.3669E-02
    11.        74.12       0.3047 0.3669E-02
    11.        78.15       0.3505 0.3669E-02
    11.        84.17       0.4079 0.3669E-02
    11.        90.2        0.4537 0.3669E-02
    11.        96.21       0.4766 0.3669E-02
    11.       102.2        0.4765 0.3669E-02
    11.       106.2        0.4649 0.3669E-02
    11.       106.2        0.4075 0.3669E-02
    11.       112.2        0.3844 0.3669E-02
    11.       116.1        0.3269 0.3669E-02
    11.       120.1        0.2579 0.3669E-02
    11.       124.1        0.2464 0.3669E-02
    11.       130.1        0.2578 0.3669E-02
    11.       136.1        0.2921 0.3669E-02
    11.       140.1        0.315  0.3669E-02
    11.       144.1        0.3953 0.3669E-02
    11.       148.2        0.4297 0.3669E-02
    11.       154.2        0.4985 0.3669E-02
    11.       158.2        0.51   0.3669E-02
    11.       162.2        0.5099 0.3669E-02
    11.       166.2        0.4983 0.3669E-02
    11.       170.2        0.5442 0.3669E-02
    11.       174.2        0.4867 0.3669E-02
    12.        24.4        0.0309 0.5832E-02
    12.        32.4        0.0468 0.5832E-02
    12.        36.4        0.0627 0.5832E-02
    12.        40.39       0.0945 0.5832E-02
    12.        44.38       0.158  0.5832E-02
    12.        50.38       0.2215 0.5832E-02
    12.        54.37       0.2374 0.5832E-02
    12.        60.36       0.3009 0.5832E-02
    12.        68.35       0.412  0.5832E-02
    12.        72.34       0.4914 0.5832E-02
    12.        76.33       0.5073 0.5832E-02
    12.        82.32       0.6025 0.5832E-02
    12.        86.32       0.6184 0.5832E-02
    12.        90.31       0.666  0.5832E-02
    12.        94.31       0.666  0.5832E-02
    12.        98.31       0.6978 0.5832E-02
    12.       102.3        0.6978 0.5832E-02
    12.       104.3        0.6502 0.5832E-02
    12.       108.3        0.5709 0.5832E-02
    12.       112.3        0.5234 0.5832E-02
    12.       116.3        0.4441 0.5832E-02
    12.       120.3        0.3648 0.5832E-02
    12.       124.3        0.3172 0.5832E-02
    12.       132.3        0.3331 0.5832E-02
    12.       136.3        0.3331 0.5832E-02
    12.       140.3        0.3966 0.5832E-02
    12.       142.3        0.5077 0.5832E-02
    12.       146.3        0.6188 0.5832E-02
    12.       148.3        0.6981 0.5832E-02
    12.       154.3        0.8886 0.5832E-02
    12.       156.3        1.015  0.5832E-02
    12.4       14.63       0.1759 0.5797E-02
    12.4       20.63       0.2084 0.5797E-02
    12.4       26.63       0.2084 0.5797E-02
    12.4       34.63       0.1597 0.5797E-02
    12.4       42.63       0.1435 0.5797E-02
    12.4       48.62       0.1435 0.5797E-02
    12.4       54.62       0.2085 0.5797E-02
    12.4       60.62       0.2572 0.5797E-02
    12.4       68.61       0.3221 0.5797E-02
    12.4       76.61       0.4034 0.5797E-02
    12.4       84.6        0.4846 0.5797E-02
    12.4       86.6        0.5008 0.5797E-02
    12.4       94.6        0.4684 0.5797E-02
    12.4      100.6        0.4684 0.5797E-02
    12.4      106.6        0.3872 0.5797E-02
    12.4      112.6        0.3222 0.5797E-02
    12.4      122.6        0.2248 0.5797E-02
    12.4      128.6        0.2248 0.5797E-02
    12.4      136.6        0.2736 0.5797E-02
    12.4      138.6        0.371  0.5797E-02
    12.4      146.6        0.4685 0.5797E-02
    12.4      148.6        0.5821 0.5797E-02
    12.4      152.6        0.6471 0.5797E-02
    12.4      156.6        0.7121 0.5797E-02
    12.4      162.6        0.7121 0.5797E-02
    12.4      166.6        0.8582     0.0325
    12.4      172.6        0.8907     0.0162
    12.6       11.63       0.219  0.4894E-02
    12.6       21.73       0.4216 0.4894E-02
    12.6       25.71       0.3902 0.4894E-02
    12.6       29.76       0.4837 0.4894E-02
    12.6       35.7        0.3743 0.4894E-02
    12.6       41.64       0.3116 0.4894E-02
    12.6       41.67       0.2648 0.4894E-02
    12.6       47.64       0.2646 0.4894E-02
    12.6       51.62       0.2333 0.4894E-02
    12.6       57.63       0.2487 0.4894E-02
    12.6       63.63       0.2641 0.4894E-02
    12.6       67.64       0.2796 0.4894E-02
    12.6       71.7        0.3887 0.4894E-02
    12.6       77.7        0.3885 0.4894E-02
    12.6       79.72       0.4353 0.4894E-02
    12.6       83.73       0.4508     0.0156
    12.6       87.74       0.4818 0.4894E-02
    12.6       93.78       0.5597 0.4894E-02
    12.6       95.77       0.5284 0.4894E-02
    12.6      101.8        0.497      0.0156
    12.6      105.7        0.4188     0.0468
    12.6      111.7        0.3874 0.4894E-02
    12.6      113.7        0.3561 0.4894E-02
    12.6      117.6        0.2623 0.4894E-02
    12.6      123.6        0.2621 0.4894E-02
    12.6      129.6        0.2776 0.4894E-02
    12.6      137.7        0.3553 0.4894E-02
    12.6      141.7        0.4645 0.4894E-02
    12.6      145.8        0.5268 0.4894E-02
    12.6      149.8        0.6203 0.4894E-02
    12.6      157.9        0.7137 0.4894E-02
    12.6      163.9        0.7291 0.4894E-02
    12.6      171.9        0.7445 0.4894E-02
    13.5       20.5        0.2848 0.6050E-02
    13.5       26.48       0.4147 0.6050E-02
    13.5       32.47       0.4635 0.6050E-02
    13.5       36.47       0.4797 0.6050E-02
    13.5       40.48       0.3824 0.6050E-02
    13.5       44.49       0.3013 0.6050E-02
    13.5       50.5        0.204  0.6050E-02
    13.5       54.51       0.1229 0.6050E-02
    13.5       62.52       0.058  0.6050E-02
    13.5       68.51       0.0905 0.6050E-02
    13.5       70.51       0.0905 0.6050E-02
    13.5       76.5        0.1717 0.6050E-02
    13.5       80.49       0.2205 0.6050E-02
    13.5       84.48       0.3179 0.6050E-02
    13.5       88.46       0.3828 0.6050E-02
    13.5       92.46       0.3829 0.6050E-02
    13.5       96.46       0.4154 0.6050E-02
    13.5      100.5        0.4154 0.6050E-02
    13.5      104.5        0.3505 0.6050E-02
    13.5      106.5        0.2856 0.6050E-02
    13.5      112.5        0.2045 0.6050E-02
    13.5      114.5        0.1559 0.6050E-02
    13.5      120.5        0.0748 0.6050E-02
    13.5      126.5        0.0911 0.6050E-02
    13.5      130.5        0.1398 0.6050E-02
    13.5      134.5        0.221  0.6050E-02
    13.5      136.5        0.3184 0.6050E-02
    13.5      144.4        0.5132 0.6050E-02
    13.5      144.4        0.643  0.6050E-02
    13.5      148.4        0.7404 0.6050E-02
    13.5      156.3        1.097  0.6050E-02
    13.5      164.3        1.341  0.6050E-02
    15.        24.52       0.1245 0.2975E-02
    15.        28.49       0.1864     0.0155
    15.        34.47       0.2328 0.2975E-02
    15.        42.47       0.2251 0.2975E-02
    15.        48.49       0.171  0.2975E-02
    15.        56.5        0.1324 0.2975E-02
    15.        58.52       0.1015 0.2975E-02
    15.        64.52       0.0861 0.2975E-02
    15.        70.52       0.0784 0.2975E-02
    15.        72.52       0.0784 0.2975E-02
    15.        76.51       0.1016 0.2975E-02
    15.        82.5        0.1326 0.2975E-02
    15.        84.49       0.1481 0.2975E-02
    15.        90.48       0.1559 0.2975E-02
    15.        94.48       0.1636 0.2975E-02
    15.        98.47       0.1791 0.2975E-02
    15.       102.5        0.1637 0.2975E-02
    15.       104.5        0.1482 0.2975E-02
    15.       108.5        0.1173 0.2975E-02
    15.       114.5        0.0942 0.2975E-02
    15.       116.5        0.0632 0.2975E-02
    15.       120.5        0.0401 0.2975E-02
    15.       128.5        0.0324 0.2975E-02
    15.       132.5        0.0479 0.2975E-02
    15.       134.5        0.0788 0.2975E-02
    15.       138.5        0.1253 0.2975E-02
    15.       140.4        0.1794 0.2975E-02
    15.       144.4        0.2258 0.2975E-02
    15.       144.4        0.2877 0.2975E-02
    15.       148.4        0.3186 0.2975E-02
    15.       152.3        0.4192 0.2975E-02
    15.       156.3        0.4579 0.2975E-02
    15.       160.3        0.543  0.2975E-02
    15.       168.2        0.6822 0.2975E-02
    17.        20.66       0.0428 0.3268E-02
    17.        24.62       0.1085 0.3268E-02
    17.        30.58       0.1742 0.3268E-02
    17.        32.56       0.2071 0.3268E-02
    17.        36.55       0.2153 0.3268E-02
    17.        42.55       0.2154 0.3268E-02
    17.        46.57       0.1744 0.3268E-02
    17.        50.6        0.1334 0.3268E-02
    17.        54.62       0.0924 0.3268E-02
    17.        58.63       0.0678 0.3268E-02
    17.        64.64       0.0515 0.3268E-02
    17.        70.64       0.0515 0.3268E-02
    17.        74.62       0.0762 0.3268E-02
    17.        78.62       0.0762 0.3268E-02
    17.        82.61       0.0927 0.3268E-02
    17.        88.6        0.101  0.3268E-02
    17.        90.59       0.1174 0.3268E-02
    17.        94.59       0.1256 0.3268E-02
    17.        98.6        0.1093 0.3268E-02
    17.       102.6        0.1011 0.3268E-02
    17.       108.6        0.093  0.3268E-02
    17.       110.6        0.0766 0.3268E-02
    17.       114.6        0.0602 0.3268E-02
    17.       118.6        0.0602 0.3268E-02
    17.       120.6        0.052  0.3268E-02
    17.       124.6        0.0193 0.3268E-02
    17.       128.6        0.0275 0.3268E-02
    17.       132.6        0.0686 0.3268E-02
    17.       136.6        0.1015 0.3268E-02
    17.       138.6        0.1343 0.3268E-02
    17.       142.5        0.2082 0.3268E-02
    17.       144.5        0.2657 0.3268E-02
    17.       150.4        0.3478 0.3268E-02
    17.       152.4        0.3806 0.3268E-02
    17.       156.4        0.4463 0.3268E-02
    17.       160.3        0.5284 0.3268E-02
    17.       168.3        0.5696 0.3268E-02
    17.       176.2        0.7256 0.3268E-02
ENDDATA            452
ENDSUBENT          467
SUBENT        F0293003   19991202   20001115
BIB                  3          5
REACTION   (5-B-11(P,A)4-BE-8,PAR,DA,,,EXP)
ERR-ANALYS (ANG-ERR) Digitizing error
           (DATA-ERR) Error from graphic bars (statistical error)
           and digitizing error
STATUS     (CURVE) Fig.3
ENDBIB               5
COMMON               2          3
E-LVL      ANG-ERR
MEV        ADEG
  3.040     2.0
ENDCOMMON            3
DATA                 4        440
EN         ANG-CM     DATA-CM    DATA-ERR
MEV        ADEG       MB/SR      MB/SR
     7.        25.31       1.9        0.0248
     7.        33.02       2.1        0.0248
     7.        36.88       2.4        0.0248
     7.        42.66       2.55       0.0248
     7.        48.43       2.4        0.0248
     7.        54.21       2.35       0.0248
     7.        58.06       2.45       0.0248
     7.        63.83       2.399      0.0248
     7.        67.68       2.099      0.0248
     7.        73.46       1.999      0.0248
     7.        79.23       2.049      0.0248
     7.        85.01       1.999      0.0248
     7.        88.86       1.799      0.0248
     7.        94.63       1.849      0.0248
     7.       100.4        2.149      0.0248
     7.       104.3        1.999      0.0248
     7.       108.1        1.999      0.0248
     7.       113.9        2.249      0.0248
     7.       117.7        2.049      0.0248
     7.       123.5        1.849      0.0248
     7.       125.4        1.699      0.0248
     7.       129.3        1.549      0.0248
     7.       135.1        1.499      0.0248
     7.       138.9        1.199      0.0248
     7.       142.8        0.9485     0.0248
     7.       148.5        0.8484     0.0248
     7.       152.4        0.6983     0.0248
     7.       156.2        0.6983     0.0248
     7.       165.9        0.6982     0.0248
     7.       171.6        0.7481     0.0248
     8.        26.2        0.8492     0.1499
     8.        31.96       0.6488     0.15
     8.        37.73       0.5983     0.1
     8.        41.58       0.598      0.15
     8.        49.29       0.6975     0.1002
     8.        55.07       0.7471     0.1002
     8.        58.92       0.7468     0.1499
     8.        64.71       0.8464     0.1
     8.        70.49       0.896      0.2
     8.        76.25       0.7455     0.1999
     8.        82.02       0.6951     0.1502
     8.        85.86       0.5948     0.1
     8.        91.64       0.5444     0.1
     8.        95.47       0.4441     0.2
     8.        99.33       0.4438     0.15
     8.       105.1        0.4933     0.1
     8.       110.9        0.4929     0.15
     8.       112.8        0.5428     0.1
     8.       118.6        0.6424     0.15
     8.       124.4        0.792      0.15
     8.       128.3        0.8417     0.1499
     8.       132.1        0.9414     0.15
     8.       136.         0.9912     0.15
     8.       143.7        1.091      0.2
     8.       145.6        1.24       0.2
     8.       149.5        1.19       0.2
     8.       153.3        1.14       0.2
     8.       159.1        1.39       0.1
     8.       163.         1.339      0.15
     8.       166.8        1.589      0.15
     8.       170.7        1.389      0.2
     9.14      28.47       0.9986     0.0175
     9.14      36.18       1.048      0.0175
     9.14      40.04       1.147      0.0175
     9.14      45.81       1.097      0.0175
     9.14      51.63       1.346      0.0175
     9.14      57.4        1.295      0.0175
     9.14      61.27       1.395      0.0175
     9.14      67.01       1.194      0.0175
     9.14      72.79       1.193      0.0175
     9.14      76.65       1.243      0.0175
     9.14      80.46       1.043      0.0175
     9.14      86.27       1.242      0.0175
     9.14      92.02       1.091      0.0175
     9.14      97.82       1.191      0.0175
     9.14     101.7        1.29       0.0175
     9.14     103.6        1.24       0.0175
     9.14     115.2        1.488      0.0175
     9.14     123.         1.938      0.0175
     9.14     128.8        2.037      0.0175
     9.14     134.6        2.386      0.0175
     9.14     138.4        2.236      0.0175
     9.14     142.3        2.486      0.0175
     9.14     148.1        2.735      0.0175
     9.14     152.         2.534      0.0175
     9.14     155.7        2.084      0.0175
     9.14     159.5        1.783      0.0175
     9.14     165.3        1.683      0.0175
     9.14     173.         1.482      0.0175
    10.        33.38       1.067      0.0199
    10.        39.16       1.115      0.0199
    10.        43.04       1.451      0.0199
    10.        48.84       1.691      0.0199
    10.        54.63       1.787      0.0199
    10.        58.48       1.786      0.0199
    10.        66.18       1.738      0.0199
    10.        70.01       1.594      0.0199
    10.        75.78       1.449      0.0199
    10.        79.62       1.353      0.0199
    10.        89.23       1.16       0.0199
    10.        96.91       1.015      0.0199
    10.       100.8        0.967      0.0199
    10.       106.6        1.111      0.0199
    10.       110.4        1.207      0.0199
    10.       114.3        1.303      0.0199
    10.       120.1        1.543      0.0199
    10.       122.         1.783      0.0199
    10.       127.8        2.119      0.0199
    10.       131.7        2.503      0.0199
    10.       137.5        2.743      0.0199
    10.       143.4        3.367      0.0199
    10.       147.2        3.655      0.0199
    10.       151.1        4.088      0.0199
    10.       158.9        4.28       0.0199
    10.       164.6        4.231      0.0199
    10.       168.5        4.135      0.0199
    10.       172.3        4.183      0.0199
    10.8       25.69       1.239      0.0137
    10.8       39.26       1.742      0.0137
    10.8       45.09       2.03       0.0137
    10.8       48.9        1.813      0.0137
    10.8       54.72       2.065      0.0137
    10.8       60.48       1.957      0.0137
    10.8       66.27       2.064      0.0137
    10.8       70.08       1.848      0.0137
    10.8       75.85       1.776      0.0137
    10.8       81.57       1.487      0.0137
    10.8       85.38       1.235      0.0137
    10.8       89.23       1.235      0.0137
    10.8       94.98       1.127      0.0137
    10.8      100.7        0.9463     0.0137
    10.8      104.6        0.8381     0.0137
    10.8      110.4        1.09       0.0137
    10.8      116.2        1.341      0.0137
    10.8      120.         1.269      0.0137
    10.8      123.9        1.377      0.0137
    10.8      127.8        1.664      0.0137
    10.8      133.6        1.628      0.072
    10.8      137.5        1.736      0.072
    10.8      143.3        2.095      0.0137
    10.8      147.1        2.095      0.072
    10.8      151.         2.167      0.072
    10.8      154.8        1.879      0.072
    10.8      160.6        1.842      0.0719
    10.8      164.4        1.662      0.108
    10.8      168.2        1.338      0.108
    10.8      170.1        1.194      0.0137
    11.2       38.9        2.305      0.0155
    11.2       44.69       2.449      0.0155
    11.2       50.47       2.448      0.108
    11.2       56.24       2.412      0.0155
    11.2       62.02       2.448      0.036
    11.2       65.84       2.16       0.072
    11.2       71.58       1.763      0.0155
    11.2       77.33       1.511      0.0155
    11.2       81.14       1.151      0.0155
    11.2       86.9        1.007      0.0155
    11.2       90.76       1.079      0.0155
    11.2       96.53       1.007      0.0155
    11.2      102.3        0.9342     0.0155
    11.2      104.2        0.8622     0.0155
    11.2      106.2        1.006      0.0155
    11.2      111.9        0.9339     0.0155
    11.2      115.8        1.042      0.0155
    11.2      119.6        1.042      0.0155
    11.2      127.4        1.365      0.072
    11.2      131.2        1.365      0.0155
    11.2      133.2        1.509      0.0155
    11.2      138.9        1.437      0.0155
    11.2      142.8        1.473      0.0155
    11.2      146.6        1.581      0.0155
    11.2      152.4        1.544      0.0155
    11.2      156.3        1.616      0.0155
    11.2      158.2        1.688      0.0155
    11.2      164.         1.472      0.108
    11.2      167.9        1.832      0.0155
    11.2      173.6        1.976      0.0155
    11.8       25.53       1.649      0.0125
    11.8       37.06       1.574      0.0125
    11.8       42.79       1.391      0.0125
    11.8       48.53       1.244      0.0125
    11.8       54.32       1.316      0.0125
    11.8       62.         1.242      0.0125
    11.8       67.79       1.278      0.0125
    11.8       75.48       1.241      0.0125
    11.8       77.33       0.948      0.0125
    11.8       83.11       0.9841     0.0125
    11.8       90.75       0.727      0.0125
    11.8       94.59       0.69       0.0125
    11.8       98.38       0.4699     0.1099
    11.8      106.1        0.4326     0.0734
    11.8      108.         0.3225     0.0125
    11.8      113.8        0.5051     0.0125
    11.8      119.6        0.7609     0.0125
    11.8      123.5        0.907      0.0125
    11.8      129.4        1.163      0.0125
    11.8      133.3        1.272      0.0125
    11.8      137.1        1.309      0.0125
    11.8      142.9        1.381      0.0734
    11.8      146.8        1.381      0.0366
    11.8      150.6        1.234      0.1097
    11.8      156.4        1.27       0.0734
    11.8      160.2        1.123      0.0125
    11.8      163.9        0.8299     0.0125
    11.8      167.8        1.013      0.0125
    11.8      173.6        0.829      0.0125
    12.6       26.81       1.054      0.025
    12.6       28.74       1.004      0.05
    12.6       34.59       1.154      0.05
    12.6       40.41       1.154      0.05
    12.6       44.3        1.204      0.05
    12.6       46.23       1.154      0.05
    12.6       54.02       1.329      0.05
    12.6       57.87       1.128      0.075
    12.6       59.85       1.378      0.0113
    12.6       67.57       1.128      0.075
    12.6       71.45       1.153      0.0501
    12.6       73.36       0.978      0.075
    12.6       79.18       1.003      0.075
    12.6       81.09       0.8028     0.0499
    12.6       86.94       0.9776     0.05
    12.6       90.81       0.9275     0.05
    12.6       94.67       0.8274     0.025
    12.6       98.52       0.7523     0.05
    12.6       98.54       0.6023     0.075
    12.6      102.4        0.6022     0.05
    12.6      108.2        0.752      0.0113
    12.6      116.         0.9268     0.025
    12.6      123.8        1.027      0.0501
    12.6      127.7        1.077      0.05
    12.6      133.5        1.201      0.05
    12.6      137.4        1.176      0.075
    12.6      145.2        1.351      0.05
    12.6      149.1        1.376      0.05
    12.6      158.8        1.326      0.075
    12.6      164.6        1.276      0.05
    12.6      168.5        1.225      0.075
    12.6      174.3        1.175      0.075
    13.2       33.32       0.7032     0.0718
    13.2       37.2        0.823      0.0718
    13.2       46.9        0.7991     0.0479
    13.2       66.31       0.5358     0.0718
    13.2       72.12       0.8232     0.0479
    13.2       79.88       0.8711     0.0479
    13.2       83.76       0.8951     0.0479
    13.2       91.52       0.7754     0.0479
    13.2       97.35       0.6318     0.0718
    13.2      103.2        0.7037     0.0239
    13.2      103.2        0.4882     0.0479
    13.2      109.         0.4883     0.0958
    13.2      114.8        0.6798     0.0718
    13.2      118.7        0.6799     0.0718
    13.2      126.4        0.6799     0.0718
    13.2      130.3        0.9194     0.0958
    13.2      136.1        1.111      0.0718
    13.2      141.9        1.279      0.0718
    13.2      147.8        1.566      0.0239
    13.2      153.6        1.59       0.0718
    13.2      159.4        1.614      0.0718
    13.2      167.1        1.494      0.0718
    13.2      171.         1.542      0.0718
    14.        23.74       0.7182     0.0141
    14.        25.69       0.486      0.0141
    14.        31.51       0.4345     0.0141
    14.        37.33       0.2797     0.0141
    14.        39.27       0.3829     0.0141
    14.        45.09       0.3829     0.0141
    14.        48.97       0.3056     0.0141
    14.        54.79       0.4861     0.0141
    14.        58.67       0.4088     0.0141
    14.        64.49       0.5636     0.0141
    14.        68.36       0.6668     0.0141
    14.        72.25       0.512      0.0141
    14.        81.95       0.5895     0.0141
    14.        83.89       0.4863     0.0141
    14.        87.77       0.4089     0.0141
    14.        91.65       0.4863     0.0141
    14.        95.53       0.3831     0.0141
    14.        97.47       0.4089     0.0141
    14.       105.2        0.3832     0.0141
    14.       109.1        0.3574     0.0141
    14.       111.1        0.3058     0.0141
    14.       118.8        0.5122     0.0141
    14.       124.6        0.409      0.0141
    14.       130.4        0.4864     0.0141
    14.       130.4        0.5896     0.0141
    14.       136.3        0.6155     0.0141
    14.       140.1        0.6413     0.0141
    14.       144.         0.6671     0.0141
    14.       146.         0.7187     0.0141
    14.       151.8        0.9767     0.0141
    14.       155.7        1.106      0.0141
    14.       159.5        1.157      0.0141
    14.       163.4        1.08       0.0141
    14.       169.2        1.39       0.0141
    14.       171.2        1.235      0.0141
    15.        25.29       0.7748     0.0148
    15.        31.14       0.5847     0.0148
    15.        35.01       0.6323     0.0148
    15.        40.84       0.5849     0.0148
    15.        46.67       0.5375     0.0148
    15.        52.5        0.4663     0.0148
    15.        56.38       0.4664     0.0148
    15.        58.31       0.5378     0.0148
    15.        62.19       0.5378     0.0148
    15.        67.99       0.6331     0.0148
    15.        71.89       0.5143     0.0148
    15.        73.82       0.6094     0.0148
    15.        75.74       0.7046     0.0148
    15.        79.64       0.6096     0.0148
    15.        83.52       0.6097     0.0148
    15.        87.4        0.586      0.0148
    15.        91.29       0.5147     0.0148
    15.        99.08       0.3722     0.0148
    15.       101.         0.3247     0.0148
    15.       104.9        0.3961     0.0148
    15.       106.8        0.3011     0.0148
    15.       114.6        0.2775     0.0148
    15.       118.5        0.3251     0.0148
    15.       124.3        0.4204     0.0148
    15.       126.2        0.4204     0.0148
    15.       126.2        0.468      0.0148
    15.       130.1        0.5394     0.0148
    15.       132.         0.6108     0.0148
    15.       135.9        0.5871     0.0148
    15.       137.8        0.7536     0.0148
    15.       139.8        0.7061     0.0148
    15.       145.6        0.8013     0.0148
    15.       147.5        0.8014     0.0148
    15.       149.4        0.8014     0.0148
    15.       151.4        0.8966     0.0148
    15.       157.2        1.039      0.0148
    15.       159.1        1.135      0.0148
    15.       163.         1.206      0.0148
    15.       168.8        1.23       0.0148
    16.        27.98       0.6277     0.0119
    16.        33.81       0.7026     0.0119
    16.        35.73       0.5526     0.0119
    16.        41.53       0.3525     0.0119
    16.        47.35       0.3524     0.0119
    16.        51.21       0.1773     0.0119
    16.        55.09       0.2273     0.0119
    16.        58.96       0.1272     0.0119
    16.        68.66       0.127      0.0119
    16.        72.56       0.227      0.0119
    16.        76.44       0.2769     0.0119
    16.        82.27       0.4018     0.0119
    16.        86.15       0.4017     0.0119
    16.        88.1        0.4517     0.0119
    16.        91.96       0.2766     0.0119
    16.        97.79       0.3265     0.0119
    16.       101.7        0.1514     0.0119
    16.       105.5        0.1764     0.0119
    16.       111.3        0.2013     0.0119
    16.       111.3        0.1763     0.0119
    16.       115.2        0.1512     0.0119
    16.       123.         0.1511     0.0119
    16.       130.8        0.2509     0.0119
    16.       136.6        0.4758     0.0119
    16.       144.4        0.5507     0.0119
    16.       146.3        0.6256     0.0119
    16.       148.3        0.6006     0.0119
    16.       152.1        0.6505     0.0119
    16.       156.         0.6004     0.0119
    16.       161.8        0.6253     0.0119
    16.       161.8        0.5753     0.0119
    16.       163.8        0.5253     0.0119
    16.       169.6        0.5752     0.0119
    16.       173.5        0.5251     0.0119
    17.        24.43       0.3474 0.9060E-02
    17.        28.45       0.638  0.9060E-02
    17.        32.23       0.4195 0.9060E-02
    17.        36.2        0.6132 0.9060E-02
    17.        43.88       0.4429 0.9060E-02
    17.        45.77       0.3458 0.9060E-02
    17.        49.6        0.2485 0.9060E-02
    17.        53.46       0.1997 0.9060E-02
    17.        59.26       0.175  0.9060E-02
    17.        63.16       0.199  0.9060E-02
    17.        68.95       0.15   0.9060E-02
    17.        72.89       0.2709 0.9060E-02
    17.        76.75       0.2222 0.9060E-02
    17.        82.6        0.2944 0.9060E-02
    17.        86.48       0.2941 0.9060E-02
    17.        88.39       0.2213 0.9060E-02
    17.        94.23       0.2693 0.9060E-02
    17.        98.07       0.1963 0.9060E-02
    17.       100.         0.1719 0.9060E-02
    17.       103.9        0.1231 0.9060E-02
    17.       107.8        0.1713 0.9060E-02
    17.       117.5        0.2432 0.9060E-02
    17.       121.4        0.2672 0.9060E-02
    17.       125.3        0.3154 0.9060E-02
    17.       127.2        0.2425 0.9060E-02
    17.       133.1        0.4117 0.9060E-02
    17.       135.1        0.4601 0.9060E-02
    17.       139.         0.484  0.9060E-02
    17.       142.9        0.5079 0.9060E-02
    17.       146.8        0.5561 0.9060E-02
    17.       154.5        0.5798 0.9060E-02
    17.       158.4        0.6279 0.9060E-02
    17.       164.3        0.6275 0.9060E-02
    17.       166.2        0.6031 0.9060E-02
    17.       170.         0.5301 0.9060E-02
    17.       173.9        0.4813 0.9060E-02
    18.        23.78       0.3337     0.0159
    18.        31.52       0.4588     0.0159
    18.        35.41       0.359      0.0159
    18.        43.17       0.3842     0.0159
    18.        45.15       0.1595     0.0159
    18.        49.03       0.1596     0.0159
    18.        56.79       0.1599     0.0159
    18.        60.67       0.16       0.0159
    18.        64.55       0.1351     0.0159
    18.        66.5        0.0852     0.0159
    18.        74.25       0.1604     0.0159
    18.        78.13       0.1854     0.0159
    18.        82.         0.2355     0.0159
    18.        87.81       0.2606     0.0159
    18.        87.82       0.2107     0.0159
    18.        93.63       0.2608     0.0159
    18.        99.46       0.236      0.0159
    18.       101.4        0.236      0.0159
    18.       105.3        0.1862     0.0159
    18.       109.2        0.2362     0.0159
    18.       113.         0.3362     0.0159
    18.       118.8        0.3863     0.0159
    18.       124.7        0.3615     0.0159
    18.       126.6        0.4115     0.0159
    18.       132.4        0.4616     0.0159
    18.       136.3        0.5366     0.0159
    18.       140.1        0.5866     0.0159
    18.       144.         0.5618     0.0159
    18.       149.8        0.6119     0.0159
    18.       155.7        0.637      0.0159
    18.       159.5        0.6371     0.0159
    18.       163.4        0.5623     0.0159
    18.       167.3        0.6123     0.0159
    18.       173.1        0.5875     0.0159
    18.       178.9        0.6376     0.0159
ENDDATA            442
ENDSUBENT          456
SUBENT        F0293004   19991202   20001115
BIB                  4          5
REACTION   (5-B-11(P,A)4-BE-8,PAR,SIG,,,EXP)
ERR-ANALYS (EN-ERR) Digitizing error
           (DATA-ERR) Digitizing error
STATUS     (CURVE) Fig.4
EN-SEC     (E-LVL,4-BE-8)
ENDBIB               5
NOCOMMON             0          0
DATA                 5         65
E-LVL      EN         EN-ERR     DATA       DATA-ERR
MEV        MEV        MEV        MB         MB
     0.         5.086      0.0765     6.254      0.2934
     0.         5.452      0.082      4.925      0.2311
     0.         5.705      0.0858     2.651      0.1244
     0.         5.837      0.0878     2.089      0.098
     0.         6.266      0.0942     3.525      0.1654
     0.         6.27       0.0943     4.691      0.2201
     0.         6.567      0.0988     4.065      0.1907
     0.         6.882      0.1035     4.469      0.2097
     0.         7.381      0.111      4.684      0.2198
     0.         7.553      0.1136     4.06       0.1905
     0.         7.917      0.1191     4.91       0.2304
     0.         8.1        0.1218     4.057      0.1904
     0.         8.29       0.1247     3.688      0.1731
     0.         8.687      0.1306     4.055      0.1903
     0.         8.886      0.1336     2.905      0.1363
     0.         9.089      0.1367     1.984      0.0931
     0.         9.519      0.1432     1.719      0.0807
     0.         9.526      0.1433     2.399      0.1126
     0.         9.983      0.1501     2.638      0.1238
     0.        10.22       0.1536     2.398      0.1125
     0.        10.7        0.1609     2.179      0.1023
     0.        10.96       0.1648     2.636      0.1237
     0.        11.49       0.1728     4.045      0.1898
     0.        11.5        0.1729     5.383      0.2526
     0.        12.05       0.1811     4.892      0.2296
     0.        12.33       0.1855     5.918      0.2777
     0.        12.93       0.1944     6.506      0.3053
     0.        13.22       0.1989     5.639      0.2646
     0.        13.23       0.1988     4.04       0.1896
     0.        13.85       0.2083     4.236      0.1988
     0.        14.51       0.2182     4.234      0.1987
     0.        15.9        0.2391     1.883      0.0883
     0.        17.05       0.2564     1.794      0.0842
     0.        17.86       0.2686     1.71       0.0802
     0.        19.15       0.288      1.412      0.0663
     0.        21.01       0.316      1.112      0.0522
     0.        24.71       0.3717     0.7235     0.034
     0.        26.47       0.3981     0.3893     0.0183
     0.        31.15       0.4684     0.2921     0.0137
     0.        38.38       0.5772     0.1899 0.8912E-02
     0.        45.13       0.6787     0.1071 0.5025E-02
     3.04       6.446      0.0969    38.13       1.789
     3.04       7.406      0.1114    23.66       1.11
     3.04       7.943      0.1194    23.64       1.109
     3.04       8.307      0.125     13.99       0.6567
     3.04       8.313      0.1249    10.03       0.4705
     3.04       8.909      0.134     10.02       0.4702
     3.04       9.566      0.1439    18.6        0.8728
     3.04      10.03       0.1508    21.45       1.007
     3.04      10.51       0.158     24.73       1.161
     3.04      11.01       0.1655    21.43       1.006
     3.04      11.53       0.1734    22.47       1.054
     3.04      11.79       0.1773    13.95       0.6547
     3.04      12.36       0.1858    16.09       0.755
     3.04      12.94       0.1947    13.94       0.6542
     3.04      13.56       0.2039    11.52       0.5405
     3.04      13.88       0.2087    10.98       0.5153
     3.04      14.19       0.2134     6.818      0.32
     3.04      14.86       0.2235     6.499      0.3049
     3.04      15.93       0.2397     6.495      0.3048
     3.04      15.94       0.2395     4.437      0.2082
     3.04      16.69       0.251      4.435      0.2081
     3.04      17.9        0.2691     4.226      0.1983
     3.04      18.75       0.2819     4.028      0.189
     3.04      45.25       0.6804     0.3695     0.0173
ENDDATA             67
ENDSUBENT           77
SUBENT        F0293005   19991202   20001115
BIB                  3          5
REACTION   (11-NA-23(P,A)10-NE-20,PAR,DA,,,EXP)
ERR-ANALYS (ANG-ERR) Digitizing error
           (DATA-ERR) Error from graphic bars (statistical error)
           (DATA-ERR1) Digitizing error
STATUS     (CURVE) Fig.6
ENDBIB               5
COMMON               3          3
E-LVL      ANG-ERR    DATA-ERR1
MEV        ADEG       PER-CENT
 0.0        1.0         0.3
ENDCOMMON            3
DATA                 4        201
EN         ANG-CM     DATA-CM    DATA-ERR
MEV        ADEG       MU-B/SR    MU-B/SR
    10.        32.2065  1563.1959    94.1438
    10.        42.8912  1587.8998    74.0268
    10.        53.2728  1066.3505    80.5112
    10.        62.9768   584.5713    50.7741
    10.        72.8225   429.9081    35.7552
    10.        83.6872   419.025     36.1731
    10.        94.3064   756.508     68.7813
    10.       104.7613  1241.7552    89.3654
    10.       114.5442  1583.2769    80.5925
    10.       124.3832  1233.8177    90.0488
    10.       133.88     896.0907    84.6182
    10.       143.3493   827.3151    71.5158
    10.       154.309   1629.3906   148.1433
    10.       163.0304  2274.7695   136.8839
    10.       172.6631  2329.1704   121.8503
    10.       181.9734  1868.1152    97.8251
    15.        23.8409   337.0564    34.2705
    15.        28.4907   391.5565    23.3248
    15.        32.8276   424.0151    19.7095
    15.        37.2172   415.8755    23.322
    15.        41.0315   322.3459    30.6461
    15.        45.4211   316.158     22.6293
    15.        49.5505   261.804     18.7268
    15.        53.5634   269.7848    13.0321
    15.        57.5368   299.4416    21.4328
    15.        61.9286   292.4842    15.2609
    15.        66.3138   289.2465    16.2344
    15.        70.0929   239.4952    15.2904
    15.        74.152    226.3126    17.0324
    15.        78.4588   186.6426    14.064
    15.        82.5354   170.6427    12.8584
    15.        86.3431   133.9128    12.6189
    15.        90.858    103.8168    12.2224
    15.        94.1945   102.2143    11.1428
    15.        98.8164    90.0589    11.4678
    15.       102.2958    67.8109    20.8668
    15.       106.5557    84.8402    10.3946
    15.       110.3173    72.6048    10.7914
    15.       114.2687    83.9805     9.9105
    15.       118.791    123.9364    12.1466
    15.       122.3444   112.8286    11.2377
    15.       126.2899    94.981     13.1101
    15.       130.3901   115.4448     9.9367
    15.       134.3855   122.9562    10.6692
    15.       138.4527   158.9886    17.3531
    15.       142.078    175.7218    19.8318
    15.       145.8498   204.9279    20.0843
    15.       149.8012   237.0362    18.8073
    15.       153.6127   256.6472    20.3397
    15.       157.2446   280.1692    21.1115
    15.       161.078    291.0876    23.7531
    15.       165.1261   280.7986    15.7866
    15.       168.6641   263.1226    19.827
    15.       172.1846   254.8333    19.2376
    15.       175.9066   234.8949    24.7624
    17.        44.2294    71.4528     5.4003
    17.        48.4222    73.325      6.9226
    17.        52.7951    52.9546     7.2401
    17.        56.6437    38.5556     5.0925
    17.        60.3134    37.0287     2.0791
    17.        64.1619    27.0719     3.9364
    17.        68.5301    26.6573     3.8962
    17.        73.0632    50.0267     5.8367
    17.        77.4302    53.2858     5.428
    17.        81.9739    49.7269     5.6198
    17.        85.2946    46.3912     5.2374
    17.        89.8409    36.5433     4.8213
    17.        93.3399    26.9364     3.7236
    17.        96.8372    22.1996     2.0126
    17.       101.2099    16.1654     2.9647
    17.       105.4018    17.7233     3.3101
    17.       113.6058    29.4086     4.3028
    17.       117.6204    38.0386     5.1254
    17.       121.9881    38.7156     4.6566
    17.       125.6559    41.918      2.3571
    17.       129.6809    27.298      4.1624
    17.       133.002     24.843      4.2188
    17.       136.848     21.5174     3.145
    17.       139.8292    10.4027     2.9299
    17.       144.1894    17.316      1.3073
    17.       148.7249    27.7722     3.9307
    17.       152.9101    46.9975     7.1644
    17.       156.575     61.797      9.9224
    17.       160.4129    91.2323    10.3212
    17.       164.7774   114.1761    12.4365
    17.       168.9657   157.7864    12.5141
    17.       172.811    143.6151    10.4488
    17.       176.1306   143.7359     9.7484
    17.       179.8021   122.448     11.1009
    18.        30.157      6.4727     0.7314
    18.        34.6758     6.782      0.6153
    18.        38.3563     6.6224     0.7723
    18.        43.2575     6.4954     0.7669
    18.        46.998      5.626      0.6764
    18.        51.1562     4.2521     0.6214
    18.        55.1189     3.3492     0.4263
    18.        59.708      3.0491     0.4541
    18.        63.2718     2.6519     0.4226
    18.        67.6324     2.6881     0.4378
    18.        71.5589     3.2276     0.4578
    18.        75.8317     2.7502     0.618
    18.        79.6476     2.905      0.3974
    18.        84.3472     3.0064     0.4896
    18.        88.3771     2.9359     0.4783
    18.        92.4948     3.4107     0.4837
    18.        96.5897     4.1467     0.5436
    18.       100.6237     4.0161     0.4831
    18.       108.7651     4.613      0.8748
    18.       112.7441     7.069      0.7465
    18.       116.9094     7.4676     0.8438
    18.       120.8793     8.2211     0.7459
    18.       125.0735     8.1963     0.7436
    18.       128.6331     7.1876     0.7323
    18.       132.3902     6.0231     0.7396
    18.       136.168      4.8429     0.6398
    18.       139.9715     5.2439     0.7061
    18.       144.0147     7.0694     0.7206
    18.       148.1323     8.2128     0.8683
    18.       151.6929    10.1919     1.0634
    18.       155.4385    12.3898     1.2163
    18.       159.1551    15.959      1.5084
    18.       162.9627    17.1382     1.0967
    18.       166.9719    17.4426     1.1174
    18.       170.6731    16.3424     1.2343
    18.       174.2121    14.9358     1.1274
    20.        33.8575   132.0692    10.8728
    20.        37.5932   190.6399     8.0957
    20.        42.3565   183.1057     7.7757
    20.        45.7517   168.6417     8.2098
    20.        50.0377   122.5623     6.8088
    20.        61.4228    63.9806     4.684
    20.        69.2896   156.8106     8.7114
    20.        77.5682   119.4274     7.6935
    20.        84.7472    77.6345     7.0892
    20.        92.4001    43.273      5.0776
    20.        96.5242    19.9836     2.7779
    20.       104.094     45.8207     5.0387
    20.       111.4034    60.6669     5.9934
    20.       118.803    111.1129     8.019
    20.       125.9336    61.668      6.4794
    20.       133.1978    44.8537     5.3256
    20.       140.1299    25.6281     4.1054
    22.5        5.0098    29.2097     1.7696
    22.5        9.0001    30.745      1.7061
    22.5       12.5393    29.4039     1.4298
    22.5       17.4638    28.7253     1.2215
    22.5       21.2461    25.1762     1.8444
    22.5       25.113     24.7921     1.4848
    22.5       29.3141    24.9297     1.6062
    22.5       31.407     31.6222     3.4647
    22.5       33.2106    29.6035     3.1054
    22.5       37.4538    28.2011     1.4827
    22.5       41.8333    28.2416     1.815
    22.5       45.4502    24.444      1.7591
    22.5       50.1958    19.1539     2.363
    22.5       53.5594    14.6321     2.0144
    22.5       58.1691    13.6536     1.0002
    22.5       61.2058    15.8751     1.6262
    22.5       68.7876    18.7177     1.3724
    22.5       76.655     23.9861     1.2274
    22.5       84.5279    19.451      1.3277
    22.5       89.0235    13.3964     1.5214
    22.5       92.2572     9.6544     1.1024
    22.5       96.3414     9.0073     1.6752
    22.5      103.8515     9.2962     1.2253
    22.5      109.0782    12.1023     1.5086
    22.5      113.2988    11.8695     1.1721
    22.5      118.5533     7.5869     0.9026
    22.5      126.0796     7.6692     0.9109
    22.5      133.0536     5.1132     0.9258
    22.5      140.1782     6.9148     1.4937
    22.5      146.5142     8.3556     1.5973
    22.5      153.6194    11.5852     0.9701
    22.5      160.695     13.3207     1.0113
    24.         9.7293     8.911
    24.        13.6527    10.2825
    24.        18.1722    10.8225
    24.        21.9045    10.1293
    24.        25.3881    10.4381
    24.        29.8567     9.3312
    24.        34.8733    10.1994
    24.        37.7609    11.523
    24.        42.0191    10.7861
    24.        47.0614     9.0565
    24.        50.4208     6.9327
    24.        61.5826     5.9518
    24.        69.0853     6.2421
    24.        76.655      5.9957
    24.        84.7219     5.9807
    24.        92.378      2.5715     0.2721
    24.        96.1391     1.8411     0.2115
    24.       103.8299     1.5083     0.1735
    24.       111.3869     1.4733     0.1297
    24.       118.0703     2.2707     0.1822
    24.       125.5826     2.3517     0.1735
    24.       132.6968     1.2997     0.1617
    24.       139.97       1.4636     0.1549
    24.       147.2909     2.4532     0.2065
    24.       154.1464     3.797      0.3917
    24.       161.0882     4.1694
    24.       168.1639     3.8402
ENDDATA            203
ENDSUBENT          217
SUBENT        F0293006   19991202   20001115
BIB                  3          5
REACTION   (11-NA-23(P,A)10-NE-20,PAR,DA,,,EXP)
ERR-ANALYS (ANG-ERR) Digitizing error
           (DATA-ERR) Error from graphic bars (statistical error)
           (DATA-ERR1) Digitizing error
STATUS     (CURVE) Fig.6
ENDBIB               5
COMMON               3          3
E-LVL      ANG-ERR    DATA-ERR1
MEV        ADEG       PER-CENT
  1.63      1.0         0.3
ENDCOMMON            3
DATA                 4        112
EN         ANG-CM     DATA-CM    DATA-ERR
MEV        ADEG       MU-B/SR    MU-B/SR
    10.        26.0281  1355.0706    56.93
    10.        36.4141  1308.0427    49.396
    10.        47.4079  1513.469     61.0633
    10.        58.447   1606.1715    67.4794
    10.        68.8698  1445.6659    60.6046
    10.        78.9606  1253.8137    47.2724
    10.        89.5483  1152.015     43.4691
    10.        99.8652  1268.5618    56.2877
    10.       109.8479  1351.5791    68.3818
    10.       119.529   1309.9003    49.4661
    10.       128.9781  1412.837     59.3569
    10.       138.7809  1517.6927    63.7161
    10.       148.4668  2036.0555   106.1229
    10.       157.6559  2578.3113   134.5285
    10.       166.7039  3056.8328   141.561
    10.       175.8471  3023.8972   109.8673
    15.        30.1332   399.8022    16.0041
    15.        34.185    468.9541    27.8567
    15.        38.5736   454.0397    16.9997
    15.        42.7903   461.6661    17.2852
    15.        47.3569   461.8296    15.3328
    15.        51.7502   475.3801    26.4092
    15.        55.9603   443.6506    15.9996
    15.        60.3504   438.3992    15.816
    15.        64.7371   414.1855    16.5799
    15.        68.9422   362.0979    17.3215
    15.        72.6124   284.6689    16.7447
    15.        76.6409   245.8363    13.3999
    15.        81.3827   243.9268    11.6655
    15.        85.9425   223.052      8.9317
    15.        89.8116   238.1799    11.3906
    15.        94.0367   270.4032    16.0694
    15.        98.0792   280.6115    11.2329
    15.       101.9524   315.976     13.8844
    15.       105.8162   314.783     11.3522
    15.       110.386    328.0164    13.1305
    15.       114.6026   333.526     13.3424
    15.       118.4748   370.9875    20.6145
    15.       122.5245   422.8956    18.5771
    15.       126.5652   428.2411    21.5086
    15.       130.6227   540.6156    38.3104
    15.       138.0121   636.8823    30.4663
    15.       141.5393   768.6666    36.7504
    15.       145.5737   717.3517    42.1957
    15.       149.2725   821.0454    41.214
    15.       153.1326   778.8388    37.2469
    15.       156.4738   821.504     36.0979
    15.       160.3323   763.5278    31.8169
    15.       163.6611   684.0136    37.2839
    15.       167.8759   678.673     37.7029
    15.       171.0278   598.1393    27.4569
    15.       174.5363   565.0643    23.5628
    15.       178.7551   591.2123    25.9709
    15.       182.4405   567.7238    21.2481
    18.        30.7385   154.3775     7.8149
    18.        35.0149   188.983      9.8492
    18.        39.7515   188.3561     8.3367
    18.        43.7626   196.3964     9.9299
    18.        48.1814   184.0233     6.9336
    18.        52.3942   182.6441     8.0787
    18.        56.6946   153.7774    10.4643
    18.        61.1134   144.0894     8.6164
    18.        65.2735   113.5868     7.7294
    18.        69.221     96.0231     6.1103
    18.        73.6332    91.0906     5.4522
    18.        78.0607    83.9592     4.9735
    18.        81.8615    93.4949     4.8701
    18.        86.2058   100.7525     5.1003
    18.        90.0635   110.8174     5.9784
    18.        94.3025    95.2433     5.6479
    18.        98.1821    91.4645     6.1765
    18.       101.9433    78.9257     5.3634
    18.       110.3514    80.3476     5.7333
    18.       114.1235    67.9216     4.3256
    18.       117.8761    82.7985     5.5935
    18.       121.7294    83.5361     4.2313
    18.       126.1043    84.9839     5.4146
    18.       129.2475    87.153      4.7892
    18.       133.2564    91.2478     4.7454
    18.       137.1163    90.9318     4.7315
    18.       140.9258    99.6071     6.3435
    18.       145.1627    94.4877     6.0175
    18.       148.2883   100.1406     5.6031
    18.       151.7099   117.6316     7.4947
    18.       156.1133   113.4401     6.7868
    18.       160.2932   119.7544     8.1491
    18.       163.1975   138.3638     9.4198
    18.       167.0267   146.0568     7.608
    18.       170.5337   146.1423     6.7678
    18.       174.3958   145.0385     8.1152
    22.5       21.1127    64.9907     4.4264
    22.5       24.7733    69.1668     2.7901
    22.5       28.9933    48.5822     2.4564
    22.5       33.1166    41.4045     1.9183
    22.5       40.9754    45.9452     1.93
    22.5       45.2374    42.1685     1.865
    22.5       48.8444    49.9456     2.5309
    22.5       53.2699    46.9871     2.2649
    22.5       56.8411    42.0687     2.0268
    22.5       65.3375    26.3498     1.6791
    22.5       73.3445    21.7422     1.3014
    22.5       80.934     20.4641     0.826
    22.5       88.948     23.6628     0.994
    22.5       96.7676    28.3931     1.4372
    22.5      122.9391    14.6957     0.9356
    22.5      130.3179    14.8336     0.9444
    22.5      137.3615    14.4872     0.8671
    22.5      144.1841    15.489      1.1227
    22.5      151.1434    17.9073     1.2103
    22.5      158.1891    17.4172     1.338
    22.5      165.1072    21.8638     1.5848
    22.5      172.1653    20.7469     1.1614
ENDDATA            114
ENDSUBENT          128
SUBENT        F0293007   19991202   20001115
BIB                  3          5
REACTION   (11-NA-23(P,A)10-NE-20,PAR,DA,,,EXP)
ERR-ANALYS (ANG-ERR) Digitizing error
           (DATA-ERR) Error bars contain the statistical error
           (DATA-ERR1) Digitizing error
STATUS     (CURVE) Fig.6
ENDBIB               5
COMMON               3          3
E-LVL      ANG-ERR    DATA-ERR1
MEV        ADEG       PER-CENT
 4.25       1.0         0.3
ENDCOMMON            3
DATA                 4        112
EN         ANG-CM     DATA-CM    DATA-ERR
MEV        ADEG       MU-B/SR    MU-B/SR
    10.        23.905   1414.51      68.9351
    10.        35.5498  1810.6508   109.6845
    10.        46.8567  2260.4661    96.1009
    10.        57.3876  2339.6584    89.288
    10.        68.3183  2218.97      90.5297
    10.        78.5777  1985.1956   104.7345
    10.        88.9168  2115.47     119.8208
    10.        98.82    1908.3531    81.1313
    10.       109.2433  2402.1365   136.0577
    10.       119.4317  2445.1365   119.2057
    10.       128.9214  2468.082    115.5655
    10.       138.4524  2311.3665   108.2729
    10.       147.0384  1772.297     86.4666
    10.       156.1953  1255.6635    58.8939
    10.       164.8999  1068.4484    52.1082
    10.       173.8942  1017.3516    47.6765
    15.        26.0822   416.7313    18.6532
    15.        30.1432   403.3222    17.1458
    15.        34.5437   400.2322    17.9147
    15.        38.6457   356.4251    14.5343
    15.        43.0503   350.7633    14.3034
    15.        47.6778   313.6969    14.691
    15.        51.6794   342.5382    17.5368
    15.        56.0717   345.6184    15.4702
    15.        60.4537   356.0571    13.586
    15.        64.488    363.753     15.4541
    15.        68.7331   346.2467    15.4983
    15.        72.929    364.1937    15.4441
    15.        77.3233   365.9429    14.9136
    15.        81.186    370.745     16.5859
    15.        85.3532   413.352     20.1414
    15.        89.545    438.4103    19.613
    15.        93.3789   470.8046    21.0622
    15.        97.7793   467.1975    19.0514
    15.       101.4436   495.4827    29.9902
    15.       105.5518   435.7764    20.3967
    15.       109.2447   436.0073    17.769
    15.       113.639    438.1014    17.8649
    15.       117.3606   413.5298    18.49
    15.       121.0167   445.9259    21.718
    15.       128.785    419.411     23.3218
    15.       132.0606   479.371     23.3468
    15.       136.279    481.6612    20.4635
    15.       139.5649   539.1859    26.2859
    15.       143.7649   562.4338    25.2156
    15.       147.4168   611.5631    28.6568
    15.       150.613    574.8223    23.4262
    15.       154.6535   579.962     24.6398
    15.       158.4079   512.1767    30.7343
    15.       161.9168   521.035     22.15
    15.       165.3339   446.9062    20.9294
    15.       169.3703   454.67      22.1438
    15.       172.4049   415.077     18.5792
    18.        30.3947   136.3745     7.582
    18.        34.9017   157.8678     6.4322
    18.        39.1351   154.0847     6.2781
    18.        43.5043   164.1255     7.6895
    18.        47.5865   151.7553     7.3892
    18.        52.3285   154.4236     5.8862
    18.        56.3821   151.9777     6.7974
    18.        60.2789   143.4723     7.9722
    18.        64.8659   139.461      6.2376
    18.        68.9901   117.6728     0.2049
    18.        72.8697   115.3249     6.0708
    18.        77.166     98.1234     6.756
    18.        81.5352   104.5175     6.3251
    18.        85.4834    88.186      4.5164
    18.        89.2982    99.5566     5.0988
    18.        93.5658    90.1608     6.6067
    18.        97.5317   107.445      6.5023
    18.       101.8666   123.3448     6.8423
    18.       109.6873   152.0623     9.1186
    18.       113.6895   167.4422     7.1172
    18.       117.703    179.8329     8.7714
    18.       121.4716   152.9961     6.4985
    18.       125.2744   120.774      8.3118
    18.       129.1464   120.3502     7.2866
    18.       132.8138   127.6456     7.7318
    18.       136.5538   115.5887     6.9314
    18.       140.267    110.9473     7.1398
    18.       144.0665   129.491      8.8443
    18.       147.057    129.5555     6.0698
    18.       151.1068   128.5687     7.2736
    18.       154.7857   133.001      7.3821
    18.       158.3116   130.883      7.9171
    18.       162.1988   126.1548     7.137
    18.       165.5602   121.0821     5.6691
    18.       168.8029   102.5762     5.7061
    18.       172.0857    79.6297     6.3524
    22.5       12.4202    50.5967
    22.5       16.4794    36.8136
    22.5       20.348     32.7574
    22.5       28.4183    32.6677
    22.5       32.4556    31.7456
    22.5       36.6485    40.012
    22.5       40.5227    33.0146
    22.5       48.5794    39.4307
    22.5       52.6294    32.3998
    22.5       56.3215    29.1941
    22.5       63.878     24.7187
    22.5       71.6163    19.2461     1.5977
    22.5       79.6787    21.3151
    22.5       87.2243    20.8136
    22.5      113.5502    18.2093
    22.5      121.4353    20.6801
    22.5      128.4479    22.0506
    22.5      134.9505    18.9826
    22.5      141.7855    20.843
    22.5      149.5008    21.9493
    22.5      155.4561    24.9189
    22.5      162.9979    25.5885
    22.5      169.1452    23.3589
ENDDATA            114
ENDSUBENT          128
SUBENT        F0293008   19991202   20001115
BIB                  3          4
REACTION   (11-NA-23(P,A)10-NE-20,PAR,DA,,IPA,EXP)
ERR-ANALYS (EN-ERR) Digitizing error
           (DATA-ERR) Digitizing error
STATUS     (CURVE) Fig.7
ENDBIB               4
COMMON               4          3
EN-ERR     ANG-MIN    ANG-MAX    DATA-ERR
MEV        ADEG       ADEG       PER-CENT
 0.025      0.0         90.0       0.3
ENDCOMMON            3
DATA                 3         15
E-LVL      EN         DATA
MEV        MEV        MICRO-B
     0.        10.0824  1264.1266
     0.        15.0989   389.7032
     0.        16.9254   147.446
     0.        17.9567    98.5666
     0.        20.2143    63.9757
     0.        21.9777    83.7022
     0.        24.0813    44.9661
     1.63      10.0775  8854.7227
     1.63      15.0785  1101.8345
     1.63      17.9823   868.6714
     1.63      22.1464   437.4193
     4.25      10.0377  2425.8975
     4.25      15.0593  1519.751
     4.25      17.8612   761.2702
     4.25      22.2346   341.6998
ENDDATA             17
ENDSUBENT           30
ENDENTRY             8
