ENTRY            O2235   20141221   20150817   20150707       O054
SUBENT        O2235001   20141221   20150817   20150707       O054
BIB                 11         31
TITLE      Energy levels of 18F from the 14N+ alpha resonant
           reaction.
AUTHOR     (S.Bailey, M.Freer, Tz.Kokalova, S.Cruz, H.Floyd,
           D.J.Parker)
INSTITUTE  (2UK BIR)
REFERENCE  (J,PR/C,90,024302,2014)
FACILITY   (CYCLO,2UK BIR) the MC40 Cyclotron
METHOD     (EDE,TTM)
SAMPLE     Helium (4He) gas target was used.
           Gas pressures were 420, 620, 850 and 900 mbar for
           beam energies of 46 and 62 MeV.
DETECTOR   (TELES,SISD)  The E- delta E particle detection system
           made use of two double-sided silicon-strip detectors.
           The delta-E detector was 70 mum thick and the E
           detector was 1 mm thick. Both were square detectors
           with a side length of 50 mm.
ERR-ANALYS (DATA-ERR). The uncertainty of TTIK measurements depend
           on a lot of preliminary analysis and specific analytic
           techniques, which included
           -measurement of the total kinetic energy of the decay
           product and position of the event on the detector,
           -the energy loss of the beam, kinematics of the
           reaction,
           -the excitation energy of the compound nucleus and
           efficiency correction
           (EN-ERR).An uncertainty on the beam energy of 10%,
           which could  be resolved through data analysis.
ANALYSIS   An R-matrix analysis was performed on the data in order
           to extract the spin, parities and partial widths of the
           resonant states in F-18.
HISTORY    (20141221C) Sb
ENDBIB              31
COMMON               1          3
EN-ERR
PER-CENT
10.
ENDCOMMON            3
ENDSUBENT           38
SUBENT        O2235002   20141221   20150817   20150707       O054
BIB                  3         10
REACTION   ((2-HE-4(7-N-14,EL)2-HE-4,,DA)=
           (7-N-14(A,EL)7-N-14,,DA))
STATUS     (TABLE).Table data were reported from Dr.Sam Bailey
           13.01.2015
COMMENT    *By authors*.The resolution in the 4He(14N,a)
           measurement was calculated to be 11 keV for
           E-exc < 8 MeV and 14 keV for E-exc > 8 MeV.
           *After consultation with the author*. The data are
           corresponding to the transition to the ground state of
           14N.
ENDBIB              10
COMMON               1          3
ANG-CM
ADEG
176.6
ENDCOMMON            3
DATA                 3        891
E-EXC-CMP  DATA-CM    DATA-ERR
MEV        B/SR       B/SR
5.975      0.090462   0.0013451
5.985      0.092539   0.0013604
5.995      0.088941   0.0013337
6.005      0.085362   0.0013066
6.015      0.090301   0.0013439
6.025      0.088639   0.0013315
6.035      0.091618   0.0013537
6.045      0.087259   0.0013211
6.055      0.086761   0.0013173
6.065      0.087059   0.0013196
6.075      0.088      0.0013266
6.085      0.090481   0.0013452
6.095      0.08488    0.0013029
6.105      0.084621   0.0013009
6.115      0.08606    0.0013119
6.125      0.081501   0.0012767
6.135      0.083778   0.0012945
6.145      0.079799   0.0012633
6.155      0.078921   0.0012564
6.165      0.081481   0.0012765
6.175      0.076021   0.001233
6.185      0.073602   0.0012133
6.195      0.074002   0.0012166
6.205      0.073884   0.0029027
6.215      0.07348    0.0019803
6.225      0.070211   0.0029251
6.235      0.072606   0.0018649
6.245      0.071399   0.003282
6.255      0.068769   0.0023562
6.265      0.069082   0.0025024
6.275      0.071015   0.0029731
6.285      0.065813   0.0021656
6.295      0.066287   0.0025638
6.305      0.06528    0.0033785
6.315      0.064539   0.0016232
6.325      0.061877   0.001301
6.335      0.06076    0.0023542
6.345      0.062234   0.0033112
6.355      0.060791   0.0018179
6.365      0.059431   0.0019575
6.375      0.06016    0.0016862
6.385      0.060015   0.0012076
6.395      0.056871   0.0033355
6.405      0.057455   0.0015846
6.415      0.055942   0.002751
6.425      0.055782   0.0038202
6.435      0.052951   0.0011635
6.445      0.051007   0.0031023
6.455      0.052979   0.0012128
6.465      0.051434   0.0015528
6.475      0.047087   0.0028352
6.485      0.047314   0.0016445
6.495      0.044269   0.0028474
6.505      0.047832   0.0014745
6.515      0.043124   0.0019137
6.525      0.040807   0.0027494
6.535      0.039808   0.0018961
6.545      0.037547   0.0021756
6.555      0.036488   0.001009
6.565      0.035186   0.0014185
6.575      0.034357   0.0010638
6.585      0.034743   0.0012132
6.595      0.032669   0.0018056
6.605      0.027505   0.001166
6.615      0.023972   0.0014652
6.625      0.022871   0.0013704
6.635      0.021884   0.00098964
6.645      0.023629   0.0017012
6.655      0.027706   0.00074233
6.665      0.032483   0.0013341
6.675      0.036044   0.00087247
6.685      0.037218   0.00077792
6.695      0.040678   0.0017345
6.705      0.040078   0.00094692
6.715      0.037075   0.0011857
6.725      0.034614   0.0013412
6.735      0.031282   0.0024462
6.745      0.028364   0.0018221
6.755      0.02403    0.00079145
6.765      0.023172   0.0022266
6.775      0.022499   0.0018624
6.785      0.025045   0.0008339
6.795      0.028778   0.0025862
6.805      0.037961   0.0023773
6.815      0.047158   0.0023081
6.825      0.059804   0.0014252
6.835      0.074778   0.0020777
6.845      0.081085   0.0015781
6.855      0.086409   0.0027077
6.865      0.094546   0.0042097
6.875      0.0927     0.0021042
6.885      0.1002     0.0052908
6.895      0.091011   0.0013607
6.905      0.094229   0.0014857
6.915      0.089055   0.0020294
6.925      0.095232   0.0025373
6.935      0.08615    0.0017346
6.945      0.089223   0.0028968
6.955      0.083904   0.0014232
6.965      0.08858    0.0045954
6.975      0.081042   0.0024692
6.985      0.081944   0.0022781
6.995      0.081928   0.0020667
7.005      0.079627   0.0017168
7.015      0.083331   0.0024953
7.025      0.078984   0.0026506
7.035      0.080744   0.0013743
7.045      0.07528    0.0025773
7.055      0.077694   0.0013711
7.065      0.07771    0.0023692
7.075      0.077738   0.0019753
7.085      0.078196   0.0021672
7.095      0.071991   0.0012769
7.105      0.077624   0.0018331
7.115      0.078212   0.0018726
7.125      0.077369   0.0020092
7.135      0.077651   0.0025157
7.145      0.077624   0.0035837
7.155      0.079313   0.0018366
7.165      0.081042   0.0026029
7.175      0.080928   0.0042822
7.185      0.08635    0.0031539
7.195      0.094703   0.0030064
7.205      0.093986   0.0025974
7.215      0.10065    0.0029453
7.225      0.099007   0.0037753
7.235      0.097965   0.0030929
7.245      0.10729    0.004526
7.255      0.11602    0.0039674
7.265      0.13285    0.0016548
7.275      0.15219    0.0064061
7.285      0.16369    0.0044308
7.295      0.18163    0.005314
7.305      0.17414    0.0064268
7.315      0.15339    0.0069074
7.325      0.12626    0.0042258
7.335      0.10071    0.003671
7.345      0.073406   0.0036203
7.355      0.061219   0.004918
7.365      0.053865   0.0024037
7.375      0.051634   0.0025431
7.385      0.048745   0.003673
7.395      0.048459   0.0017241
7.405      0.050662   0.0033913
7.415      0.055684   0.0019435
7.425      0.057158   0.0029155
7.435      0.062461   0.0017702
7.445      0.065981   0.0021579
7.455      0.076095   0.0025704
7.465      0.087922   0.0024458
7.475      0.096777   0.0030905
7.485      0.11479    0.0029696
7.495      0.12755    0.0044041
7.505      0.14577    0.0062822
7.515      0.15885    0.0075727
7.525      0.16649    0.0080125
7.535      0.16912    0.0056668
7.545      0.16867    0.0086365
7.555      0.16308    0.0062191
7.565      0.14581    0.011617
7.575      0.12469    0.0049372
7.585      0.10955    0.0064782
7.595      0.092732   0.0058349
7.605      0.080795   0.0065425
7.615      0.071967   0.0057048
7.625      0.065303   0.0032943
7.635      0.056675   0.0061669
7.645      0.056722   0.0085578
8.275      0.19934    0.0019967
8.285      0.20044    0.0020022
8.295      0.1933     0.0019662
8.305      0.18708    0.0019343
8.315      0.1786     0.00189
8.325      0.1767     0.0018799
8.335      0.1761     0.0018767
8.345      0.17898    0.001892
8.355      0.18458    0.0019213
8.365      0.18734    0.0019357
8.375      0.19264    0.0019629
8.385      0.20226    0.0020113
8.395      0.19536    0.0019767
8.405      0.18789    0.0047381
8.415      0.17835    0.0016567
8.425      0.16452    0.0038259
8.435      0.14816    0.0062128
8.445      0.13214    0.0026986
8.455      0.12128    0.0025617
8.465      0.11335    0.0023774
8.475      0.10764    0.0027827
8.485      0.10595    0.0037939
8.495      0.10052    0.0028638
8.505      0.096898   0.0035628
8.515      0.094578   0.0015542
8.525      0.093382   0.0030057
8.535      0.09203    0.0026574
8.545      0.087106   0.0017667
8.555      0.086338   0.0028959
8.565      0.085048   0.0044578
8.575      0.081305   0.0016617
8.585      0.078541   0.0047785
8.595      0.079537   0.0028436
8.605      0.078878   0.0025435
8.615      0.077667   0.0022371
8.625      0.07731    0.0015773
8.635      0.078079   0.0017343
8.645      0.079858   0.0011446
8.655      0.082253   0.0011254
8.665      0.086185   0.001156
8.675      0.088208   0.0011705
8.685      0.088808   0.0012975
8.695      0.09234    0.001255
8.705      0.093304   0.0022585
8.715      0.094625   0.0013496
8.725      0.095977   0.0028569
8.735      0.099984   0.0014527
8.745      0.098925   0.003387
8.755      0.10098    0.0012707
8.765      0.10183    0.001995
8.775      0.10321    0.0015052
8.785      0.10706    0.0012997
8.795      0.10869    0.0016163
8.805      0.1143     0.0024016
8.815      0.12159    0.0038705
8.825      0.13441    0.0083531
8.835      0.15355    0.0033997
8.845      0.1674     0.0058106
8.855      0.18156    0.0017171
8.865      0.18142    0.0022408
8.875      0.17811    0.0016535
8.885      0.18155    0.0016849
8.895      0.18414    0.0070693
8.905      0.1889     0.0017418
8.915      0.19631    0.0017407
8.925      0.19703    0.0027505
8.935      0.20043    0.0020051
8.945      0.20184    0.0072344
8.955      0.19289    0.0038748
8.965      0.19051    0.0072708
8.975      0.18741    0.0047981
8.985      0.18088    0.0044543
8.995      0.17794    0.0033135
9.005      0.18012    0.0030711
9.015      0.18574    0.0049412
9.025      0.19954    0.0023397
9.035      0.20251    0.0019302
9.045      0.20581    0.001863
9.055      0.21183    0.0020447
9.065      0.21169    0.0019637
9.075      0.20802    0.0043398
9.085      0.20747    0.0024822
9.095      0.2013     0.0041344
9.105      0.19647    0.0035349
9.115      0.19134    0.0048224
9.125      0.18471    0.0018734
9.135      0.18138    0.0048091
9.145      0.17373    0.0017139
9.155      0.16891    0.0016284
9.165      0.16417    0.0034543
9.175      0.16377    0.0027367
9.185      0.16452    0.001605
9.195      0.16179    0.0018487
9.205      0.16116    0.0019746
9.215      0.16279    0.005762
9.225      0.16217    0.0059255
9.235      0.15404    0.0060815
9.245      0.14385    0.0049698
9.255      0.13908    0.0060011
9.265      0.12907    0.0056138
9.275      0.11813    0.0032948
9.285      0.11285    0.0033492
9.295      0.10577    0.0041446
9.305      0.095378   0.0062979
9.315      0.090313   0.0045993
9.325      0.082716   0.0050062
9.335      0.078968   0.0049741
9.345      0.073198   0.0020741
9.355      0.066781   0.0031074
9.365      0.063437   0.0017018
9.375      0.063053   0.0030805
9.385      0.060458   0.0041478
9.395      0.058126   0.0031495
9.405      0.058126   0.0036029
9.415      0.059584   0.0037145
9.425      0.058816   0.002551
9.435      0.058663   0.00094986
9.445      0.060184   0.0024444
9.455      0.065127   0.0010068
9.465      0.067887   0.0019396
9.475      0.071172   0.0020527
9.485      0.077236   0.002527
9.495      0.084727   0.0029297
9.505      0.10058    0.0025765
9.515      0.10388    0.0026185
9.525      0.11154    0.0027132
9.535      0.11332    0.0027348
9.545      0.11589    0.0027657
9.555      0.10982    0.0026923
9.565      0.10125    0.002585
9.575      0.086855   0.0023943
9.585      0.081379   0.0023175
9.595      0.07029    0.0021539
9.605      0.059266   0.0019778
9.615      0.05907    0.0019745
9.625      0.057616   0.0019501
9.635      0.057949   0.0019556
9.645      0.060258   0.0019943
9.655      0.057487   0.0019478
9.665      0.059929   0.0019888
9.675      0.057158   0.0019422
9.685      0.054649   0.0018992
9.695      0.055574   0.0019152
9.705      0.054053   0.0018888
9.715      0.06105    0.0020073
9.725      0.065339   0.0020767
9.735      0.073128   0.0021969
9.745      0.071281   0.002169
9.755      0.073919   0.0022088
9.765      0.075041   0.0022255
9.775      0.068377   0.0021243
9.785      0.064613   0.0020651
9.795      0.057949   0.0019556
9.805      0.05016    0.0018195
9.815      0.046926   0.0017598
9.825      0.045739   0.0017375
9.835      0.039006   0.0016045
9.845      0.038214   0.0015881
9.855      0.041184   0.0016487
9.865      0.039862   0.0016221
9.875      0.037818   0.0015799
9.885      0.037158   0.001566
9.895      0.038676   0.0015977
9.905      0.036168   0.001545
9.915      0.038412   0.0015922
9.925      0.040062   0.0016261
9.935      0.040592   0.0016368
9.945      0.041909   0.0016631
9.955      0.04996    0.0018159
9.965      0.060192   0.0019932
9.975      0.071015   0.002165
9.985      0.088506   0.0024169
9.995      0.11537    0.0027594
10.005     0.14949    0.0031411
10.015     0.18045    0.003451
10.025     0.2015     0.0036468
10.035     0.21344    0.0037533
10.045     0.20605    0.0036877
10.055     0.19529    0.0035902
10.065     0.18592    0.003503
10.075     0.17404    0.0033892
10.085     0.17299    0.0033789
10.095     0.18586    0.0035024
10.105     0.18955    0.003537
10.115     0.19338    0.0035725
10.125     0.19318    0.0035707
10.135     0.18889    0.0035309
10.145     0.2017     0.0036485
10.155     0.2019     0.0036503
10.165     0.21001    0.003723
10.175     0.22533    0.0038563
10.185     0.2308     0.0039029
10.195     0.24268    0.0040023
10.205     0.25113    0.0040713
10.215     0.25932    0.0041372
10.225     0.24737    0.0040407
10.235     0.22717    0.0038721
10.245     0.20698    0.003696
10.255     0.18322    0.0034774
10.265     0.16157    0.0032655
10.275     0.14038    0.0030439
10.285     0.13325    0.0029656
10.295     0.11629    0.0027704
10.305     0.10811    0.0026712
10.315     0.106      0.0026449
10.325     0.097812   0.0025408
10.335     0.09557    0.0025115
10.345     0.099262   0.0025596
10.355     0.10956    0.002689
10.365     0.12468    0.0028685
10.375     0.12745    0.0029003
10.385     0.1382     0.0030202
10.395     0.14606    0.0031048
10.405     0.15101    0.003157
10.415     0.16144    0.0032642
10.425     0.16678    0.0033178
10.435     0.18454    0.0034899
10.445     0.18731    0.003516
10.455     0.18876    0.0035296
10.465     0.18249    0.0034705
10.475     0.18295    0.0034749
10.485     0.17239    0.003373
10.495     0.17292    0.0033783
10.505     0.15549    0.0032035
10.515     0.14388    0.0030816
10.525     0.14144    0.0030553
10.535     0.12071    0.0028226
10.545     0.11385    0.0027412
10.555     0.10718    0.0026597
10.565     0.10435    0.0026243
10.575     0.10619    0.0026474
10.585     0.11207    0.0027197
10.595     0.10679    0.0026548
10.605     0.1019     0.0025934
10.615     0.10065    0.0025774
10.625     0.088372   0.0024151
10.635     0.078608   0.0022777
10.645     0.070685   0.0021599
10.655     0.061117   0.0020084
10.665     0.056099   0.0019242
10.675     0.051544   0.0018445
10.685     0.053132   0.0018726
10.695     0.050623   0.0018279
10.705     0.053857   0.0018853
10.715     0.054449   0.0018957
10.725     0.053461   0.0018784
10.735     0.056495   0.001931
10.745     0.056032   0.0019231
10.755     0.052865   0.0018679
10.765     0.057024   0.00194
10.775     0.060058   0.001991
10.785     0.062567   0.0020321
10.795     0.064613   0.0020651
10.805     0.070094   0.0021508
10.815     0.081775   0.0023231
10.825     0.090223   0.0024402
10.835     0.11009    0.0026955
10.845     0.14216    0.0030631
10.855     0.17517    0.0034001
10.865     0.20084    0.0036408
10.875     0.22592    0.0038614
10.885     0.22301    0.0038365
10.895     0.22321    0.0038382
10.905     0.20698    0.003696
10.915     0.19199    0.0035597
10.925     0.17035    0.0033531
10.935     0.15959    0.0032454
10.945     0.14223    0.0030638
10.955     0.1386     0.0030245
10.965     0.13127    0.0029435
10.975     0.13273    0.0029597
10.985     0.13206    0.0029523
10.995     0.13675    0.0030043
11.005     0.14294    0.0083453
11.015     0.15108    0.0090086
11.025     0.16283    0.0071085
11.035     0.17759    0.0072516
11.045     0.1945     0.016506
11.055     0.20922    0.0078616
11.065     0.22506    0.012973
11.075     0.23747    0.013176
11.085     0.24344    0.00921
11.095     0.24926    0.0078478
11.105     0.24886    0.005704
11.115     0.24263    0.0076122
11.125     0.24957    0.0065785
11.135     0.25286    0.0061854
11.145     0.2631     0.0073324
11.155     0.28209    0.0088651
11.165     0.31746    0.013399
11.175     0.34099    0.020195
11.185     0.3825     0.019272
11.195     0.39647    0.016912
11.205     0.41223    0.025433
11.215     0.41591    0.017133
11.225     0.41152    0.016835
11.235     0.42042    0.02091
11.245     0.43222    0.018925
11.255     0.45288    0.021495
11.265     0.48726    0.020954
11.275     0.52234    0.030586
11.285     0.55397    0.027733
11.295     0.58302    0.033335
11.305     0.60513    0.029992
11.315     0.62238    0.026556
11.325     0.6312     0.026406
11.335     0.63155    0.031156
11.345     0.61669    0.032839
11.355     0.58537    0.01941
11.365     0.57107    0.017733
11.375     0.53724    0.014888
11.385     0.51199    0.0167
11.395     0.47859    0.012765
11.405     0.44778    0.017716
11.415     0.43485    0.015839
11.425     0.4147     0.011396
11.435     0.40098    0.022922
11.445     0.3841     0.016195
11.455     0.35594    0.01497
11.465     0.3466     0.017164
11.475     0.33085    0.0087044
11.485     0.32838    0.010898
11.495     0.33725    0.012743
11.505     0.34817    0.012892
11.515     0.3838     0.021016
11.525     0.38557    0.019493
11.535     0.38816    0.0105
11.545     0.41834    0.015255
11.555     0.42309    0.022715
11.565     0.46758    0.01466
11.575     0.49815    0.016479
11.585     0.53053    0.028356
11.595     0.60913    0.048475
11.605     0.68298    0.059435
11.615     0.75911    0.05626
11.625     0.83896    0.057722
11.635     0.92194    0.048906
11.645     0.95648    0.062085
11.655     1.0033     0.053332
11.665     1.0333     0.048502
11.675     1.0369     0.015225
11.685     1.0593     0.018819
11.695     1.0391     0.01508
11.705     1.0295     0.022367
11.715     0.99156    0.034464
11.725     0.97777    0.014713
11.735     0.96291    0.016024
11.745     0.91348    0.023962
11.755     0.88306    0.041078
11.765     0.80811    0.03203
11.775     0.75174    0.034972
11.785     0.68365    0.024578
11.795     0.61909    0.037571
11.805     0.55127    0.054868
11.815     0.45382    0.056593
11.825     0.39992    0.056679
11.835     0.31678    0.041905
11.845     0.29249    0.032003
11.855     0.25004    0.025083
11.865     0.2611     0.0097639
11.875     0.26614    0.010518
11.885     0.27393    0.0076142
11.895     0.28771    0.022519
11.905     0.30572    0.012871
11.915     0.34353    0.020909
11.925     0.36987    0.026237
11.935     0.39171    0.017003
11.945     0.41493    0.019913
11.955     0.42885    0.020645
11.965     0.45735    0.023734
11.975     0.45135    0.016003
11.985     0.46103    0.011261
11.995     0.45354    0.021039
12.005     0.47075    0.0094817
12.015     0.4751     0.01297
12.025     0.46444    0.013179
12.035     0.47769    0.013671
12.045     0.49572    0.014834
12.055     0.50854    0.016928
12.065     0.51673    0.017762
12.075     0.53582    0.023241
12.085     0.5372     0.022879
12.095     0.53528    0.022075
12.105     0.51003    0.01826
12.115     0.51454    0.012861
12.125     0.50541    0.024087
12.135     0.47659    0.021943
12.145     0.453      0.020845
12.155     0.43171    0.035861
12.165     0.3958     0.026592
12.175     0.39717    0.016628
12.185     0.38434    0.0089799
12.195     0.39623    0.012219
12.205     0.40317    0.016675
12.215     0.40168    0.013018
12.225     0.40905    0.018162
12.235     0.42281    0.010363
12.245     0.4223     0.016683
12.255     0.42814    0.021754
12.265     0.44018    0.022457
12.275     0.43677    0.013109
12.285     0.42583    0.016803
12.295     0.39553    0.011798
12.305     0.3883     0.018622
12.315     0.3595     0.017455
12.325     0.32729    0.015794
12.335     0.29836    0.018464
12.345     0.27488    0.025659
12.355     0.26137    0.014813
12.365     0.23885    0.02061
12.375     0.21428    0.016463
12.385     0.20391    0.017838
12.395     0.18112    0.010978
12.405     0.1631     0.014189
12.415     0.15887    0.0082598
12.425     0.15095    0.021435
12.435     0.14358    0.014157
12.445     0.13253    0.012442
12.455     0.13075    0.0082516
12.465     0.12952    0.0067687
12.475     0.13758    0.0057463
12.485     0.14454    0.017637
12.495     0.15191    0.012941
12.505     0.153      0.0077432
12.515     0.17838    0.0094115
12.525     0.17893    0.008693
12.535     0.19968    0.0060662
12.545     0.20295    0.011116
12.555     0.20746    0.011245
12.565     0.21728    0.015466
12.575     0.22629    0.0080811
12.585     0.24594    0.012989
12.595     0.26355    0.011737
12.605     0.2626     0.0073735
12.615     0.29221    0.012682
12.625     0.30313    0.013286
12.635     0.32456    0.014328
12.645     0.34094    0.0092841
12.655     0.3479     0.0099282
12.665     0.36318    0.015892
12.675     0.37929    0.0087087
12.685     0.3812     0.018192
12.695     0.39525    0.0091959
12.705     0.40619    0.016674
12.715     0.41834    0.016178
12.725     0.42434    0.01311
12.735     0.42203    0.022382
12.745     0.42897    0.01433
12.755     0.44468    0.010605
12.765     0.44304    0.022235
12.775     0.47142    0.016488
12.785     0.46213    0.028382
12.795     0.45652    0.010214
12.805     0.45503    0.020449
12.815     0.4508     0.026429
12.825     0.43171    0.018877
12.835     0.43128    0.036525
12.845     0.40576    0.029049
12.855     0.39486    0.033587
12.865     0.36141    0.029594
12.875     0.34258    0.039271
12.885     0.30914    0.032915
12.895     0.27761    0.039459
12.905     0.26028    0.037689
12.915     0.23966    0.044374
12.925     0.22356    0.027533
12.935     0.20514    0.029691
12.945     0.19039    0.023831
12.955     0.18002    0.023945
12.965     0.17784    0.019125
12.975     0.18494    0.020955
12.985     0.17484    0.013158
12.995     0.18657    0.01113
13.005     0.18466    0.014065
13.015     0.19203    0.011415
13.025     0.18289    0.014316
13.035     0.19163    0.0074319
13.045     0.18944    0.0098082
13.055     0.19449    0.0068859
13.065     0.19067    0.010552
13.075     0.19108    0.0066856
13.085     0.19012    0.0054829
13.095     0.20145    0.0086558
13.105     0.205      0.016435
13.115     0.20322    0.011668
13.125     0.23776    0.010604
13.135     0.26546    0.021731
13.145     0.28525    0.038148
13.155     0.30354    0.025923
13.165     0.32142    0.022539
13.175     0.34954    0.012479
13.185     0.35609    0.014459
13.195     0.35336    0.016952
13.205     0.37124    0.013416
13.215     0.37519    0.0084331
13.225     0.34926    0.014733
13.235     0.35295    0.015333
13.245     0.3464     0.0186
13.255     0.34189    0.016045
13.265     0.33139    0.010001
13.275     0.33398    0.022099
13.285     0.30805    0.020865
13.295     0.31255    0.022767
13.305     0.28757    0.031973
13.315     0.25113    0.018812
13.325     0.23707    0.027696
13.335     0.21333    0.041803
13.345     0.19517    0.03205
13.355     0.17265    0.030012
13.365     0.17156    0.025854
13.375     0.16965    0.022486
13.385     0.16829    0.02249
13.395     0.17975    0.015295
13.405     0.18384    0.011577
13.415     0.19163    0.0085405
13.425     0.21019    0.016475
13.435     0.20991    0.014288
13.445     0.21373    0.013266
13.455     0.22561    0.01295
13.465     0.2211     0.019078
13.475     0.22288    0.015062
13.485     0.21797    0.012567
13.495     0.2222     0.013313
13.505     0.20636    0.013131
13.515     0.20677    0.023119
13.525     0.19995    0.024504
13.535     0.19135    0.025453
13.545     0.1803     0.011843
13.555     0.1732     0.010895
13.565     0.16774    0.012977
13.575     0.16187    0.010441
13.585     0.16501    0.010863
13.595     0.16105    0.012543
13.605     0.14781    0.0096091
13.615     0.1459     0.01574
13.625     0.15382    0.012511
13.635     0.15423    0.0078282
13.645     0.13703    0.010261
13.655     0.14044    0.016056
13.665     0.14645    0.0069063
13.675     0.12952    0.013243
13.685     0.13717    0.0066828
13.695     0.12679    0.0087212
13.705     0.1186     0.0070885
13.715     0.11123    0.0059231
13.725     0.11492    0.0051238
13.735     0.11915    0.01033
13.745     0.1055     0.0089827
13.755     0.10891    0.0076432
13.765     0.12338    0.0088165
13.775     0.13335    0.013889
13.785     0.14631    0.013547
13.795     0.15313    0.012481
13.805     0.1717     0.0092794
13.815     0.18862    0.010813
13.825     0.20991    0.019506
13.835     0.22411    0.0094711
13.845     0.24144    0.010675
13.855     0.25195    0.016452
13.865     0.26819    0.017246
13.875     0.27147    0.011399
13.885     0.29576    0.009239
13.895     0.29781    0.012416
13.905     0.30504    0.0088627
13.915     0.31296    0.0093135
13.925     0.32374    0.030816
13.935     0.31855    0.01186
13.945     0.30231    0.01488
13.955     0.30545    0.011577
13.965     0.31446    0.011356
13.975     0.31787    0.012508
13.985     0.30859    0.017087
13.995     0.29726    0.0096134
14.005     0.30668    0.0089666
14.015     0.29836    0.013448
14.025     0.28402    0.012453
14.035     0.25168    0.016569
14.045     0.21988    0.015226
14.055     0.18739    0.021614
14.065     0.17293    0.020137
14.075     0.14918    0.017518
14.085     0.14112    0.016241
14.095     0.13853    0.016154
14.105     0.14331    0.0077326
14.115     0.13676    0.0091018
14.125     0.15273    0.012225
14.135     0.1676     0.0078949
14.145     0.16596    0.0067792
14.155     0.18125    0.013491
14.165     0.19203    0.011038
14.175     0.20486    0.016032
14.185     0.20923    0.0087146
14.195     0.2166     0.0080262
14.205     0.24158    0.0095644
14.215     0.23926    0.0076068
14.225     0.24048    0.010619
14.235     0.23489    0.018496
14.245     0.23489    0.010409
14.255     0.24062    0.0077393
14.265     0.22711    0.010116
14.275     0.22738    0.013589
14.285     0.22711    0.010967
14.295     0.22643    0.008606
14.305     0.22411    0.017054
14.315     0.23271    0.010016
14.325     0.22438    0.014962
14.335     0.23994    0.011453
14.345     0.2469     0.017728
14.355     0.23503    0.016274
14.365     0.24172    0.013248
14.375     0.2484     0.013731
14.385     0.24499    0.011918
14.395     0.27215    0.022916
14.405     0.2656     0.013185
14.415     0.27911    0.019578
14.425     0.27324    0.011286
14.435     0.29535    0.013864
14.445     0.3034     0.017527
14.455     0.31583    0.026012
14.465     0.30791    0.011274
14.475     0.32579    0.007956
14.485     0.31719    0.017973
14.495     0.30859    0.015157
14.505     0.29522    0.010118
14.515     0.30518    0.015047
14.525     0.28266    0.020747
14.535     0.28928    0.017508
14.545     0.27915    0.020319
14.555     0.28383    0.010696
14.565     0.28383    0.012067
14.575     0.28928    0.012871
14.585     0.29747    0.010879
14.595     0.31541    0.015382
14.605     0.32048    0.012076
14.615     0.31229    0.012745
14.625     0.31853    0.012776
14.635     0.31658    0.020042
14.645     0.32398    0.020494
14.655     0.30527    0.011567
14.665     0.3002     0.017263
14.675     0.29591    0.030033
14.685     0.29046    0.0128
14.695     0.28032    0.012861
14.705     0.29358    0.01217
14.715     0.25537    0.012787
14.725     0.24796    0.01007
14.735     0.24055    0.01065
14.745     0.21794    0.0095836
14.755     0.22028    0.0094437
14.765     0.20117    0.011139
14.775     0.20897    0.0090336
14.785     0.19104    0.016496
14.795     0.21131    0.0091948
14.805     0.19767    0.012105
14.815     0.19416    0.0087146
14.825     0.20936    0.018172
14.835     0.21248    0.018516
14.845     0.1887     0.008811
14.855     0.20858    0.015444
14.865     0.20546    0.0091657
14.875     0.21989    0.012592
14.885     0.21833    0.0099952
14.895     0.2195     0.013524
14.905     0.23237    0.016357
14.915     0.23509    0.0097216
14.925     0.24133    0.013112
14.935     0.24055    0.017548
14.945     0.24874    0.011034
14.955     0.22418    0.010217
14.965     0.21638    0.0092265
14.975     0.23353    0.009956
14.985     0.2078     0.011871
14.995     0.19338    0.0087028
15.005     0.16531    0.0082038
15.015     0.16141    0.013185
15.025     0.13451    0.0085738
15.035     0.11267    0.0081477
15.045     0.11696    0.0074766
15.055     0.095519   0.0070682
15.065     0.084213   0.008105
15.075     0.09045    0.0072124
15.085     0.081093   0.005662
15.095     0.10098    0.0063018
15.105     0.092398   0.010515
15.115     0.097079   0.0066801
15.125     0.10566    0.0084809
15.135     0.12905    0.0088043
15.145     0.14737    0.017057
15.155     0.1462     0.0075801
15.165     0.14698    0.0079337
15.175     0.16336    0.0098549
15.185     0.18129    0.0087279
15.195     0.1887     0.010434
15.205     0.2039     0.01203
15.215     0.21131    0.016709
15.225     0.21287    0.016222
15.235     0.21326    0.010388
15.245     0.21716    0.012211
15.255     0.25108    0.01144
15.265     0.23353    0.010434
15.275     0.24367    0.012084
15.285     0.22457    0.010776
15.295     0.25225    0.010132
15.305     0.23977    0.0096777
15.315     0.24406    0.010333
15.325     0.25108    0.014602
15.335     0.2503     0.011951
15.345     0.23353    0.0096032
15.355     0.25537    0.010506
15.365     0.22808    0.0098956
15.375     0.23159    0.0096107
15.385     0.23743    0.01697
15.395     0.22886    0.0094829
15.405     0.21989    0.0092594
15.415     0.23509    0.013905
15.425     0.22652    0.012978
15.435     0.23003    0.012609
15.445     0.22691    0.010238
15.455     0.22808    0.015593
15.465     0.23237    0.013983
15.475     0.20741    0.010664
15.485     0.21326    0.011858
15.495     0.2117     0.01843
ENDDATA            893
ENDSUBENT          912
SUBENT        O2235003   20141221   20150817   20150707       O054
BIB                  3          6
REACTION   ((2-HE-4(7-N-14,D)8-O-16,,DA,RSD)=
           (7-N-14(A,D)8-O-16,,DA))
COMMENT    Energetically only transition to the ground state of
           16O is possible. (c.f. Table I)
STATUS     (TABLE).Table data were reported from Dr.Sam Bailey
           13.01.2015
ENDBIB               6
COMMON               2          3
ANG-CM     EN-RSL
ADEG       KEV
176.6      15.
ENDCOMMON            3
DATA                 3        397
E-EXC-CMP  DATA-CM    DATA-ERR
MEV        B/SR       B/SR
8.31       0.00098231 0.00024652
8.32       0.0010744  0.00012882
8.33       0.0014274  0.00014976
8.34       0.0012586  0.00014304
8.35       0.0014581  0.00018711
8.36       0.0017958  0.00025177
8.37       0.0018879  0.00017083
8.38       0.0017344  0.00017473
8.39       0.0017344  0.00019077
8.4        0.0017958  0.00022572
8.41       0.0018572  0.00027174
8.42       0.0014581  0.00014964
8.43       0.0017498  0.00023119
8.44       0.0018879  0.00017164
8.45       0.0011972  0.00020247
8.46       0.0013507  0.00017092
8.47       0.001274   0.00014762
8.48       0.0012433  0.00014446
8.49       0.00132    0.00020342
8.5        0.0012586  0.00022673
8.51       0.0013661  0.00015739
8.52       0.00098233 0.00014057
8.53       0.001366   0.00015739
8.54       0.0010591  0.0001946
8.55       0.0011972  0.00026102
8.56       0.00084416 0.0001174
8.57       0.0011051  0.00016402
8.58       0.0011358  0.00016648
8.59       0.0014121  0.00015834
8.6        0.0010591  0.00013305
8.61       0.0014581  0.00026161
8.62       0.0010898  0.00015829
8.63       0.001013   0.00012692
8.64       0.0010437  0.00012675
8.65       0.0011358  0.00014719
8.66       0.00092093 0.00021569
8.67       0.00090557 0.00013345
8.68       0.00096695 0.00013579
8.69       0.00092094 0.00014023
8.7        0.00090559 0.00017937
8.71       0.00069069 0.00010434
8.72       0.00052184 0.000089564
8.73       0.00049114 0.00012414
8.74       0.00053722 0.0001132
8.75       0.00059862 0.00010164
8.76       0.00036837 0.00015028
8.77       0.00016884 0.000053379
8.78       0.00058324 0.00014885
8.79       0.00032233 0.00007732
8.8        0.00041441 0.00010134
8.81       0.00052188 0.000095373
8.82       0.00072137 0.00012933
8.83       0.0010284  0.00020386
8.84       0.001274   0.00016295
8.85       0.0012893  0.00014201
8.86       0.0016423  0.00024446
8.87       0.0016576  0.00015956
8.88       0.0016577  0.00024494
8.89       0.0016884  0.0002543
8.9        0.0011972  0.00029268
8.91       0.00132    0.00020342
8.92       0.0014888  0.00022423
8.93       0.0010898  0.00013066
8.94       0.0013353  0.00017494
8.95       0.0014735  0.00016223
8.96       0.0019033  0.00020595
8.97       0.0020721  0.00029897
8.98       0.0019186  0.00022324
8.99       0.0020874  0.00030005
9.0        0.0022409  0.00018932
9.01       0.0029009  0.00033176
9.02       0.0031005  0.00021815
9.03       0.0030851  0.00030151
9.04       0.003561   0.0003185
9.05       0.0037298  0.00023998
9.06       0.0034075  0.00023406
9.07       0.003653   0.00025563
9.08       0.0034535  0.00035191
9.09       0.002947   0.00044157
9.1        0.0024558  0.00021903
9.11       0.0025479  0.00031095
9.12       0.0022563  0.00021233
9.13       0.0018572  0.00022611
9.14       0.0019033  0.00017102
9.15       0.0016423  0.00016387
9.16       0.00132    0.00026035
9.17       0.0012433  0.00017968
9.18       0.001366   0.00018805
9.19       0.0016884  0.00058855
9.2        0.0018265  0.00026559
9.21       0.0017344  0.00018297
9.22       0.0020567  0.00023333
9.23       0.0016577  0.00017708
9.24       0.0016423  0.00016198
9.25       0.0018418  0.00017276
9.26       0.0014121  0.00019207
9.27       0.0013353  0.0003316
9.28       0.0016423  0.00021241
9.29       0.0014735  0.00040417
9.3        0.001366   0.00019752
9.31       0.0013814  0.00026005
9.32       0.0012433  0.00014145
9.33       0.0013046  0.00016311
9.34       0.0012739  0.0002683
9.35       0.0011205  0.00013631
9.36       0.0012279  0.00016674
9.37       0.0014582  0.00021094
9.38       0.0014121  0.00015835
9.39       0.0016116  0.00016551
9.4        0.0012586  0.00014432
9.41       0.0020414  0.00025546
9.42       0.0021488  0.00032922
9.43       0.0020414  0.00018021
9.44       0.0024405  0.00019355
9.45       0.0031158  0.00048096
9.46       0.0040828  0.00036049
9.47       0.0045124  0.00026416
9.48       0.0045281  0.00026846
9.49       0.0052493  0.00031052
9.5        0.0051878  0.00063329
9.51       0.0055409  0.00043689
9.52       0.0048501  0.0003183
9.53       0.0038372  0.00053555
9.54       0.0039907  0.00054825
9.55       0.0036837  0.00027521
9.56       0.0036991  0.00027998
9.57       0.0034688  0.00023163
9.58       0.0032693  0.00030103
9.59       0.0025786  0.0003209
9.6        0.0022716  0.00029875
9.61       0.0018572  0.00016891
9.62       0.0015809  0.00018916
9.63       0.00132    0.00015982
9.64       0.0014735  0.00019291
9.65       0.001366   0.00028316
9.66       0.0014121  0.00027507
9.67       0.0014582  0.00026718
9.68       0.0012432  0.00017236
9.69       0.0014121  0.00014792
9.7        0.0016577  0.00026672
9.71       0.0018419  0.00022004
9.72       0.0017498  0.00018757
9.73       0.0018265  0.00038933
9.74       0.0018726  0.00038038
9.75       0.0015809  0.00026655
9.76       0.0015656  0.00025929
9.77       0.0020568  0.00028583
9.78       0.0018726  0.00031699
9.79       0.0019032  0.00017606
9.8        0.0019339  0.00023263
9.81       0.0016577  0.00027354
9.82       0.0025325  0.00021517
9.83       0.0020261  0.00018258
9.84       0.0020414  0.00018021
9.85       0.0024098  0.00039548
9.86       0.0025019  0.00019599
9.87       0.002706   0.00042261
9.88       0.002112   0.00037335
9.89       0.002244   0.00038484
9.9        0.002376   0.00039598
9.91       0.001914   0.00035542
9.92       0.00198    0.0003615
9.93       0.002244   0.00038484
9.94       0.00231    0.00039046
9.95       0.00198    0.0003615
9.96       0.001716   0.00033654
9.97       0.002442   0.00040145
9.98       0.00198    0.0003615
9.99       0.00198    0.00036149
10.0       0.001386   0.00030245
10.01      0.002112   0.00037335
10.02      0.002442   0.00040144
10.03      0.002904   0.00043778
10.04      0.003102   0.00045248
10.05      0.002244   0.00038484
10.06      0.001848   0.00034924
10.07      0.002178   0.00037914
10.08      0.001848   0.00034924
10.09      0.002508   0.00040686
10.1       0.002178   0.00037914
10.11      0.00297    0.00044274
10.12      0.002838   0.0004328
10.13      0.002442   0.00040147
10.14      0.002442   0.00040145
10.15      0.003102   0.00045247
10.16      0.0033     0.00046669
10.17      0.003036   0.00044764
10.18      0.002376   0.00039599
10.19      0.0033     0.00046671
10.2       0.003036   0.00044762
10.21      0.003366   0.00047135
10.22      0.003366   0.00047133
10.23      0.0046202  0.0005522
10.24      0.0046201  0.0005522
10.25      0.0059402  0.00062612
10.26      0.0078539  0.00071998
10.27      0.0068639  0.00067308
10.28      0.0072601  0.00069222
10.29      0.0091741  0.00077814
10.3       0.0096362  0.00079749
10.31      0.012342   0.00090254
10.32      0.010758   0.00084262
10.33      0.012078   0.00089281
10.34      0.011088   0.00085547
10.35      0.010362   0.00082698
10.36      0.0097021  0.0008002
10.37      0.0087781  0.00076115
10.38      0.0082499  0.00073791
10.39      0.0056759  0.00061205
10.4       0.0054119  0.00059764
10.41      0.005214   0.00058662
10.42      0.0064019  0.00065001
10.43      0.0051478  0.00058289
10.44      0.0058741  0.00062263
10.45      0.0042241  0.00052801
10.46      0.0040918  0.00051968
10.47      0.0042901  0.0005321
10.48      0.004026   0.00051547
10.49      0.002904   0.00043778
10.5       0.003432   0.00047593
10.51      0.0040261  0.00051546
10.52      0.0059399  0.00062614
10.53      0.007788   0.00071693
10.54      0.0099001  0.00080832
10.55      0.009636   0.00079749
10.56      0.01089    0.00084778
10.57      0.008712   0.00075828
10.58      0.0083819  0.00074377
10.59      0.0091078  0.00077533
10.6       0.007524   0.00070468
10.61      0.0078541  0.00071997
10.62      0.0089099  0.00076686
10.63      0.009306   0.0007837
10.64      0.010692   0.00084004
10.65      0.011616   0.00087558
10.66      0.01056    0.00083486
10.67      0.01551    0.0010118
10.68      0.014388   0.00097446
10.69      0.016236   0.0010352
10.7       0.014454   0.0009767
10.71      0.015774   0.0010203
10.72      0.01584    0.0010225
10.73      0.016896   0.001056
10.74      0.015312   0.0010053
10.75      0.016104   0.0010309
10.76      0.01617    0.0010331
10.77      0.0165     0.0010435
10.78      0.013728   0.00095185
10.79      0.014718   0.00098557
10.8       0.015312   0.0010053
10.81      0.01386    0.00095645
10.82      0.012078   0.00089285
10.83      0.011748   0.00088055
10.84      0.012078   0.00089283
10.85      0.010824   0.00084521
10.86      0.012606   0.00091215
10.87      0.014652   0.00098339
10.88      0.017886   0.0010865
10.89      0.020988   0.001177
10.9       0.021648   0.0011953
10.91      0.022968   0.0012312
10.92      0.025014   0.0012849
10.93      0.025212   0.00129
10.94      0.024288   0.0012661
10.95      0.023496   0.0012453
10.96      0.022704   0.0012241
10.97      0.022836   0.0012277
10.98      0.020988   0.001177
10.99      0.019074   0.001122
11.0       0.018018   0.0010905
11.01      0.014586   0.00098114
11.02      0.011946   0.00088795
11.03      0.011154   0.00085801
11.04      0.012078   0.00089284
11.05      0.014586   0.00098116
11.06      0.015246   0.0010031
11.07      0.018084   0.0010925
11.08      0.018414   0.0011024
11.09      0.017028   0.0010601
11.1       0.01914    0.001124
11.11      0.015114   0.00099874
11.12      0.01815    0.0010945
11.13      0.015642   0.001016
11.14      0.015444   0.0010096
11.15      0.016896   0.001056
11.16      0.017094   0.0010622
11.17      0.019272   0.0011278
11.18      0.020196   0.0011545
11.19      0.01881    0.0011142
11.2       0.020526   0.0011639
11.22      0.019998   0.0011489
11.23      0.02079    0.0011714
11.24      0.023628   0.0012488
11.25      0.020592   0.0011658
11.26      0.018018   0.0010905
11.27      0.01716    0.0010642
11.28      0.018084   0.0010925
11.29      0.016368   0.0010394
11.3       0.016962   0.0010581
11.31      0.0165     0.0010436
11.32      0.014322   0.00097226
11.33      0.01617    0.0010331
11.34      0.01584    0.0010225
11.35      0.01452    0.00097893
11.36      0.015972   0.0010267
11.37      0.016698   0.0010498
11.38      0.016104   0.001031
11.39      0.01848    0.0011044
11.4       0.022176   0.0012098
11.41      0.024288   0.0012661
11.42      0.02706    0.0013364
11.43      0.03366    0.0014905
11.44      0.033594   0.001489
11.45      0.039269   0.0016099
11.46      0.042174   0.0016684
11.47      0.038146   0.0015868
11.48      0.038411   0.0015922
11.49      0.032208   0.001458
11.5       0.029436   0.0013938
11.51      0.027324   0.0013429
11.52      0.023826   0.001254
11.53      0.023166   0.0012365
11.54      0.017952   0.0010885
11.55      0.019536   0.0011355
11.56      0.017094   0.0010622
11.57      0.014322   0.00097223
11.58      0.010956   0.00085035
11.59      0.0093719  0.00078649
11.6       0.0071281  0.0006859
11.61      0.00594    0.00062615
11.62      0.00792    0.00072299
11.63      0.0082501  0.00073791
11.64      0.0067981  0.00066984
11.65      0.0096361  0.0007975
11.66      0.010758   0.00084265
11.67      0.01221    0.00089769
11.68      0.013332   0.00093805
11.69      0.011682   0.00087806
11.7       0.012606   0.00091215
11.71      0.013464   0.00094266
11.72      0.013662   0.00094959
11.73      0.012342   0.00090253
11.74      0.011418   0.0008681
11.75      0.012276   0.00090012
11.76      0.01122    0.00086054
11.77      0.012738   0.00091689
11.78      0.012012   0.0008904
11.79      0.0091742  0.00077812
11.8       0.0087782  0.00076115
11.81      0.0074579  0.00070159
11.82      0.0057419  0.00061559
11.83      0.003696   0.00049389
11.84      0.002904   0.00043779
11.85      0.003036   0.00044762
11.86      0.00198    0.0003615
11.87      0.002376   0.00039601
11.88      0.001518   0.00031652
11.89      0.002112   0.00037334
11.9       0.00297    0.00044275
11.91      0.002046   0.00036746
11.92      0.002046   0.00036745
11.93      0.002772   0.00042774
11.94      0.002376   0.00039599
11.95      0.002772   0.00042773
11.96      0.002178   0.00037916
11.97      0.003168   0.00045726
11.98      0.00297    0.00044276
11.99      0.00297    0.00044273
12.0       0.002574   0.00041216
12.01      0.003366   0.00047134
12.02      0.00363    0.00048945
12.03      0.0040258  0.00051546
12.04      0.0037621  0.0004983
12.05      0.0048839  0.00056776
12.06      0.0048178  0.0005639
12.07      0.0053459  0.000594
12.08      0.0074579  0.0007016
12.09      0.0073259  0.00069536
12.1       0.007194   0.00068905
12.11      0.0080519  0.00072898
12.12      0.0085139  0.0007496
12.13      0.0079201  0.00072299
12.14      0.008118   0.00073197
12.15      0.0069302  0.0006763
12.16      0.0061381  0.00063647
12.17      0.0065341  0.0006567
12.18      0.005478   0.00060129
12.19      0.0036299  0.00048945
12.2       0.004422   0.00054022
12.21      0.0040259  0.00051549
12.22      0.0048839  0.00056776
12.23      0.003366   0.00047133
12.24      0.003102   0.00045247
12.25      0.002112   0.00037336
12.26      0.002772   0.00042772
12.27      0.00264    0.00041744
12.28      0.002838   0.00043279
ENDDATA            399
ENDSUBENT          414
ENDENTRY             3
