ENTRY            O2254   20200831   20210105   20210104       O079
SUBENT        O2254001   20200831   20210105   20210104       O079
BIB                 11         35
TITLE      Study of the B-10(p,alpha+gamma)Be-7 and
           B-10(p,p'gamma)B-10 reactions for PIGE purposes
AUTHOR     (A.Lagoyannis,K.Preketes-Sigalas,M.Axiotis,V.Foteinou,
           S.Harissopulos,M.Kokkoris,P.Misaelides,V.Paneta,
           N.Patronis)
INSTITUTE  (2GRCATH,2GRCTUA,2GRCARU,2GRCIOA)
REFERENCE  (J,NIM/B,342,271,2015)
FACILITY   (VDGT,2GRCATH) 5.5 MV TN11 Tandem Accelerator of
           N.C.S.R. 'Demokritos', Athens, Greece
SAMPLE     A thin B-nat target and an enriched B-10 one were used.
           Both targets were prepared by electron gun evaporation
           on thick tantalum backings.In addition,two pellets for
           benchmarking purposes were prepared by pressing
           amorphous powder, a B-nat and a MgB(2) one. As boron is
           an insulator, an ultra thin layer of Au was evaporated
           on its surface, as to avoid electrical sparks during
           the irradiations. The thin B-10 enriched target was
           characterized by applying the Elastic Backscattering
           Spectrometry (EBS) method. The thicknesses of the
           enriched B-10 and of the B-nat targets were found to be
           1750 and 577 at/cm**2 respectively.
DETECTOR   (SIBAR) a 1000 mum thick surface barrier detector (SSB)
           (HPGE)
MONITOR    (79-AU-197(D,EL)79-AU-197,,DA,,RTH)
ERR-ANALYS (ERR-S) Statistical uncertainty due to peak integration
           (ERR-SYS) Systematic error includes:
           (ERR-1) Error in the beam charge.
           (ERR-2) Error in the targets thickness.
           (ERR-3) Error in the detectors efficiency
STATUS     (TABLE) Table data from IBANDL:
               https://www-nds.iaea.org/exfor/ibandl.htm
HISTORY    (20150209C) SB
           (20200831A) SD: Corrections in all Subents.
           ERR-T -> ERR-S (confirmed by A.Lagoyannis, 2020-04-23).
           ERR-SYS added. Several Subents merged.
ENDBIB              35
COMMON               5          3
ERR-SYS    ERR-1      ERR-2      ERR-3      EN-ERR
PER-CENT   PER-CENT   PER-CENT   PER-CENT   KEV
  8.          3.5        7.         1.5        2.
ENDCOMMON            3
ENDSUBENT           42
SUBENT        O2254002   20200831   20210105   20210104       O079
BIB                  2          3
REACTION   (5-B-10(P,INL)5-B-10,PAR,DA,G)
HISTORY    (20200831A) SD: Data from Subents 003-009 added.
           ERR-T -> ERR-S.
ENDBIB               3
COMMON               2          3
E          EN-ERR
KEV        KEV
       718.         2.
ENDCOMMON            3
DATA                 4        930
ANG        EN         DATA       ERR-S
ADEG       KEV        MB/SR      MB/SR
         0.      2002.      0.246      0.009
         0.      2012.      0.271      0.010
         0.      2022.      0.268      0.010
         0.      2032.      0.258      0.010
         0.      2042.      0.271      0.010
         0.      2052.      0.279      0.010
         0.      2062.      0.292      0.011
         0.      2072.      0.303      0.011
         0.      2082.      0.316      0.012
         0.      2092.      0.313      0.011
         0.      2102.      0.335      0.012
         0.      2112.      0.326      0.013
         0.      2122.      0.354      0.014
         0.      2132.      0.372      0.015
         0.      2142.      0.375      0.015
         0.      2162.      0.403      0.016
         0.      2182.      0.423      0.016
         0.      2202.      0.466      0.018
         0.      2222.      0.479      0.019
         0.      2242.      0.511      0.019
         0.      2262.      0.551      0.021
         0.      2282.      0.608      0.022
         0.      2302.      0.646      0.024
         0.      2322.      0.701      0.026
         0.      2342.      0.720      0.026
         0.      2362.      0.758      0.028
         0.      2382.      0.824      0.030
         0.      2402.      0.884      0.032
         0.      2422.      0.948      0.034
         0.      2442.      0.984      0.035
         0.      2462.      1.040      0.037
         0.      2482.      1.114      0.040
         0.      2502.      1.137      0.041
         0.      2522.      1.183      0.042
         0.      2542.      1.207      0.043
         0.      2562.      1.274      0.045
         0.      2582.      1.280      0.045
         0.      2602.      1.320      0.046
         0.      2622.      1.318      0.046
         0.      2642.      1.348      0.048
         0.      2662.      1.358      0.048
         0.      2682.      1.383      0.049
         0.      2702.      1.412      0.050
         0.      2722.      1.374      0.049
         0.      2742.      1.411      0.050
         0.      2762.      1.389      0.049
         0.      2782.      1.400      0.049
         0.      2802.      1.399      0.049
         0.      2822.      1.411      0.050
         0.      2842.      1.436      0.051
         0.      2862.      1.384      0.049
         0.      2882.      1.355      0.048
         0.      2902.      1.304      0.046
         0.      2922.      1.337      0.047
         0.      2942.      1.286      0.045
         0.      2982.      1.318      0.047
         0.      3002.      1.345      0.048
         0.      3022.      1.365      0.048
         0.      3042.      1.318      0.047
         0.      3062.      1.365      0.048
         0.      3082.      1.322      0.047
         0.      3102.      1.347      0.048
         0.      3122.      1.419      0.050
         0.      3142.      1.381      0.049
         0.      3162.      1.407      0.050
         0.      3182.      1.435      0.051
         0.      3202.      1.454      0.051
         0.      3222.      1.462      0.051
         0.      3242.      1.488      0.052
         0.      3262.      1.644      0.057
         0.      3282.      1.583      0.056
         0.      3302.      1.609      0.057
         0.      3322.      1.508      0.053
         0.      3342.      1.585      0.056
         0.      3362.      1.665      0.058
         0.      3382.      1.653      0.058
         0.      3402.      1.819      0.063
         0.      3422.      1.744      0.061
         0.      3442.      1.742      0.061
         0.      3462.      1.763      0.062
         0.      3482.      1.861      0.065
         0.      3502.      1.917      0.067
         0.      3522.      1.945      0.068
         0.      3542.      2.000      0.070
         0.      3562.      2.032      0.071
         0.      3582.      2.081      0.073
         0.      3602.      2.152      0.075
         0.      3622.      2.127      0.074
         0.      3642.      2.230      0.077
         0.      3662.      2.329      0.081
         0.      3682.      2.272      0.079
         0.      3702.      2.429      0.084
         0.      3722.      2.524      0.087
         0.      3742.      2.626      0.091
         0.      3762.      2.715      0.094
         0.      3782.      2.875      0.099
         0.      3802.      2.962      0.102
         0.      3822.      3.034      0.104
         0.      3842.      3.361      0.115
         0.      3862.      3.284      0.113
         0.      3882.      3.460      0.119
         0.      3902.      3.643      0.125
         0.      3922.      3.728      0.128
         0.      3942.      3.815      0.131
         0.      3962.      3.950      0.135
         0.      3982.      4.066      0.139
         0.      4002.      4.496      0.153
         0.      4022.      4.686      0.159
         0.      4042.      4.523      0.154
         0.      4062.      4.637      0.158
         0.      4082.      4.690      0.164
         0.      4102.      4.783      0.167
         0.      4122.      4.772      0.167
         0.      4142.      4.864      0.170
         0.      4162.      5.282      0.183
         0.      4182.      5.010      0.174
         0.      4202.      5.078      0.177
         0.      4222.      5.124      0.178
         0.      4242.      5.167      0.179
         0.      4262.      5.542      0.192
         0.      4282.      5.221      0.181
         0.      4302.      5.122      0.178
         0.      4322.      5.289      0.183
         0.      4342.      5.135      0.178
         0.      4362.      5.253      0.182
         0.      4382.      5.111      0.178
         0.      4402.      5.203      0.182
         0.      4422.      5.660      0.196
         0.      4442.      5.534      0.191
         0.      4462.      5.120      0.178
         0.      4482.      5.608      0.194
         0.      4502.      5.212      0.181
         0.      4522.      5.500      0.190
         0.      4542.      5.089      0.178
         0.      4562.      4.966      0.174
         0.      4582.      4.715      0.165
         0.      4602.      5.304      0.184
         0.      4622.      4.863      0.170
         0.      4642.      4.714      0.165
         0.      4662.      5.179      0.180
         0.      4682.      4.525      0.159
         0.      4702.      4.464      0.157
         0.      4722.      4.421      0.155
         0.      4742.      4.302      0.152
         0.      4762.      4.344      0.153
         0.      4782.      4.248      0.150
         0.      4802.      4.274      0.151
         0.      4822.      4.206      0.149
         0.      4842.      4.212      0.149
         0.      4862.      4.171      0.147
         0.      4882.      4.112      0.146
         0.      4902.      4.023      0.142
         0.      4922.      4.156      0.147
         0.      4942.      4.121      0.146
         0.      4962.      4.064      0.144
         0.      4982.      4.066      0.144
         0.      5002.      3.983      0.141
        15.      2000.      0.259      0.011
        15.      2040.      0.285      0.011
        15.      2080.      0.314      0.013
        15.      2120.      0.371      0.014
        15.      2160.      0.395      0.015
        15.      2200.      0.472      0.018
        15.      2240.      0.502      0.019
        15.      2280.      0.643      0.024
        15.      2360.      0.737      0.027
        15.      2400.      0.868      0.031
        15.      2440.      0.963      0.034
        15.      2480.      0.991      0.038
        15.      2520.      1.104      0.043
        15.      2560.      1.149      0.044
        15.      2601.      1.271      0.048
        15.      2641.      1.253      0.047
        15.      2681.      1.315      0.049
        15.      2721.      1.335      0.050
        15.      2761.      1.395      0.052
        15.      2801.      1.379      0.051
        15.      2841.      1.373      0.051
        15.      2881.      1.342      0.050
        15.      2921.      1.342      0.050
        15.      2961.      1.306      0.049
        15.      3001.      1.328      0.050
        15.      3041.      1.297      0.049
        15.      3081.      1.283      0.048
        15.      3121.      1.357      0.051
        15.      3161.      1.317      0.049
        15.      3201.      1.332      0.050
        15.      3241.      1.439      0.055
        15.      3281.      1.496      0.056
        15.      3321.      1.569      0.059
        15.      3361.      1.573      0.059
        15.      3401.      1.664      0.061
        15.      3441.      1.672      0.062
        15.      3481.      1.807      0.066
        15.      3521.      1.828      0.066
        15.      3561.      1.945      0.071
        15.      3601.      2.089      0.076
        15.      3641.      2.130      0.077
        15.      3681.      2.336      0.084
        15.      3721.      2.589      0.093
        15.      3761.      2.808      0.100
        15.      3801.      2.959      0.104
        15.      3841.      3.243      0.115
        15.      3881.      3.515      0.123
        15.      3921.      3.807      0.134
        15.      3961.      4.016      0.140
        15.      4001.      4.255      0.148
        15.      4041.      4.564      0.159
        15.      4081.      4.864      0.168
        15.      4121.      4.977      0.172
        15.      4161.      5.018      0.173
        15.      4201.      5.206      0.180
        15.      4241.      5.184      0.179
        15.      4281.      5.169      0.178
        15.      4321.      5.297      0.183
        15.      4361.      5.260      0.182
        15.      4401.      5.069      0.176
        15.      4441.      5.230      0.181
        15.      4481.      5.165      0.179
        15.      4521.      4.943      0.172
        15.      4561.      4.864      0.168
        15.      4601.      4.659      0.162
        15.      4641.      4.506      0.157
        15.      4681.      4.342      0.152
        15.      4721.      4.113      0.144
        15.      4761.      4.051      0.142
        15.      4801.      3.941      0.139
        15.      4841.      4.012      0.141
        15.      4881.      3.784      0.134
        15.      4921.      3.852      0.136
        15.      4961.      3.725      0.132
        15.      5001.      3.702      0.131
        40.      2000.      0.248      0.011
        40.      2040.      0.295      0.012
        40.      2080.      0.318      0.013
        40.      2120.      0.362      0.014
        40.      2160.      0.413      0.016
        40.      2200.      0.453      0.017
        40.      2240.      0.488      0.018
        40.      2280.      0.594      0.022
        40.      2320.      0.641      0.024
        40.      2360.      0.756      0.028
        40.      2400.      0.843      0.031
        40.      2440.      0.939      0.034
        40.      2480.      1.004      0.039
        40.      2520.      1.099      0.042
        40.      2560.      1.188      0.045
        40.      2601.      1.291      0.048
        40.      2641.      1.276      0.048
        40.      2681.      1.307      0.050
        40.      2721.      1.345      0.051
        40.      2761.      1.362      0.052
        40.      2801.      1.342      0.051
        40.      2841.      1.302      0.048
        40.      2881.      1.339      0.051
        40.      2921.      1.345      0.051
        40.      2961.      1.305      0.050
        40.      3001.      1.308      0.050
        40.      3041.      1.289      0.049
        40.      3081.      1.320      0.050
        40.      3121.      1.314      0.050
        40.      3161.      1.321      0.050
        40.      3201.      1.344      0.051
        40.      3241.      1.453      0.054
        40.      3281.      1.482      0.055
        40.      3321.      1.569      0.058
        40.      3361.      1.597      0.059
        40.      3401.      1.596      0.059
        40.      3441.      1.732      0.064
        40.      3481.      1.799      0.067
        40.      3521.      1.886      0.069
        40.      3561.      1.967      0.072
        40.      3601.      2.063      0.075
        40.      3641.      2.184      0.080
        40.      3681.      2.289      0.083
        40.      3721.      2.503      0.090
        40.      3761.      2.818      0.102
        40.      3801.      2.940      0.106
        40.      3841.      3.320      0.119
        40.      3881.      3.563      0.127
        40.      3921.      3.817      0.135
        40.      3961.      4.060      0.144
        40.      4001.      4.336      0.153
        40.      4041.      4.635      0.164
        40.      4081.      4.889      0.172
        40.      4121.      5.026      0.177
        40.      4161.      5.156      0.181
        40.      4201.      5.229      0.184
        40.      4241.      5.210      0.183
        40.      4281.      5.324      0.187
        40.      4321.      5.331      0.187
        40.      4361.      5.283      0.186
        40.      4401.      5.236      0.184
        40.      4441.      5.182      0.182
        40.      4481.      5.175      0.182
        40.      4521.      5.097      0.179
        40.      4561.      4.850      0.171
        40.      4601.      4.620      0.163
        40.      4641.      4.512      0.160
        40.      4681.      4.380      0.156
        40.      4721.      4.217      0.149
        40.      4761.      4.060      0.144
        40.      4801.      4.075      0.145
        40.      4841.      3.923      0.140
        40.      4881.      3.822      0.136
        40.      4921.      3.851      0.137
        40.      4961.      3.775      0.135
        40.      5001.      3.753      0.134
        55.      2002.      0.259      0.010
        55.      2012.      0.271      0.010
        55.      2022.      0.269      0.010
        55.      2032.      0.278      0.011
        55.      2042.      0.287      0.011
        55.      2052.      0.292      0.011
        55.      2062.      0.301      0.012
        55.      2072.      0.317      0.012
        55.      2082.      0.320      0.012
        55.      2092.      0.330      0.013
        55.      2102.      0.342      0.013
        55.      2112.      0.346      0.014
        55.      2122.      0.375      0.015
        55.      2132.      0.368      0.015
        55.      2142.      0.407      0.016
        55.      2162.      0.416      0.016
        55.      2182.      0.454      0.018
        55.      2202.      0.464      0.018
        55.      2222.      0.513      0.020
        55.      2242.      0.538      0.021
        55.      2262.      0.573      0.022
        55.      2282.      0.635      0.024
        55.      2302.      0.674      0.026
        55.      2322.      0.701      0.027
        55.      2342.      0.747      0.028
        55.      2362.      0.812      0.031
        55.      2382.      0.838      0.032
        55.      2402.      0.901      0.034
        55.      2422.      0.966      0.036
        55.      2442.      1.033      0.038
        55.      2462.      1.045      0.039
        55.      2482.      1.152      0.042
        55.      2502.      1.178      0.043
        55.      2522.      1.233      0.045
        55.      2542.      1.216      0.045
        55.      2562.      1.323      0.049
        55.      2582.      1.322      0.049
        55.      2602.      1.379      0.050
        55.      2622.      1.369      0.050
        55.      2642.      1.382      0.051
        55.      2662.      1.427      0.052
        55.      2682.      1.435      0.052
        55.      2702.      1.452      0.053
        55.      2722.      1.441      0.053
        55.      2742.      1.462      0.053
        55.      2762.      1.461      0.053
        55.      2782.      1.444      0.053
        55.      2802.      1.461      0.053
        55.      2822.      1.448      0.053
        55.      2842.      1.454      0.053
        55.      2862.      1.429      0.052
        55.      2882.      1.425      0.052
        55.      2902.      1.413      0.052
        55.      2922.      1.387      0.051
        55.      2942.      1.335      0.049
        55.      2982.      1.407      0.051
        55.      3002.      1.414      0.052
        55.      3022.      1.414      0.052
        55.      3042.      1.375      0.050
        55.      3062.      1.403      0.051
        55.      3082.      1.409      0.051
        55.      3102.      1.415      0.052
        55.      3122.      1.448      0.053
        55.      3142.      1.447      0.053
        55.      3162.      1.471      0.054
        55.      3182.      1.519      0.056
        55.      3202.      1.498      0.055
        55.      3222.      1.522      0.056
        55.      3242.      1.606      0.059
        55.      3262.      1.635      0.060
        55.      3282.      1.677      0.061
        55.      3302.      1.696      0.062
        55.      3322.      1.602      0.058
        55.      3342.      1.642      0.060
        55.      3362.      1.699      0.062
        55.      3382.      1.739      0.063
        55.      3402.      1.784      0.065
        55.      3422.      1.821      0.066
        55.      3442.      1.807      0.066
        55.      3462.      1.870      0.068
        55.      3482.      1.974      0.071
        55.      3502.      2.007      0.073
        55.      3522.      2.051      0.074
        55.      3542.      2.070      0.075
        55.      3562.      2.146      0.078
        55.      3582.      2.223      0.080
        55.      3602.      2.217      0.080
        55.      3622.      2.261      0.082
        55.      3642.      2.311      0.083
        55.      3662.      2.436      0.088
        55.      3682.      2.455      0.089
        55.      3702.      2.586      0.093
        55.      3722.      2.674      0.096
        55.      3742.      2.762      0.099
        55.      3762.      2.853      0.103
        55.      3782.      3.014      0.108
        55.      3802.      3.134      0.112
        55.      3822.      3.238      0.116
        55.      3842.      3.313      0.119
        55.      3862.      3.449      0.123
        55.      3882.      3.692      0.132
        55.      3902.      3.868      0.138
        55.      3922.      3.936      0.140
        55.      3942.      4.079      0.146
        55.      3962.      4.095      0.146
        55.      3982.      4.229      0.151
        55.      4002.      4.556      0.162
        55.      4022.      4.645      0.166
        55.      4042.      4.855      0.173
        55.      4062.      4.917      0.175
        55.      4082.      5.017      0.181
        55.      4102.      5.162      0.186
        55.      4122.      5.256      0.190
        55.      4142.      5.270      0.191
        55.      4162.      5.341      0.193
        55.      4182.      5.404      0.195
        55.      4202.      5.483      0.198
        55.      4222.      5.511      0.199
        55.      4242.      5.554      0.201
        55.      4262.      5.522      0.199
        55.      4282.      5.631      0.203
        55.      4302.      5.500      0.199
        55.      4322.      5.606      0.202
        55.      4342.      5.585      0.202
        55.      4362.      5.560      0.201
        55.      4382.      5.553      0.201
        55.      4402.      5.567      0.201
        55.      4422.      5.546      0.200
        55.      4442.      5.528      0.200
        55.      4462.      5.554      0.201
        55.      4482.      5.617      0.203
        55.      4502.      5.571      0.201
        55.      4522.      5.434      0.196
        55.      4542.      5.354      0.194
        55.      4562.      5.336      0.193
        55.      4582.      5.121      0.186
        55.      4602.      5.368      0.194
        55.      4622.      5.040      0.183
        55.      4642.      5.043      0.183
        55.      4662.      4.920      0.178
        55.      4682.      4.854      0.176
        55.      4702.      4.748      0.172
        55.      4722.      4.661      0.169
        55.      4742.      4.633      0.168
        55.      4762.      4.629      0.168
        55.      4782.      4.583      0.167
        55.      4802.      4.498      0.164
        55.      4822.      4.478      0.163
        55.      4842.      4.463      0.163
        55.      4862.      4.510      0.164
        55.      4882.      4.381      0.160
        55.      4902.      4.367      0.159
        55.      4922.      4.359      0.159
        55.      4942.      4.394      0.160
        55.      4962.      4.261      0.156
        55.      4982.      4.428      0.161
        55.      5002.      4.331      0.150
        90.      2002.      0.264      0.010
        90.      2012.      0.257      0.010
        90.      2022.      0.262      0.011
        90.      2032.      0.268      0.011
        90.      2042.      0.279      0.011
        90.      2052.      0.287      0.011
        90.      2062.      0.300      0.012
        90.      2072.      0.311      0.013
        90.      2082.      0.326      0.013
        90.      2092.      0.332      0.013
        90.      2102.      0.341      0.013
        90.      2112.      0.365      0.015
        90.      2122.      0.357      0.015
        90.      2132.      0.380      0.016
        90.      2142.      0.371      0.015
        90.      2162.      0.399      0.017
        90.      2182.      0.427      0.018
        90.      2202.      0.459      0.019
        90.      2222.      0.472      0.019
        90.      2242.      0.525      0.021
        90.      2262.      0.549      0.022
        90.      2282.      0.606      0.025
        90.      2302.      0.647      0.026
        90.      2322.      0.696      0.027
        90.      2342.      0.751      0.029
        90.      2362.      0.766      0.029
        90.      2382.      0.826      0.031
        90.      2402.      0.875      0.034
        90.      2422.      0.941      0.036
        90.      2442.      1.007      0.038
        90.      2462.      1.037      0.039
        90.      2482.      1.157      0.043
        90.      2502.      1.120      0.042
        90.      2522.      1.161      0.044
        90.      2542.      1.240      0.046
        90.      2562.      1.233      0.046
        90.      2582.      1.291      0.048
        90.      2602.      1.319      0.049
        90.      2622.      1.338      0.049
        90.      2642.      1.351      0.050
        90.      2662.      1.366      0.050
        90.      2682.      1.398      0.051
        90.      2702.      1.419      0.053
        90.      2722.      1.428      0.053
        90.      2742.      1.407      0.052
        90.      2762.      1.400      0.051
        90.      2782.      1.388      0.051
        90.      2802.      1.428      0.053
        90.      2822.      1.394      0.052
        90.      2842.      1.433      0.053
        90.      2862.      1.416      0.053
        90.      2882.      1.361      0.050
        90.      2902.      1.347      0.050
        90.      2922.      1.336      0.050
        90.      2942.      1.321      0.049
        90.      2982.      1.372      0.051
        90.      3002.      1.404      0.052
        90.      3022.      1.345      0.050
        90.      3042.      1.327      0.050
        90.      3062.      1.336      0.050
        90.      3082.      1.349      0.050
        90.      3102.      1.385      0.052
        90.      3122.      1.394      0.052
        90.      3142.      1.443      0.053
        90.      3162.      1.426      0.053
        90.      3182.      1.446      0.054
        90.      3202.      1.456      0.054
        90.      3222.      1.493      0.055
        90.      3242.      1.571      0.058
        90.      3262.      1.551      0.057
        90.      3282.      1.583      0.059
        90.      3302.      1.596      0.059
        90.      3322.      1.563      0.058
        90.      3342.      1.604      0.059
        90.      3362.      1.623      0.060
        90.      3382.      1.732      0.064
        90.      3402.      1.749      0.064
        90.      3422.      1.747      0.064
        90.      3442.      1.787      0.065
        90.      3462.      1.800      0.066
        90.      3482.      1.909      0.070
        90.      3502.      1.926      0.071
        90.      3522.      2.019      0.074
        90.      3542.      2.034      0.074
        90.      3562.      2.078      0.076
        90.      3582.      2.129      0.078
        90.      3602.      2.157      0.079
        90.      3622.      2.204      0.080
        90.      3642.      2.295      0.083
        90.      3662.      2.362      0.086
        90.      3682.      2.385      0.086
        90.      3702.      2.511      0.090
        90.      3722.      2.571      0.092
        90.      3742.      2.714      0.098
        90.      3762.      2.804      0.101
        90.      3782.      2.900      0.104
        90.      3802.      3.016      0.108
        90.      3822.      3.092      0.110
        90.      3842.      3.235      0.116
        90.      3862.      3.378      0.120
        90.      3882.      3.594      0.128
        90.      3902.      3.754      0.134
        90.      3922.      3.825      0.136
        90.      3942.      3.935      0.140
        90.      3962.      4.001      0.142
        90.      3982.      4.187      0.149
        90.      4002.      4.469      0.158
        90.      4022.      4.489      0.159
        90.      4042.      4.663      0.165
        90.      4062.      4.779      0.169
        90.      4082.      5.062      0.184
        90.      4102.      5.139      0.187
        90.      4122.      5.049      0.184
        90.      4142.      5.336      0.193
        90.      4162.      5.310      0.193
        90.      4182.      5.209      0.189
        90.      4202.      5.334      0.193
        90.      4222.      5.398      0.196
        90.      4242.      5.400      0.196
        90.      4262.      5.318      0.193
        90.      4282.      5.406      0.196
        90.      4302.      5.336      0.193
        90.      4322.      5.589      0.203
        90.      4342.      5.483      0.198
        90.      4362.      5.379      0.195
        90.      4382.      5.486      0.198
        90.      4402.      5.656      0.206
        90.      4422.      5.624      0.205
        90.      4442.      5.459      0.199
        90.      4462.      5.531      0.202
        90.      4482.      5.558      0.202
        90.      4502.      5.371      0.195
        90.      4522.      5.195      0.189
        90.      4542.      5.312      0.194
        90.      4562.      5.254      0.192
        90.      4582.      5.017      0.183
        90.      4602.      4.998      0.184
        90.      4622.      4.966      0.181
        90.      4642.      4.784      0.175
        90.      4662.      4.870      0.178
        90.      4682.      4.726      0.175
        90.      4702.      4.795      0.176
        90.      4722.      4.480      0.166
        90.      4742.      4.544      0.168
        90.      4762.      4.368      0.162
        90.      4782.      4.400      0.165
        90.      4802.      4.397      0.163
        90.      4822.      4.406      0.163
        90.      4842.      4.274      0.161
        90.      4862.      4.336      0.161
        90.      4882.      4.350      0.161
        90.      4902.      4.190      0.156
        90.      4922.      4.224      0.157
        90.      4942.      4.139      0.155
        90.      4962.      4.310      0.162
        90.      4982.      4.232      0.160
        90.      5002.      4.246      0.158
       105.      2000.      0.253      0.010
       105.      2040.      0.278      0.012
       105.      2080.      0.315      0.013
       105.      2120.      0.365      0.014
       105.      2160.      0.407      0.015
       105.      2200.      0.452      0.018
       105.      2240.      0.498      0.019
       105.      2280.      0.583      0.022
       105.      2320.      0.644      0.024
       105.      2360.      0.736      0.027
       105.      2400.      0.819      0.030
       105.      2440.      0.953      0.034
       105.      2480.      1.012      0.039
       105.      2520.      1.106      0.043
       105.      2560.      1.162      0.045
       105.      2601.      1.220      0.046
       105.      2641.      1.254      0.047
       105.      2681.      1.250      0.047
       105.      2721.      1.325      0.049
       105.      2761.      1.307      0.049
       105.      2801.      1.313      0.049
       105.      2841.      1.340      0.050
       105.      2881.      1.309      0.049
       105.      2921.      1.243      0.047
       105.      2961.      1.277      0.048
       105.      3001.      1.266      0.048
       105.      3041.      1.250      0.047
       105.      3081.      1.269      0.048
       105.      3121.      1.280      0.048
       105.      3161.      1.311      0.049
       105.      3201.      1.292      0.049
       105.      3241.      1.384      0.053
       105.      3281.      1.425      0.054
       105.      3321.      1.476      0.056
       105.      3361.      1.576      0.059
       105.      3401.      1.604      0.059
       105.      3441.      1.642      0.061
       105.      3481.      1.776      0.066
       105.      3521.      1.745      0.065
       105.      3561.      1.836      0.068
       105.      3601.      1.897      0.070
       105.      3641.      2.071      0.075
       105.      3681.      2.150      0.079
       105.      3721.      2.379      0.086
       105.      3761.      2.583      0.092
       105.      3801.      2.747      0.099
       105.      3841.      3.205      0.114
       105.      3881.      3.346      0.119
       105.      3921.      3.695      0.130
       105.      3961.      3.907      0.138
       105.      4001.      4.034      0.142
       105.      4041.      4.326      0.151
       105.      4081.      4.662      0.162
       105.      4121.      4.704      0.164
       105.      4161.      4.771      0.166
       105.      4201.      4.873      0.171
       105.      4241.      4.817      0.168
       105.      4281.      4.925      0.171
       105.      4321.      4.796      0.167
       105.      4361.      4.919      0.172
       105.      4401.      4.570      0.160
       105.      4441.      4.622      0.162
       105.      4481.      4.706      0.164
       105.      4521.      4.581      0.160
       105.      4561.      4.365      0.153
       105.      4601.      4.050      0.143
       105.      4641.      3.983      0.141
       105.      4681.      3.835      0.137
       105.      4721.      3.577      0.129
       105.      4761.      3.556      0.128
       105.      4801.      3.551      0.128
       105.      4841.      3.343      0.121
       105.      4881.      3.235      0.118
       105.      4921.      3.142      0.115
       105.      4961.      3.123      0.115
       150.      2000.      0.247      0.010
       150.      2040.      0.285      0.011
       150.      2080.      0.311      0.012
       150.      2120.      0.367      0.014
       150.      2160.      0.391      0.015
       150.      2200.      0.456      0.017
       150.      2240.      0.498      0.018
       150.      2280.      0.561      0.020
       150.      2320.      0.623      0.023
       150.      2360.      0.712      0.025
       150.      2400.      0.806      0.029
       150.      2440.      0.903      0.032
       150.      2480.      1.000      0.037
       150.      2520.      1.042      0.039
       150.      2560.      1.123      0.041
       150.      2601.      1.253      0.046
       150.      2641.      1.226      0.045
       150.      2681.      1.250      0.046
       150.      2721.      1.278      0.047
       150.      2761.      1.340      0.049
       150.      2801.      1.231      0.045
       150.      2841.      1.260      0.046
       150.      2881.      1.232      0.045
       150.      2921.      1.240      0.046
       150.      2961.      1.237      0.046
       150.      3001.      1.232      0.045
       150.      3041.      1.187      0.044
       150.      3081.      1.170      0.044
       150.      3121.      1.209      0.045
       150.      3161.      1.205      0.045
       150.      3201.      1.246      0.046
       150.      3241.      1.267      0.047
       150.      3281.      1.301      0.048
       150.      3321.      1.423      0.052
       150.      3361.      1.432      0.052
       150.      3401.      1.466      0.053
       150.      3441.      1.516      0.056
       150.      3481.      1.642      0.060
       150.      3521.      1.714      0.062
       150.      3561.      1.756      0.063
       150.      3601.      1.866      0.067
       150.      3641.      2.037      0.073
       150.      3681.      2.151      0.077
       150.      3721.      2.347      0.083
       150.      3761.      2.587      0.092
       150.      3801.      2.930      0.103
       150.      3841.      3.414      0.119
       150.      3881.      3.625      0.126
       150.      3921.      3.747      0.131
       150.      3961.      4.217      0.146
       150.      4001.      4.441      0.153
       150.      4041.      4.704      0.163
       150.      4081.      4.993      0.172
       150.      4121.      4.930      0.170
       150.      4161.      4.960      0.171
       150.      4201.      5.118      0.177
       150.      4241.      5.046      0.174
       150.      4281.      5.112      0.176
       150.      4321.      5.050      0.174
       150.      4361.      5.183      0.179
       150.      4401.      4.717      0.164
       150.      4441.      4.920      0.171
       150.      4481.      4.915      0.170
       150.      4521.      4.861      0.169
       150.      4561.      4.745      0.166
       150.      4601.      4.257      0.149
       150.      4641.      4.197      0.147
       150.      4681.      3.983      0.140
       150.      4721.      3.786      0.134
       150.      4761.      3.638      0.129
       150.      4801.      3.527      0.126
       150.      4841.      3.448      0.123
       150.      4881.      3.384      0.121
       150.      4921.      3.377      0.121
       150.      4961.      3.283      0.118
       150.      5001.      3.080      0.112
       165.      2002.      0.243      0.009
       165.      2012.      0.256      0.010
       165.      2022.      0.259      0.010
       165.      2032.      0.267      0.010
       165.      2042.      0.275      0.010
       165.      2052.      0.277      0.010
       165.      2062.      0.281      0.010
       165.      2072.      0.302      0.011
       165.      2082.      0.305      0.011
       165.      2092.      0.318      0.012
       165.      2102.      0.335      0.012
       165.      2112.      0.353      0.013
       165.      2122.      0.356      0.014
       165.      2132.      0.357      0.014
       165.      2142.      0.379      0.015
       165.      2162.      0.393      0.015
       165.      2182.      0.427      0.016
       165.      2202.      0.439      0.017
       165.      2222.      0.489      0.018
       165.      2242.      0.512      0.019
       165.      2262.      0.549      0.021
       165.      2282.      0.587      0.022
       165.      2302.      0.634      0.023
       165.      2322.      0.667      0.024
       165.      2342.      0.723      0.026
       165.      2362.      0.773      0.028
       165.      2382.      0.815      0.029
       165.      2402.      0.856      0.031
       165.      2422.      0.928      0.033
       165.      2442.      0.948      0.034
       165.      2462.      0.990      0.035
       165.      2482.      1.053      0.037
       165.      2502.      1.104      0.039
       165.      2522.      1.176      0.042
       165.      2542.      1.155      0.041
       165.      2562.      1.216      0.043
       165.      2582.      1.226      0.043
       165.      2602.      1.280      0.045
       165.      2622.      1.282      0.045
       165.      2642.      1.288      0.045
       165.      2662.      1.293      0.046
       165.      2682.      1.339      0.047
       165.      2702.      1.358      0.048
       165.      2722.      1.328      0.047
       165.      2742.      1.357      0.048
       165.      2762.      1.347      0.048
       165.      2782.      1.340      0.047
       165.      2802.      1.357      0.048
       165.      2822.      1.345      0.048
       165.      2842.      1.340      0.047
       165.      2862.      1.334      0.047
       165.      2882.      1.248      0.044
       165.      2902.      1.273      0.045
       165.      2922.      1.209      0.043
       165.      2942.      1.201      0.043
       165.      2982.      1.270      0.045
       165.      3002.      1.264      0.045
       165.      3022.      1.264      0.045
       165.      3042.      1.232      0.044
       165.      3062.      1.283      0.046
       165.      3082.      1.228      0.043
       165.      3102.      1.266      0.045
       165.      3122.      1.314      0.047
       165.      3142.      1.312      0.047
       165.      3162.      1.295      0.046
       165.      3182.      1.350      0.048
       165.      3202.      1.356      0.048
       165.      3222.      1.358      0.048
       165.      3242.      1.455      0.051
       165.      3262.      1.454      0.051
       165.      3282.      1.512      0.053
       165.      3302.      1.605      0.057
       165.      3322.      1.447      0.051
       165.      3342.      1.496      0.053
       165.      3362.      1.554      0.055
       165.      3382.      1.591      0.056
       165.      3402.      1.622      0.057
       165.      3422.      1.659      0.058
       165.      3442.      1.686      0.059
       165.      3462.      1.706      0.060
       165.      3482.      1.790      0.063
       165.      3502.      1.818      0.064
       165.      3522.      1.874      0.066
       165.      3542.      1.947      0.068
       165.      3562.      1.989      0.070
       165.      3582.      1.995      0.070
       165.      3602.      2.115      0.074
       165.      3622.      2.114      0.074
       165.      3642.      2.130      0.074
       165.      3662.      2.184      0.076
       165.      3682.      2.297      0.080
       165.      3702.      2.370      0.083
       165.      3722.      2.424      0.084
       165.      3742.      2.523      0.088
       165.      3762.      2.627      0.091
       165.      3782.      2.741      0.095
       165.      3802.      2.991      0.104
       165.      3822.      3.114      0.108
       165.      3842.      3.157      0.110
       165.      3862.      3.220      0.112
       165.      3882.      3.368      0.117
       165.      3902.      3.598      0.125
       165.      3922.      3.646      0.126
       165.      3942.      3.833      0.133
       165.      3962.      3.852      0.133
       165.      3982.      3.978      0.138
       165.      4002.      4.298      0.148
       165.      4022.      4.240      0.146
       165.      4042.      4.514      0.156
       165.      4062.      4.596      0.159
       165.      4082.      4.681      0.165
       165.      4102.      4.558      0.161
       165.      4122.      4.730      0.167
       165.      4142.      4.792      0.169
       165.      4162.      4.788      0.168
       165.      4182.      4.697      0.165
       165.      4202.      4.889      0.172
       165.      4222.      4.975      0.175
       165.      4242.      4.995      0.176
       165.      4262.      5.013      0.176
       165.      4282.      5.022      0.178
       165.      4302.      5.061      0.179
       165.      4322.      4.963      0.176
       165.      4342.      4.903      0.173
       165.      4362.      4.901      0.173
       165.      4382.      4.947      0.174
       165.      4402.      4.886      0.173
       165.      4422.      5.208      0.184
       165.      4442.      4.927      0.174
       165.      4462.      4.932      0.174
       165.      4482.      5.008      0.178
       165.      4502.      5.095      0.181
       165.      4522.      4.966      0.176
       165.      4542.      4.830      0.171
       165.      4562.      4.789      0.170
       165.      4582.      4.442      0.159
       165.      4602.      5.114      0.182
       165.      4622.      5.029      0.179
       165.      4642.      4.699      0.167
       165.      4662.      4.740      0.168
       165.      4682.      4.843      0.173
       165.      4702.      4.601      0.164
       165.      4722.      4.675      0.166
       165.      4742.      4.551      0.162
       165.      4762.      4.312      0.155
       165.      4782.      4.378      0.157
       165.      4802.      4.360      0.156
       165.      4822.      4.280      0.155
       165.      4842.      4.257      0.153
       165.      4862.      4.168      0.150
       165.      4882.      4.027      0.145
       165.      4902.      3.899      0.141
       165.      4922.      3.938      0.143
       165.      4942.      4.078      0.147
       165.      4962.      4.012      0.145
       165.      4982.      4.121      0.150
       165.      5002.      3.909      0.142
ENDDATA            932
ENDSUBENT          944
NOSUBENT      O2254003   20200831   20210105   20210104       O079
NOSUBENT      O2254004   20200831   20210105   20210104       O079
NOSUBENT      O2254005   20200831   20210105   20210104       O079
NOSUBENT      O2254006   20200831   20210105   20210104       O079
NOSUBENT      O2254007   20200831   20210105   20210104       O079
NOSUBENT      O2254008   20200831   20210105   20210104       O079
NOSUBENT      O2254009   20200831   20210105   20210104       O079
SUBENT        O2254010   20200831   20210105   20210104       O079
BIB                  2          3
REACTION   (5-B-10(P,A)4-BE-7,PAR,DA,G)
HISTORY    (20200831A) SD: Data from Subents 011-016 added.
           ERR-T -> ERR-S. Data at 0. degr. added.
ENDBIB               3
COMMON               1          3
E
KEV
429.
ENDCOMMON            3
DATA                 5        930
ANG        EN         EN-ERR     DATA       ERR-S
ADEG       KEV        KEV        MB/SR      MB/SR
         0.      2000.      3.000      4.438      0.054
         0.      2010.      3.020      4.461      0.054
         0.      2020.      3.030      4.421      0.054
         0.      2030.      3.050      4.444      0.054
         0.      2040.      3.060      4.480      0.055
         0.      2050.      3.080      4.435      0.054
         0.      2060.      3.090      4.490      0.055
         0.      2070.      3.110      4.532      0.055
         0.      2080.      3.120      4.570      0.056
         0.      2090.      3.140      4.596      0.056
         0.      2100.      3.150      4.622      0.056
         0.      2110.      3.170      4.648      0.059
         0.      2120.      3.180      4.916      0.062
         0.      2130.      3.200      4.842      0.062
         0.      2140.      3.210      4.809      0.061
         0.      2160.      3.240      4.895      0.062
         0.      2180.      3.270      4.861      0.062
         0.      2200.      3.300      4.956      0.063
         0.      2220.      3.330      5.045      0.064
         0.      2240.      3.360      5.129      0.065
         0.      2260.      3.390      5.118      0.065
         0.      2280.      3.420      5.177      0.066
         0.      2300.      3.450      5.157      0.065
         0.      2320.      3.480      5.275      0.067
         0.      2340.      3.510      5.307      0.067
         0.      2360.      3.540      5.192      0.066
         0.      2380.      3.570      5.497      0.069
         0.      2400.      3.600      5.357      0.068
         0.      2420.      3.630      5.422      0.068
         0.      2440.      3.660      5.385      0.068
         0.      2460.      3.690      5.437      0.068
         0.      2480.      3.720      5.543      0.070
         0.      2500.      3.750      5.510      0.070
         0.      2520.      3.780      5.481      0.069
         0.      2540.      3.810      5.392      0.068
         0.      2560.      3.840      5.440      0.068
         0.      2580.      3.870      5.418      0.068
         0.      2601.      3.900      5.475      0.069
         0.      2621.      3.930      5.519      0.070
         0.      2641.      3.960      5.463      0.069
         0.      2661.      3.990      5.440      0.069
         0.      2681.      4.020      5.568      0.070
         0.      2701.      4.050      5.740      0.072
         0.      2721.      4.080      5.787      0.073
         0.      2741.      4.110      6.111      0.076
         0.      2761.      4.140      5.876      0.074
         0.      2781.      4.170      5.958      0.075
         0.      2801.      4.200      6.116      0.077
         0.      2821.      4.230      6.298      0.079
         0.      2841.      4.260      6.440      0.080
         0.      2861.      4.290      6.479      0.081
         0.      2881.      4.320      6.560      0.082
         0.      2901.      4.350      6.776      0.084
         0.      2921.      4.380      6.944      0.086
         0.      2941.      4.410      7.296      0.090
         0.      2981.      4.470      7.933      0.097
         0.      3001.      4.500      7.605      0.094
         0.      3021.      4.530      7.653      0.095
         0.      3041.      4.560      7.555      0.094
         0.      3061.      4.590      7.567      0.094
         0.      3081.      4.620      7.307      0.090
         0.      3101.      4.650      7.088      0.088
         0.      3121.      4.680      7.027      0.087
         0.      3141.      4.710      6.820      0.085
         0.      3161.      4.740      6.490      0.081
         0.      3181.      4.770      6.348      0.080
         0.      3201.      4.800      6.015      0.076
         0.      3221.      4.830      5.717      0.072
         0.      3241.      4.860      5.698      0.072
         0.      3261.      4.890      5.458      0.069
         0.      3281.      4.920      5.402      0.069
         0.      3301.      4.950      5.155      0.066
         0.      3321.      4.980      4.631      0.060
         0.      3341.      5.010      4.529      0.058
         0.      3361.      5.040      4.498      0.058
         0.      3381.      5.070      4.402      0.057
         0.      3401.      5.100      4.262      0.055
         0.      3421.      5.130      4.093      0.054
         0.      3441.      5.160      3.993      0.052
         0.      3461.      5.190      3.857      0.051
         0.      3481.      5.220      3.933      0.052
         0.      3501.      5.250      3.848      0.051
         0.      3521.      5.280      3.734      0.049
         0.      3541.      5.310      3.666      0.049
         0.      3561.      5.340      3.597      0.048
         0.      3581.      5.370      3.512      0.047
         0.      3601.      5.400      3.403      0.046
         0.      3621.      5.430      3.328      0.045
         0.      3641.      5.460      3.254      0.045
         0.      3661.      5.490      3.260      0.044
         0.      3681.      5.520      3.193      0.043
         0.      3701.      5.550      3.194      0.043
         0.      3721.      5.580      3.190      0.044
         0.      3741.      5.610      3.171      0.044
         0.      3761.      5.640      3.147      0.044
         0.      3781.      5.670      3.267      0.045
         0.      3801.      5.700      3.207      0.044
         0.      3821.      5.730      3.215      0.044
         0.      3841.      5.760      3.125      0.043
         0.      3861.      5.790      3.183      0.044
         0.      3881.      5.820      3.253      0.045
         0.      3901.      5.850      3.336      0.045
         0.      3921.      5.880      3.227      0.044
         0.      3941.      5.910      3.314      0.046
         0.      3961.      5.940      3.357      0.046
         0.      3981.      5.970      3.394      0.047
         0.      4001.      6.000      3.494      0.048
         0.      4021.      6.030      3.526      0.049
         0.      4041.      6.060      3.771      0.051
         0.      4061.      6.090      3.869      0.053
         0.      4081.      6.120      3.940      0.062
         0.      4101.      6.150      4.045      0.065
         0.      4121.      6.180      4.276      0.067
         0.      4141.      6.210      4.575      0.069
         0.      4161.      6.240      4.699      0.070
         0.      4181.      6.270      5.037      0.075
         0.      4201.      6.300      5.285      0.078
         0.      4221.      6.330      5.519      0.080
         0.      4241.      6.360      5.966      0.086
         0.      4261.      6.390      6.186      0.088
         0.      4281.      6.420      6.505      0.093
         0.      4301.      6.450      6.716      0.095
         0.      4321.      6.480      6.820      0.096
         0.      4341.      6.510      6.903      0.096
         0.      4361.      6.540      6.790      0.095
         0.      4381.      6.570      6.696      0.094
         0.      4401.      6.600      6.784      0.095
         0.      4421.      6.630      6.340      0.091
         0.      4441.      6.660      6.162      0.088
         0.      4461.      6.690      6.150      0.087
         0.      4481.      6.720      6.005      0.086
         0.      4501.      6.750      5.789      0.084
         0.      4521.      6.780      5.564      0.082
         0.      4541.      6.810      5.374      0.080
         0.      4561.      6.840      5.208      0.079
         0.      4581.      6.870      5.122      0.076
         0.      4601.      6.900      5.350      0.080
         0.      4621.      6.930      5.237      0.079
         0.      4641.      6.960      5.086      0.076
         0.      4661.      6.990      5.092      0.076
         0.      4681.      7.020      5.115      0.078
         0.      4701.      7.050      5.015      0.077
         0.      4721.      7.080      4.872      0.074
         0.      4741.      7.110      4.869      0.074
         0.      4761.      7.140      4.970      0.075
         0.      4781.      7.170      4.905      0.076
         0.      4801.      7.200      4.783      0.073
         0.      4821.      7.230      4.843      0.074
         0.      4841.      7.260      4.812      0.075
         0.      4861.      7.290      4.896      0.074
         0.      4881.      7.320      4.704      0.072
         0.      4901.      7.350      4.778      0.073
         0.      4921.      7.380      4.674      0.072
         0.      4941.      7.410      4.590      0.071
         0.      4961.      7.440      4.590      0.073
         0.      4981.      7.470      4.622      0.072
         0.      5001.      7.500      4.570      0.073
        15.      2000.      3.000      4.690      0.153
        15.      2040.      3.060      4.803      0.156
        15.      2080.      3.120      4.842      0.158
        15.      2120.      3.180      5.032      0.164
        15.      2160.      3.240      4.930      0.160
        15.      2200.      3.300      5.048      0.164
        15.      2240.      3.360      4.927      0.160
        15.      2280.      3.420      5.234      0.170
        15.      2320.      3.480      4.867      0.158
        15.      2360.      3.540      5.107      0.166
        15.      2400.      3.600      5.116      0.167
        15.      2440.      3.660      5.173      0.168
        15.      2480.      3.720      5.109      0.169
        15.      2520.      3.780      5.138      0.170
        15.      2560.      3.840      5.105      0.169
        15.      2601.      3.900      5.392      0.178
        15.      2641.      3.960      5.265      0.174
        15.      2681.      4.020      5.427      0.179
        15.      2721.      4.080      5.607      0.185
        15.      2761.      4.140      5.793      0.191
        15.      2801.      4.200      6.082      0.201
        15.      2841.      4.260      6.268      0.206
        15.      2881.      4.320      6.698      0.221
        15.      2921.      4.380      7.062      0.232
        15.      2961.      4.440      7.440      0.244
        15.      3001.      4.500      7.668      0.252
        15.      3041.      4.560      7.679      0.252
        15.      3081.      4.620      7.268      0.238
        15.      3121.      4.680      6.849      0.225
        15.      3161.      4.740      6.183      0.204
        15.      3201.      4.800      5.840      0.193
        15.      3241.      4.860      5.504      0.182
        15.      3281.      4.920      5.093      0.169
        15.      3321.      4.980      4.755      0.158
        15.      3361.      5.040      4.371      0.146
        15.      3401.      5.100      4.077      0.137
        15.      3441.      5.160      4.051      0.136
        15.      3481.      5.220      3.728      0.126
        15.      3521.      5.280      3.632      0.123
        15.      3561.      5.340      3.401      0.115
        15.      3601.      5.400      3.307      0.113
        15.      3641.      5.460      3.322      0.113
        15.      3681.      5.520      3.226      0.110
        15.      3721.      5.580      3.238      0.110
        15.      3761.      5.640      3.319      0.113
        15.      3801.      5.700      3.199      0.110
        15.      3841.      5.760      3.409      0.116
        15.      3881.      5.820      3.430      0.117
        15.      3921.      5.880      3.489      0.119
        15.      3961.      5.940      3.454      0.119
        15.      4001.      6.000      3.474      0.119
        15.      4041.      6.060      3.787      0.129
        15.      4081.      6.120      4.089      0.138
        15.      4121.      6.180      4.507      0.152
        15.      4161.      6.240      4.953      0.166
        15.      4201.      6.300      5.719      0.191
        15.      4241.      6.360      6.165      0.205
        15.      4281.      6.420      6.711      0.222
        15.      4321.      6.480      6.932      0.230
        15.      4361.      6.540      7.086      0.235
        15.      4401.      6.600      6.690      0.222
        15.      4441.      6.660      6.369      0.212
        15.      4481.      6.720      5.920      0.197
        15.      4521.      6.780      5.701      0.190
        15.      4561.      6.840      5.359      0.179
        15.      4601.      6.900      5.229      0.175
        15.      4641.      6.960      4.969      0.167
        15.      4681.      7.020      4.990      0.168
        15.      4721.      7.080      4.723      0.160
        15.      4761.      7.140      4.756      0.160
        15.      4801.      7.200      4.744      0.161
        15.      4841.      7.260      4.715      0.160
        15.      4881.      7.320      4.393      0.150
        15.      4921.      7.380      4.393      0.149
        15.      4961.      7.440      4.325      0.148
        15.      5001.      7.500      4.215      0.144
        40.      2000.      3.000      4.671      0.149
        40.      2040.      3.060      4.815      0.154
        40.      2080.      3.120      4.815      0.154
        40.      2120.      3.180      5.031      0.161
        40.      2160.      3.240      4.922      0.157
        40.      2200.      3.300      5.057      0.161
        40.      2240.      3.360      4.920      0.157
        40.      2280.      3.420      5.225      0.167
        40.      2320.      3.480      4.863      0.155
        40.      2360.      3.540      5.140      0.164
        40.      2400.      3.600      5.089      0.162
        40.      2440.      3.660      5.228      0.167
        40.      2480.      3.720      5.143      0.167
        40.      2520.      3.780      5.237      0.170
        40.      2560.      3.840      5.209      0.169
        40.      2601.      3.900      5.466      0.177
        40.      2641.      3.960      5.355      0.173
        40.      2681.      4.020      5.385      0.178
        40.      2761.      4.140      5.792      0.187
        40.      2801.      4.200      6.033      0.195
        40.      2841.      4.260      6.385      0.206
        40.      2881.      4.320      6.684      0.215
        40.      2921.      4.380      7.066      0.227
        40.      2961.      4.440      7.392      0.238
        40.      3001.      4.500      7.756      0.249
        40.      3041.      4.560      7.530      0.242
        40.      3081.      4.620      7.305      0.235
        40.      3121.      4.680      6.851      0.221
        40.      3161.      4.740      6.212      0.201
        40.      3201.      4.800      5.727      0.185
        40.      3241.      4.860      5.406      0.175
        40.      3281.      4.920      4.995      0.162
        40.      3321.      4.980      4.737      0.154
        40.      3361.      5.040      4.410      0.144
        40.      3401.      5.100      4.136      0.135
        40.      3441.      5.160      3.901      0.128
        40.      3481.      5.220      3.777      0.124
        40.      3521.      5.280      3.574      0.118
        40.      3561.      5.340      3.472      0.114
        40.      3601.      5.400      3.374      0.112
        40.      3641.      5.460      3.316      0.110
        40.      3681.      5.520      3.182      0.106
        40.      3721.      5.580      3.309      0.110
        40.      3761.      5.640      3.289      0.109
        40.      3801.      5.700      3.243      0.108
        40.      3841.      5.760      3.374      0.112
        40.      3881.      5.820      3.430      0.114
        40.      3921.      5.880      3.410      0.113
        40.      3961.      5.940      3.379      0.113
        40.      4001.      6.000      3.531      0.118
        40.      4041.      6.060      3.816      0.126
        40.      4081.      6.120      4.067      0.135
        40.      4121.      6.180      4.365      0.144
        40.      4161.      6.240      4.881      0.160
        40.      4201.      6.300      5.494      0.179
        40.      4241.      6.360      6.040      0.196
        40.      4281.      6.420      6.626      0.215
        40.      4321.      6.480      7.014      0.227
        40.      4361.      6.540      6.986      0.226
        40.      4401.      6.600      6.703      0.217
        40.      4441.      6.660      6.181      0.201
        40.      4481.      6.720      5.810      0.189
        40.      4521.      6.780      5.454      0.178
        40.      4561.      6.840      5.280      0.173
        40.      4601.      6.900      5.090      0.167
        40.      4641.      6.960      4.916      0.162
        40.      4681.      7.020      4.878      0.161
        40.      4721.      7.080      4.760      0.157
        40.      4761.      7.140      4.793      0.157
        40.      4801.      7.200      4.560      0.150
        40.      4841.      7.260      4.459      0.147
        40.      4881.      7.320      4.335      0.144
        40.      4921.      7.380      4.416      0.146
        40.      4961.      7.440      4.260      0.141
        40.      5001.      7.500      4.237      0.141
        55.      2000.      3.000      4.656      0.148
        55.      2010.      3.020      4.683      0.149
        55.      2020.      3.030      4.655      0.148
        55.      2030.      3.050      4.648      0.148
        55.      2040.      3.060      4.655      0.148
        55.      2050.      3.080      4.656      0.148
        55.      2060.      3.090      4.720      0.150
        55.      2070.      3.110      4.764      0.152
        55.      2080.      3.120      4.810      0.153
        55.      2090.      3.140      4.823      0.153
        55.      2100.      3.150      4.829      0.154
        55.      2110.      3.170      4.868      0.156
        55.      2120.      3.180      5.110      0.163
        55.      2130.      3.200      5.203      0.166
        55.      2140.      3.210      5.070      0.162
        55.      2160.      3.240      5.101      0.163
        55.      2180.      3.270      5.097      0.163
        55.      2200.      3.300      5.183      0.166
        55.      2220.      3.330      5.255      0.168
        55.      2240.      3.360      5.328      0.170
        55.      2260.      3.390      5.397      0.173
        55.      2280.      3.420      5.451      0.174
        55.      2300.      3.450      5.488      0.175
        55.      2320.      3.480      5.568      0.178
        55.      2340.      3.510      5.548      0.177
        55.      2360.      3.540      5.496      0.176
        55.      2380.      3.570      5.541      0.177
        55.      2400.      3.600      5.559      0.178
        55.      2420.      3.630      5.707      0.182
        55.      2440.      3.660      5.651      0.181
        55.      2460.      3.690      5.641      0.180
        55.      2480.      3.720      5.696      0.182
        55.      2500.      3.750      5.766      0.184
        55.      2520.      3.780      5.829      0.186
        55.      2540.      3.810      5.721      0.183
        55.      2560.      3.840      5.704      0.182
        55.      2580.      3.870      5.734      0.183
        55.      2601.      3.900      5.844      0.187
        55.      2621.      3.930      5.859      0.187
        55.      2641.      3.960      5.825      0.186
        55.      2661.      3.990      5.769      0.184
        55.      2681.      4.020      5.879      0.188
        55.      2701.      4.050      6.029      0.193
        55.      2721.      4.080      6.078      0.194
        55.      2741.      4.110      6.175      0.197
        55.      2761.      4.140      6.242      0.199
        55.      2781.      4.170      6.331      0.202
        55.      2801.      4.200      6.486      0.207
        55.      2821.      4.230      6.678      0.213
        55.      2841.      4.260      6.760      0.216
        55.      2861.      4.290      6.843      0.218
        55.      2881.      4.320      6.913      0.220
        55.      2901.      4.350      7.149      0.228
        55.      2921.      4.380      7.286      0.232
        55.      2941.      4.410      7.372      0.235
        55.      2981.      4.470      7.945      0.253
        55.      3001.      4.500      8.127      0.259
        55.      3021.      4.530      8.088      0.258
        55.      3041.      4.560      7.943      0.253
        55.      3061.      4.590      8.067      0.257
        55.      3081.      4.620      7.785      0.248
        55.      3101.      4.650      7.537      0.240
        55.      3121.      4.680      7.487      0.239
        55.      3141.      4.710      7.194      0.229
        55.      3161.      4.740      6.836      0.218
        55.      3181.      4.770      6.707      0.214
        55.      3201.      4.800      6.449      0.206
        55.      3221.      4.830      6.117      0.195
        55.      3241.      4.860      6.013      0.192
        55.      3261.      4.890      5.850      0.187
        55.      3281.      4.920      5.649      0.181
        55.      3301.      4.950      5.467      0.175
        55.      3321.      4.980      4.922      0.158
        55.      3341.      5.010      4.829      0.155
        55.      3361.      5.040      4.700      0.151
        55.      3381.      5.070      4.585      0.147
        55.      3401.      5.100      4.460      0.143
        55.      3421.      5.130      4.390      0.141
        55.      3441.      5.160      4.190      0.135
        55.      3461.      5.190      4.135      0.133
        55.      3481.      5.220      4.181      0.134
        55.      3501.      5.250      4.041      0.130
        55.      3521.      5.280      3.976      0.128
        55.      3541.      5.310      3.912      0.126
        55.      3561.      5.340      3.779      0.122
        55.      3581.      5.370      3.696      0.119
        55.      3601.      5.400      3.594      0.116
        55.      3621.      5.430      3.543      0.114
        55.      3641.      5.460      3.460      0.112
        55.      3661.      5.490      3.437      0.111
        55.      3681.      5.520      3.330      0.108
        55.      3701.      5.550      3.406      0.110
        55.      3721.      5.580      3.333      0.108
        55.      3741.      5.610      3.332      0.108
        55.      3761.      5.640      3.290      0.106
        55.      3781.      5.670      3.367      0.109
        55.      3801.      5.700      3.375      0.109
        55.      3821.      5.730      3.393      0.110
        55.      3841.      5.760      3.305      0.107
        55.      3861.      5.790      3.320      0.107
        55.      3881.      5.820      3.417      0.111
        55.      3901.      5.850      3.502      0.113
        55.      3921.      5.880      3.477      0.112
        55.      3941.      5.910      3.487      0.113
        55.      3961.      5.940      3.442      0.111
        55.      3981.      5.970      3.517      0.114
        55.      4001.      6.000      3.721      0.120
        55.      4021.      6.030      3.750      0.121
        55.      4041.      6.060      3.918      0.127
        55.      4061.      6.090      4.066      0.131
        55.      4081.      6.120      4.301      0.142
        55.      4101.      6.150      4.392      0.145
        55.      4121.      6.180      4.578      0.151
        55.      4141.      6.210      4.795      0.157
        55.      4161.      6.240      4.939      0.163
        55.      4181.      6.270      5.193      0.170
        55.      4201.      6.300      5.528      0.180
        55.      4221.      6.330      6.005      0.196
        55.      4241.      6.360      6.221      0.202
        55.      4261.      6.390      6.555      0.213
        55.      4281.      6.420      6.904      0.224
        55.      4301.      6.450      7.179      0.233
        55.      4321.      6.480      7.234      0.234
        55.      4341.      6.510      7.296      0.236
        55.      4361.      6.540      7.201      0.233
        55.      4381.      6.570      7.133      0.231
        55.      4401.      6.600      7.057      0.229
        55.      4421.      6.630      6.815      0.221
        55.      4441.      6.660      6.657      0.216
        55.      4461.      6.690      6.476      0.211
        55.      4481.      6.720      6.253      0.203
        55.      4501.      6.750      6.069      0.198
        55.      4521.      6.780      5.742      0.188
        55.      4541.      6.810      5.765      0.188
        55.      4561.      6.840      5.717      0.187
        55.      4581.      6.870      5.502      0.180
        55.      4601.      6.900      5.629      0.184
        55.      4621.      6.930      5.531      0.181
        55.      4641.      6.960      5.508      0.181
        55.      4661.      6.990      5.500      0.180
        55.      4681.      7.020      5.435      0.178
        55.      4701.      7.050      5.277      0.174
        55.      4721.      7.080      5.251      0.173
        55.      4741.      7.110      5.367      0.176
        55.      4761.      7.140      5.209      0.172
        55.      4781.      7.170      5.200      0.171
        55.      4801.      7.200      5.098      0.168
        55.      4821.      7.230      5.141      0.169
        55.      4841.      7.260      5.064      0.167
        55.      4861.      7.290      5.082      0.168
        55.      4881.      7.320      4.927      0.163
        55.      4901.      7.350      4.913      0.163
        55.      4921.      7.380      4.907      0.162
        55.      4941.      7.410      4.904      0.162
        55.      4961.      7.440      4.898      0.162
        55.      4981.      7.470      4.887      0.162
        55.      5001.      7.500      4.828      0.160
        90.      2000.      3.000      4.238      0.149
        90.      2010.      3.020      4.218      0.149
        90.      2020.      3.030      4.234      0.149
        90.      2030.      3.050      4.273      0.151
        90.      2040.      3.060      4.238      0.149
        90.      2050.      3.080      4.268      0.150
        90.      2060.      3.090      4.286      0.151
        90.      2070.      3.110      4.344      0.153
        90.      2080.      3.120      4.390      0.155
        90.      2090.      3.140      4.403      0.155
        90.      2100.      3.150      4.439      0.156
        90.      2110.      3.170      4.470      0.159
        90.      2120.      3.180      4.636      0.165
        90.      2130.      3.200      4.625      0.164
        90.      2140.      3.210      4.621      0.164
        90.      2160.      3.240      4.580      0.162
        90.      2180.      3.270      4.670      0.166
        90.      2200.      3.300      4.818      0.171
        90.      2220.      3.330      4.800      0.170
        90.      2240.      3.360      4.874      0.173
        90.      2260.      3.390      4.922      0.174
        90.      2280.      3.420      4.846      0.172
        90.      2300.      3.450      5.011      0.177
        90.      2320.      3.480      5.041      0.179
        90.      2340.      3.510      5.101      0.181
        90.      2360.      3.540      5.021      0.178
        90.      2380.      3.570      5.035      0.178
        90.      2400.      3.600      5.083      0.180
        90.      2420.      3.630      5.167      0.183
        90.      2440.      3.660      5.116      0.181
        90.      2460.      3.690      5.226      0.185
        90.      2480.      3.720      5.254      0.186
        90.      2500.      3.750      5.235      0.185
        90.      2520.      3.780      5.338      0.189
        90.      2540.      3.810      5.203      0.184
        90.      2560.      3.840      5.243      0.186
        90.      2580.      3.870      5.266      0.187
        90.      2601.      3.900      5.340      0.189
        90.      2621.      3.930      5.373      0.190
        90.      2641.      3.960      5.236      0.186
        90.      2661.      3.990      5.276      0.187
        90.      2681.      4.020      5.418      0.192
        90.      2701.      4.050      5.464      0.193
        90.      2721.      4.080      5.551      0.197
        90.      2741.      4.110      5.677      0.201
        90.      2761.      4.140      5.714      0.202
        90.      2781.      4.170      5.781      0.205
        90.      2801.      4.200      5.907      0.209
        90.      2821.      4.230      6.116      0.216
        90.      2841.      4.260      6.307      0.223
        90.      2861.      4.290      6.327      0.224
        90.      2881.      4.320      6.400      0.226
        90.      2901.      4.350      6.532      0.231
        90.      2921.      4.380      6.783      0.240
        90.      2941.      4.410      6.864      0.242
        90.      2981.      4.470      7.277      0.257
        90.      3001.      4.500      7.413      0.262
        90.      3021.      4.530      7.423      0.262
        90.      3041.      4.560      7.350      0.259
        90.      3061.      4.590      7.418      0.262
        90.      3081.      4.620      7.248      0.256
        90.      3101.      4.650      6.910      0.244
        90.      3121.      4.680      6.983      0.247
        90.      3141.      4.710      6.629      0.234
        90.      3161.      4.740      6.374      0.225
        90.      3181.      4.770      6.135      0.217
        90.      3201.      4.800      5.853      0.207
        90.      3221.      4.830      5.639      0.200
        90.      3241.      4.860      5.495      0.195
        90.      3261.      4.890      5.307      0.188
        90.      3281.      4.920      5.244      0.186
        90.      3301.      4.950      4.995      0.178
        90.      3321.      4.980      4.487      0.160
        90.      3341.      5.010      4.454      0.159
        90.      3361.      5.040      4.324      0.154
        90.      3381.      5.070      4.267      0.152
        90.      3401.      5.100      4.107      0.147
        90.      3421.      5.130      4.097      0.147
        90.      3441.      5.160      3.782      0.135
        90.      3461.      5.190      3.856      0.138
        90.      3481.      5.220      3.797      0.136
        90.      3501.      5.250      3.706      0.133
        90.      3521.      5.280      3.741      0.134
        90.      3541.      5.310      3.630      0.131
        90.      3561.      5.340      3.540      0.127
        90.      3581.      5.370      3.470      0.125
        90.      3601.      5.400      3.383      0.122
        90.      3621.      5.430      3.280      0.118
        90.      3641.      5.460      3.289      0.119
        90.      3661.      5.490      3.229      0.117
        90.      3681.      5.520      3.178      0.115
        90.      3701.      5.550      3.150      0.114
        90.      3721.      5.580      3.163      0.114
        90.      3741.      5.610      3.164      0.114
        90.      3761.      5.640      3.136      0.114
        90.      3781.      5.670      3.186      0.116
        90.      3801.      5.700      3.160      0.115
        90.      3821.      5.730      3.194      0.116
        90.      3841.      5.760      3.098      0.113
        90.      3861.      5.790      3.133      0.114
        90.      3881.      5.820      3.176      0.115
        90.      3901.      5.850      3.194      0.116
        90.      3921.      5.880      3.258      0.118
        90.      3941.      5.910      3.253      0.118
        90.      3961.      5.940      3.232      0.118
        90.      3981.      5.970      3.286      0.120
        90.      4001.      6.000      3.408      0.124
        90.      4021.      6.030      3.419      0.124
        90.      4041.      6.060      3.658      0.132
        90.      4061.      6.090      3.732      0.135
        90.      4081.      6.120      3.867      0.145
        90.      4101.      6.150      4.019      0.152
        90.      4121.      6.180      4.277      0.159
        90.      4141.      6.210      4.469      0.167
        90.      4161.      6.240      4.568      0.170
        90.      4181.      6.270      4.839      0.179
        90.      4201.      6.300      5.141      0.189
        90.      4221.      6.330      5.499      0.202
        90.      4241.      6.360      5.779      0.211
        90.      4261.      6.390      5.886      0.216
        90.      4281.      6.420      6.374      0.232
        90.      4301.      6.450      6.472      0.236
        90.      4321.      6.480      6.561      0.240
        90.      4341.      6.510      6.665      0.242
        90.      4361.      6.540      6.476      0.236
        90.      4381.      6.570      6.568      0.239
        90.      4401.      6.600      6.401      0.233
        90.      4421.      6.630      6.318      0.230
        90.      4441.      6.660      6.085      0.223
        90.      4461.      6.690      5.978      0.219
        90.      4481.      6.720      5.907      0.217
        90.      4501.      6.750      5.820      0.214
        90.      4521.      6.780      5.528      0.204
        90.      4541.      6.810      5.349      0.197
        90.      4561.      6.840      5.216      0.194
        90.      4581.      6.870      5.135      0.191
        90.      4601.      6.900      5.083      0.190
        90.      4621.      6.930      5.021      0.188
        90.      4641.      6.960      4.946      0.185
        90.      4661.      6.990      4.946      0.184
        90.      4681.      7.020      4.971      0.186
        90.      4701.      7.050      4.934      0.185
        90.      4721.      7.080      4.955      0.185
        90.      4741.      7.110      4.734      0.178
        90.      4761.      7.140      4.671      0.175
        90.      4781.      7.170      4.913      0.184
        90.      4801.      7.200      4.728      0.177
        90.      4821.      7.230      4.567      0.173
        90.      4841.      7.260      4.811      0.181
        90.      4861.      7.290      4.492      0.170
        90.      4881.      7.320      4.623      0.175
        90.      4901.      7.350      4.556      0.171
        90.      4921.      7.380      4.492      0.170
        90.      4941.      7.410      4.613      0.174
        90.      4961.      7.440      4.367      0.166
        90.      4981.      7.470      4.290      0.164
        90.      5001.      7.500      4.500      0.171
       105.      2000.      3.000      4.796      0.162
       105.      2040.      3.060      4.971      0.168
       105.      2080.      3.120      4.949      0.167
       105.      2120.      3.180      5.089      0.171
       105.      2160.      3.240      5.023      0.169
       105.      2200.      3.300      5.163      0.174
       105.      2240.      3.360      5.020      0.169
       105.      2280.      3.420      5.275      0.178
       105.      2320.      3.480      4.956      0.167
       105.      2360.      3.540      5.172      0.174
       105.      2400.      3.600      5.131      0.173
       105.      2440.      3.660      5.320      0.179
       105.      2480.      3.720      5.164      0.177
       105.      2520.      3.780      5.309      0.182
       105.      2560.      3.840      5.264      0.180
       105.      2601.      3.900      5.514      0.189
       105.      2641.      3.960      5.297      0.181
       105.      2681.      4.020      5.425      0.186
       105.      2721.      4.080      5.645      0.193
       105.      2761.      4.140      5.812      0.199
       105.      2801.      4.200      6.092      0.208
       105.      2841.      4.260      6.340      0.216
       105.      2881.      4.320      6.648      0.227
       105.      2921.      4.380      7.012      0.239
       105.      2961.      4.440      7.388      0.251
       105.      3001.      4.500      7.691      0.261
       105.      3041.      4.560      7.501      0.255
       105.      3081.      4.620      7.135      0.243
       105.      3121.      4.680      6.751      0.230
       105.      3161.      4.740      6.251      0.214
       105.      3201.      4.800      5.865      0.201
       105.      3241.      4.860      5.381      0.185
       105.      3281.      4.920      4.961      0.171
       105.      3321.      4.980      4.728      0.163
       105.      3361.      5.040      4.364      0.151
       105.      3401.      5.100      4.115      0.143
       105.      3441.      5.160      3.784      0.132
       105.      3481.      5.220      3.722      0.130
       105.      3521.      5.280      3.431      0.121
       105.      3561.      5.340      3.353      0.117
       105.      3601.      5.400      3.112      0.110
       105.      3641.      5.460      3.089      0.109
       105.      3681.      5.520      3.138      0.111
       105.      3721.      5.580      3.077      0.109
       105.      3761.      5.640      3.215      0.114
       105.      3801.      5.700      3.055      0.109
       105.      3841.      5.760      3.345      0.119
       105.      3881.      5.820      3.328      0.119
       105.      3921.      5.880      3.489      0.125
       105.      3961.      5.940      3.389      0.121
       105.      4001.      6.000      3.453      0.123
       105.      4041.      6.060      3.697      0.132
       105.      4081.      6.120      3.955      0.140
       105.      4121.      6.180      4.242      0.149
       105.      4161.      6.240      4.665      0.163
       105.      4201.      6.300      5.258      0.183
       105.      4241.      6.360      5.528      0.192
       105.      4281.      6.420      6.101      0.210
       105.      4321.      6.480      6.296      0.217
       105.      4361.      6.540      6.702      0.231
       105.      4401.      6.600      6.051      0.210
       105.      4441.      6.660      5.795      0.201
       105.      4481.      6.720      5.492      0.191
       105.      4521.      6.780      5.097      0.178
       105.      4561.      6.840      4.958      0.174
       105.      4601.      6.900      4.694      0.165
       105.      4641.      6.960      4.444      0.157
       105.      4681.      7.020      4.413      0.157
       105.      4721.      7.080      4.062      0.146
       105.      4761.      7.140      4.152      0.148
       105.      4801.      7.200      4.223      0.150
       105.      4841.      7.260      4.126      0.148
       105.      4881.      7.320      3.859      0.139
       105.      4921.      7.380      3.800      0.137
       105.      4961.      7.440      3.920      0.141
       105.      5001.      7.500      3.806      0.137
       150.      2000.      3.000      4.606      0.145
       150.      2040.      3.060      4.779      0.150
       150.      2080.      3.120      4.765      0.149
       150.      2120.      3.180      4.965      0.156
       150.      2160.      3.240      4.877      0.153
       150.      2200.      3.300      5.014      0.157
       150.      2240.      3.360      4.862      0.153
       150.      2280.      3.420      5.128      0.161
       150.      2320.      3.480      4.833      0.152
       150.      2360.      3.540      5.014      0.157
       150.      2400.      3.600      4.983      0.156
       150.      2440.      3.660      5.071      0.159
       150.      2480.      3.720      4.979      0.158
       150.      2520.      3.780      5.040      0.160
       150.      2560.      3.840      5.040      0.160
       150.      2601.      3.900      5.343      0.170
       150.      2641.      3.960      5.182      0.165
       150.      2681.      4.020      5.216      0.166
       150.      2721.      4.080      5.438      0.173
       150.      2761.      4.140      5.640      0.179
       150.      2801.      4.200      5.722      0.181
       150.      2841.      4.260      6.132      0.194
       150.      2881.      4.320      6.282      0.199
       150.      2921.      4.380      6.652      0.211
       150.      2961.      4.440      6.978      0.221
       150.      3001.      4.500      7.214      0.228
       150.      3041.      4.560      7.095      0.224
       150.      3081.      4.620      6.648      0.210
       150.      3121.      4.680      6.329      0.200
       150.      3161.      4.740      5.735      0.182
       150.      3201.      4.800      5.308      0.169
       150.      3241.      4.860      5.021      0.160
       150.      3281.      4.920      4.580      0.146
       150.      3321.      4.980      4.476      0.144
       150.      3361.      5.040      4.102      0.132
       150.      3401.      5.100      3.757      0.121
       150.      3441.      5.160      3.556      0.115
       150.      3481.      5.220      3.410      0.110
       150.      3521.      5.280      3.264      0.106
       150.      3561.      5.340      3.082      0.101
       150.      3601.      5.400      3.122      0.102
       150.      3641.      5.460      2.993      0.098
       150.      3681.      5.520      2.942      0.097
       150.      3721.      5.580      2.991      0.098
       150.      3761.      5.640      3.074      0.101
       150.      3801.      5.700      3.221      0.106
       150.      3841.      5.760      3.396      0.112
       150.      3881.      5.820      3.367      0.112
       150.      3921.      5.880      3.444      0.114
       150.      3961.      5.940      3.461      0.115
       150.      4001.      6.000      3.636      0.121
       150.      4041.      6.060      3.788      0.125
       150.      4081.      6.120      4.182      0.137
       150.      4121.      6.180      4.440      0.144
       150.      4161.      6.240      4.680      0.152
       150.      4201.      6.300      5.456      0.176
       150.      4241.      6.360      5.900      0.190
       150.      4281.      6.420      6.444      0.207
       150.      4321.      6.480      6.587      0.212
       150.      4361.      6.540      6.842      0.220
       150.      4401.      6.600      6.199      0.200
       150.      4441.      6.660      5.851      0.190
       150.      4481.      6.720      5.613      0.182
       150.      4521.      6.780      5.432      0.177
       150.      4561.      6.840      4.819      0.159
       150.      4641.      6.960      4.678      0.155
       150.      4681.      7.020      4.681      0.155
       150.      4721.      7.080      4.098      0.140
       150.      4761.      7.140      4.183      0.141
       150.      4801.      7.200      4.160      0.139
       150.      4841.      7.260      4.070      0.137
       150.      4881.      7.320      3.797      0.130
       150.      4921.      7.380      3.864      0.130
       150.      4961.      7.440      3.878      0.131
       150.      5001.      7.500      3.476      0.118
       165.      2000.      3.000      4.479      0.141
       165.      2010.      3.020      4.555      0.143
       165.      2020.      3.030      4.504      0.142
       165.      2030.      3.050      4.531      0.143
       165.      2040.      3.060      4.512      0.142
       165.      2050.      3.080      4.522      0.142
       165.      2060.      3.090      4.550      0.143
       165.      2070.      3.110      4.591      0.145
       165.      2080.      3.120      4.619      0.145
       165.      2090.      3.140      4.661      0.147
       165.      2100.      3.150      4.661      0.147
       165.      2110.      3.170      4.695      0.149
       165.      2120.      3.180      4.975      0.158
       165.      2130.      3.200      4.890      0.155
       165.      2140.      3.210      4.904      0.155
       165.      2160.      3.240      4.913      0.156
       165.      2180.      3.270      4.990      0.158
       165.      2200.      3.300      5.040      0.160
       165.      2220.      3.330      5.079      0.161
       165.      2240.      3.360      5.179      0.164
       165.      2260.      3.390      5.259      0.166
       165.      2280.      3.420      5.249      0.166
       165.      2300.      3.450      5.312      0.168
       165.      2320.      3.480      5.351      0.169
       165.      2340.      3.510      5.370      0.170
       165.      2360.      3.540      5.286      0.167
       165.      2380.      3.570      5.298      0.168
       165.      2400.      3.600      5.404      0.171
       165.      2420.      3.630      5.497      0.174
       165.      2440.      3.660      5.472      0.173
       165.      2460.      3.690      5.451      0.172
       165.      2480.      3.720      5.577      0.176
       165.      2500.      3.750      5.510      0.174
       165.      2520.      3.780      5.575      0.176
       165.      2540.      3.810      5.495      0.174
       165.      2560.      3.840      5.380      0.170
       165.      2580.      3.870      5.489      0.174
       165.      2601.      3.900      5.562      0.176
       165.      2621.      3.930      5.615      0.178
       165.      2641.      3.960      5.414      0.171
       165.      2661.      3.990      5.454      0.173
       165.      2681.      4.020      5.612      0.178
       165.      2701.      4.050      5.738      0.181
       165.      2721.      4.080      5.766      0.182
       165.      2741.      4.110      5.831      0.184
       165.      2761.      4.140      5.845      0.185
       165.      2781.      4.170      5.958      0.188
       165.      2801.      4.200      6.135      0.194
       165.      2821.      4.230      6.311      0.199
       165.      2841.      4.260      6.433      0.203
       165.      2861.      4.290      6.496      0.205
       165.      2881.      4.320      6.464      0.204
       165.      2901.      4.350      6.616      0.209
       165.      2921.      4.380      6.687      0.211
       165.      2941.      4.410      6.770      0.214
       165.      2981.      4.470      7.298      0.230
       165.      3001.      4.500      7.517      0.237
       165.      3021.      4.530      7.427      0.234
       165.      3041.      4.560      7.339      0.232
       165.      3061.      4.590      7.416      0.234
       165.      3081.      4.620      7.095      0.224
       165.      3101.      4.650      6.838      0.216
       165.      3121.      4.680      6.916      0.218
       165.      3141.      4.710      6.659      0.210
       165.      3161.      4.740      6.270      0.198
       165.      3181.      4.770      6.126      0.194
       165.      3201.      4.800      5.905      0.187
       165.      3221.      4.830      5.644      0.179
       165.      3241.      4.860      5.560      0.176
       165.      3261.      4.890      5.386      0.171
       165.      3281.      4.920      5.269      0.167
       165.      3301.      4.950      5.296      0.168
       165.      3321.      4.980      4.523      0.144
       165.      3341.      5.010      4.510      0.143
       165.      3361.      5.040      4.463      0.142
       165.      3381.      5.070      4.340      0.138
       165.      3401.      5.100      4.227      0.134
       165.      3421.      5.130      4.073      0.130
       165.      3441.      5.160      3.831      0.122
       165.      3461.      5.190      3.792      0.121
       165.      3481.      5.220      3.857      0.123
       165.      3501.      5.250      3.777      0.121
       165.      3521.      5.280      3.709      0.118
       165.      3541.      5.310      3.623      0.116
       165.      3561.      5.340      3.539      0.113
       165.      3581.      5.370      3.449      0.110
       165.      3601.      5.400      3.418      0.109
       165.      3621.      5.430      3.353      0.107
       165.      3641.      5.460      3.184      0.102
       165.      3661.      5.490      3.241      0.104
       165.      3681.      5.520      3.148      0.101
       165.      3701.      5.550      3.168      0.102
       165.      3721.      5.580      3.106      0.100
       165.      3741.      5.610      3.117      0.100
       165.      3761.      5.640      3.074      0.099
       165.      3781.      5.670      3.070      0.099
       165.      3801.      5.700      3.238      0.104
       165.      3821.      5.730      3.199      0.103
       165.      3841.      5.760      3.118      0.101
       165.      3861.      5.790      3.132      0.101
       165.      3881.      5.820      3.134      0.101
       165.      3901.      5.850      3.303      0.106
       165.      3921.      5.880      3.210      0.103
       165.      3941.      5.910      3.250      0.105
       165.      3961.      5.940      3.227      0.104
       165.      3981.      5.970      3.223      0.105
       165.      4001.      6.000      3.531      0.114
       165.      4021.      6.030      3.416      0.111
       165.      4041.      6.060      3.742      0.121
       165.      4061.      6.090      3.848      0.124
       165.      4081.      6.120      3.797      0.127
       165.      4101.      6.150      3.942      0.131
       165.      4121.      6.180      4.089      0.136
       165.      4141.      6.210      4.275      0.141
       165.      4161.      6.240      4.570      0.151
       165.      4181.      6.270      4.750      0.156
       165.      4201.      6.300      5.095      0.167
       165.      4221.      6.330      5.417      0.178
       165.      4241.      6.360      5.782      0.189
       165.      4261.      6.390      6.083      0.198
       165.      4281.      6.420      6.389      0.208
       165.      4301.      6.450      6.454      0.210
       165.      4321.      6.480      6.725      0.219
       165.      4341.      6.510      6.641      0.215
       165.      4361.      6.540      6.694      0.217
       165.      4381.      6.570      6.468      0.210
       165.      4401.      6.600      6.367      0.208
       165.      4421.      6.630      6.483      0.211
       165.      4441.      6.660      6.028      0.197
       165.      4461.      6.690      5.932      0.195
       165.      4481.      6.720      5.679      0.186
       165.      4501.      6.750      5.546      0.182
       165.      4521.      6.780      5.462      0.180
       165.      4541.      6.810      5.194      0.172
       165.      4561.      6.840      5.547      0.183
       165.      4581.      6.870      4.952      0.165
       165.      4601.      6.900      5.563      0.184
       165.      4621.      6.930      5.333      0.177
       165.      4641.      6.960      5.311      0.177
       165.      4661.      6.990      5.324      0.177
       165.      4681.      7.020      5.515      0.184
       165.      4701.      7.050      5.283      0.177
       165.      4721.      7.080      5.039      0.169
       165.      4741.      7.110      5.030      0.169
       165.      4761.      7.140      5.017      0.168
       165.      4781.      7.170      5.064      0.171
       165.      4801.      7.200      4.907      0.166
       165.      4821.      7.230      4.958      0.166
       165.      4841.      7.260      4.948      0.167
       165.      4861.      7.290      4.779      0.161
       165.      4881.      7.320      4.542      0.154
       165.      4901.      7.350      4.417      0.149
       165.      4921.      7.380      4.563      0.156
       165.      4941.      7.410      4.451      0.152
       165.      4961.      7.440      4.344      0.150
       165.      4981.      7.470      4.469      0.152
       165.      5001.      7.500      4.413      0.151
ENDDATA            932
ENDSUBENT          944
NOSUBENT      O2254011   20200831   20210105   20210104       O079
NOSUBENT      O2254012   20200831   20210105   20210104       O079
NOSUBENT      O2254013   20200831   20210105   20210104       O079
NOSUBENT      O2254014   20200831   20210105   20210104       O079
NOSUBENT      O2254015   20200831   20210105   20210104       O079
NOSUBENT      O2254016   20200831   20210105   20210104       O079
ENDENTRY            16
