ENTRY            D0033   20060726   20061121   20061120       D048
SUBENT        D0033001   20060726   20061121   20061120       D048
BIB                 13         24
TITLE      Angular distributions of neutrons from the
           3-Li-7(p,n)4-Be-7 reaction near threshold.
AUTHOR     (A.Bergstrom,S.Schwarz,L.G.Stromberg,L.Wallin)
INSTITUTE  (2SWDFOA)
EXP-YEAR   (1967)
REFERENCE  (J,AF,34,153,19670303) graph.only
           (J,AND,15,57,1975) cited as BE67.
           (W,STROMBERG,19720627) num.data sent to Liskien.
SAMPLE     Li-metal target 4 to 6 keV at threshold,evaporated
           on to 0.3 mm Ag-backing.
MONITOR    BEB counter with a 4 inch polythene sphere and a 4 mm
           diam.and 1 mm thick 6-Li(i) scintillator,
           target current integrator.
FACILITY   (VDG,2SWDFOA)
           (VDG,2SWDSWR) for protons energy higher than 2.1 MeV.
METHOD     (TOF)
DETECTOR   (SCIN) Li-6-loaded glass scintillator 1.5 inches diam.
            3/8 inches thick mounted on a 56 avp phototube.
PART-DET   (N)
STATUS     (APRVD) approved by H.Liskien 83/06/24.
HISTORY    (19830204C) DG.-
           (19840309U) DG.-(aprvd) added.cosmetic corrections afte
            author's proof.-
           (20060726A) BIB section upgrated
ENDBIB              24
NOCOMMON             0          0
ENDSUBENT           27
SUBENT        D0033002   20060726   20061121   20061120       D048
BIB                  5         13
REACTION   (3-LI-7(P,N)4-BE-7,,DA)
FLAG       (1.) in the original text the error is excessively high
COMMENT    energy of incident particle is taken as
           1.88 MeV (threshold taken from UCRL-50400 vol.9 1970)
           plus energy above the reaction threshold at which the
           distribution was measured (original data)
ERR-ANALYS attenuation in the target geometry,influence of
           multiple scattering on the efficiency of glass
           scintillators,variation of detector response as a
           function of neutron energy.
STATUS     (TABLE) data taken from priv.comm.by Stromberg to Liski
           72/06/27.it corresponded to the fig.3a,b of Arkiv for
           Fisik 34,(1967),153.
ENDBIB              13
NOCOMMON             0          0
DATA                 5        133
EN         COS-CM     DATA-CM    DATA-ERR   FLAG
MEV        NO-DIM     MB/SR      MB/SR      NO-DIM
1.927       1.00000   18.8970    0.9448
1.927       0.53830   20.9174    1.0450
1.927      -0.08520   22.5073    1.1250
1.927      -0.74270   20.2783    1.0139
2.030       1.00000   15.7616    0.7880
2.030       0.86230   18.6937    0.9346
2.030       0.50210   18.1476    0.9074
2.030       0.04800   20.8618    1.0431
2.030      -0.27080   23.3232    1.1661
2.030      -0.71580   28.2907    1.4145
2.030      -0.84100   29.4382    1.4719
2.030      -0.93890   28.3970    1.4198
2.060       1.00000   14.1779    0.7088
2.060       0.66970   15.4593    0.7729
2.060       0.52650   16.3302               1.
2.060       0.08830   21.3966    1.0698
2.060      -0.22580   24.5974    1.2298
2.060      -0.68310   30.2536    1.5126
2.060      -0.81850   33.1939    1.6596
2.060      -0.92880   32.3439    1.6176
2.075       1.00000   14.4485    0.7224
2.075       0.87270   16.6713    0.8335
2.075       0.53670   19.9269    0.9963
2.075       0.10540   22.2285    1.1114
2.075      -0.20650   24.1857    1.2093
2.075      -0.66810   30.5986    1.5299
2.075      -0.88850   29.5855    1.4793
2.075      -0.92410   28.9265    1.4463
2.085       1.00000   14.6013    0.7301
2.085       0.87450   16.8113    0.8405
2.085       0.54270   20.5813    1.0291
2.085       0.11510   24.4075    1.2204
2.085      -0.19560   25.8803    1.2940
2.085      -0.65980   31.6607    1.5830
2.085      -0.80270   31.3355    1.5667
2.085      -0.92140   32.0645    1.6034
2.105       1.00000   16.8076    0.8404
2.105       0.87760   18.7607    0.9380
2.105       0.81200   17.3600    0.8680
2.105       0.55320   20.2027    1.0101
2.105       0.13280   23.1336    1.1567
2.105      -0.17570   24.4086    1.2204
2.105      -0.64440   29.5952    1.4797
2.105      -0.79200   30.9737    1.5486
2.105      -0.91640   31.1183    1.5559
2.120       1.00000   15.8571    0.7928
2.120       0.56020   22.1709    1.1085
2.120       0.14420   23.7373    1.1868
2.120      -0.16260   26.5897    1.3295
2.120      -0.63420   30.7957    1.5497
2.120      -0.78490   32.6328    1.6316
2.130       1.00000   19.9312    0.9965
2.130       0.88110   21.1334    1.0566
2.130       0.56500   23.1159    1.1558
2.130       0.15230   26.3266    1.3163
2.130      -0.15360   26.5015    1.3251
2.130      -0.62710   30.6273    1.5313
2.130      -0.77980   30.5896    1.5295
2.130      -0.91100   30.3904    1.5195
2.160       1.00000   30.4001    1.5200
2.160       0.88420   29.8085    1.4904
2.160       0.57540   29.7963    1.4898
2.160       0.16990   30.2086    1.5104
2.160      -0.61130   27.8891    1.3944
2.160      -0.76850   31.8311    1.5915
2.160      -0.90530   34.2955    1.7147
2.190       1.00000   41.7938    2.0897
2.190       0.88690   43.0226    2.1511
2.190       0.58480   40.9456    2.0473
2.190       0.18530   36.4051    1.8202
2.190      -0.11580   34.6089    1.7304
2.190      -0.59690   32.8532    1.6426
2.190      -0.75840   32.2887    1.6144
2.230       1.00000   77.3762    3.8688
2.230       0.89010   73.5765    3.6788
2.230       0.59540   62.6338    3.1316
2.230       0.20300   48.8157    2.4408
2.230      -0.18910   30.8779    1.5439
2.230      -0.51350   37.0275    1.8514
2.230      -0.74650   26.0257    1.3013
2.230      -0.89460   24.5366    1.2268
2.252       1.00000   80.8092    4.0404
2.252       0.89150   79.7652    3.9882
2.252       0.59990   69.0557    3.4528
2.252       0.21080   52.7770    2.6388
2.252      -0.18020   32.0529    1.6026
2.252      -0.50570   30.7051    1.5352
2.252      -0.74120   21.0633    1.0531
2.252      -0.89210   19.1753    0.9587
2.272       1.00000   88.7314    4.4365
2.272       0.82260   81.1025    4.0551
2.272       0.60370   67.8065    3.3903
2.272       0.21730   49.6642    2.4832
2.272      -0.07950   30.3324    1.5166
2.272      -0.17230   27.4147    1.3707
2.272      -0.73650   21.0003    1.0500
2.272      -0.89000   20.5404    1.0270
2.293       1.00000   87.0437    4.3522
2.293       0.89380   83.3910    4.1695
2.293       0.60770   65.8535    3.2976
2.293       0.22410   49.9547    2.4977
2.293      -0.16470   27.3703    1.3685
2.293      -0.49210   23.0899    1.1544
2.293      -0.73190   13.5343    0.6767
2.293      -0.88770   10.7785    0.5389
2.310       1.00000   76.6338    3.8317
2.310       0.89470   71.4752    3.0737
2.310       0.61110   61.3905    3.0695
2.310       0.22950   45.4820    2.2741
2.310      -0.06580   32.2277    1.6114
2.310      -0.15760   25.1378    1.2569
2.310      -0.55900   18.4220    0.9211
2.310      -0.72820   13.9939    0.6997
2.310      -0.88590   11.2090    0.5604
2.335       1.00000   76.2208    3.8110
2.335       0.89590   69.5856    3.4793
2.335       0.61500   55.1101    2.7555
2.335       0.23630   42.7507    2.1375
2.335      -0.05650   25.6932    1.2946
2.335      -0.15130   23.9521    1.1976
2.335      -0.54810   14.5036    0.7252
2.335      -0.72300   11.9901    0.5995
2.335      -0.88340    7.5127    0.3756
2.360       1.00000   72.3037    3.6152
2.360       0.89680   65.5790    3.2789
2.360       0.61790   50.9520    2.5476
2.360       0.24130   37.3534    1.3676
2.360      -0.05090   27.1746    1.3587
2.360      -0.14500   23.2971    1.1664
2.360      -0.47470   15.3756    0.7688
2.360      -0.54350   14.4614    0.7230
2.360      -0.71990   11.3930    0.5696
2.360      -0.88170    6.9388    0.3019
ENDDATA            135
ENDSUBENT          153
ENDENTRY             2
