ENTRY            D0037   20230626   20240313   20240313       D139
SUBENT        D0037001   20230626   20240313   20240313       D139
BIB                 10         16
TITLE      7Li(p,n0)7Be angular distribution to Ep = 3.8 MeV
AUTHOR     (C.A.Burke, M.T.Lunnon, H.W.Lefevre)
INSTITUTE  (1USAORE)
REFERENCE  (J,PR/C,10,1299,1974) DA, SIG, Legendre coeff.in figs
           (J,AUJ,22,669,196912) TTY at Ep=2.52,3.45 MeV in figs
           (W,BURKE,1972) PhD.thesis, Univ. Oregon. Table given.
FACILITY   (VDG,1USAORE)
SAMPLE     Li metal ribbon (99.9% pure, ~1 mm thick, 1 cm diam.)
DETECTOR   (SCIN) Plastic scintillator (1.3 cm thick, 6.3 cm diam)
METHOD     (TOF) flight path of up to 3 m
STATUS     (APRVD) Approved by H.Liskien 83/06/24.
HISTORY    (19820218C) DG.-
           (19840309U) DG.-(APRVD) added.-
           (20060726A) BIB section upgraded
           (20170209A) On. Major revision in 004. 005 added.
           (20230626A) VT+On. Revision in 004.
ENDBIB              16
NOCOMMON             0          0
ENDSUBENT           19
SUBENT        D0037002   20170209   20170403   20170328       D108
BIB                  5         12
REACTION   (3-LI-7(P,N)4-BE-7,PAR,DA)
ANALYSIS   Derived from thick target neutron yields
ERR-ANALYS (DATA-ERR) Uncertainties include:
               * current integration,
               * counting statistics,
               * corrections in collimator-flight path,
               * source scattering,
               * lithium resonance scattering.
STATUS     (TABLE) private communication to Liskien.
            Corresponded to Fig.7 of Phys.Rev.C10(1974)1299.
           (DEP,D0037005) Neutron thick target yield
HISTORY    (20170209U) On. ANALYSIS added.
ENDBIB              12
COMMON               2          3
ANG        E-LVL
ADEG       MEV
 0.         0.
ENDCOMMON            3
DATA                 3        192
EN         DATA       DATA-ERR
MEV        MB/SR      MB/SR
 1.890      141.2      17.5
 1.900      106.3       9.4
 1.910       91.8       6.8
 1.920       80.9       5.6
 1.930       71.9       4.6
 1.940       64.5       4.1
 1.950       58.4       3.6
 1.960       55.2       3.3
 1.970       49.6       2.9
 1.980       47.6       2.8
 1.990       44.5       2.7
 2.000       41.1       2.5
 2.010       37.6       2.5
 2.020       33.9       2.2
 2.030       32.6       2.0
 2.040       30.0       1.7
 2.050       28.8       1.5
 2.060       28.6       1.5
 2.070       28.4       1.5
 2.080       28.1       1.4
 2.090       29.7       1.5
 2.100       31.7       1.6
 2.110       33.2       1.6
 2.120       37.3       1.8
 2.130       41.1       1.9
 2.140       46.1       2.1
 2.150       52.3       2.4
 2.160       58.9       2.7
 2.170       66.2       3.0
 2.180       74.4       3.3
 2.190       85.1       3.8
 2.200       97.4       4.3
 2.210      110.2       4.8
 2.220      122.0       5.2
 2.230      134.5       5.7
 2.240      144.2       6.1
 2.250      152.8       6.4
 2.260      159.0       6.7
 2.270      162.1       6.8
 2.280      164.0       6.8
 2.290      162.0       6.7
 2.300      157.5       6.5
 2.310      153.5       6.3
 2.320      149.5       6.1
 2.330      142.4       5.8
 2.340      139.2      15.0
 2.350      135.9      14.6
 2.360      132.4      14.3
 2.370      128.8      13.9
 2.380      125.2      13.5
 2.390      121.6      13.1
 2.400      117.9      12.7
 2.410      114.1      12.3
 2.420      110.4      11.9
 2.430      106.6      11.5
 2.440      102.9       4.2
 2.450       99.5       4.1
 2.460       96.5       4.0
 2.470       93.8       3.9
 2.480       91.1       3.8
 2.490       89.0       3.7
 2.500       86.9       3.6
 2.510       84.7       3.5
 2.520       82.6       3.4
 2.530       80.7       3.4
 2.540       78.7       3.3
 2.550       77.3       3.2
 2.560       75.9       3.2
 2.570       75.1       3.2
 2.580       73.6       3.1
 2.590       72.5       3.1
 2.600       70.9       3.0
 2.610       69.9       3.0
 2.620       68.9       2.9
 2.630       68.1       2.9
 2.640       67.4       2.8
 2.650       66.6       2.8
 2.660       65.9       2.8
 2.670       65.3       2.7
 2.680       64.9       2.7
 2.690       64.1       2.7
 2.700       63.6       2.6
 2.710       62.6       2.6
 2.720       61.9       2.6
 2.730       61.3       2.5
 2.740       60.8       2.5
 2.750       60.6       2.5
 2.760       60.0       2.5
 2.770       59.5       2.4
 2.780       59.3       3.8
 2.790       59.1       3.8
 2.800       58.8       3.8
 2.810       58.5       3.8
 2.820       58.2       3.7
 2.830       57.9       3.7
 2.840       57.5       3.7
 2.850       57.2       3.7
 2.860       56.9       3.7
 2.870       56.5       3.6
 2.880       56.3       3.6
 2.890       56.0       3.6
 2.900       55.6       3.6
 2.910       55.3       3.6
 2.920       55.0       3.5
 2.930       54.7       3.5
 2.940       54.4       3.5
 2.950       54.1       3.5
 2.960       53.8       3.5
 2.970       53.4       3.5
 2.980       53.1       3.4
 2.990       52.8       2.2
 3.000       52.5       2.2
 3.010       52.2       2.2
 3.020       52.0       2.2
 3.030       51.8       2.2
 3.040       51.9       2.2
 3.050       51.7       2.2
 3.060       51.4       2.2
 3.070       51.0       2.2
 3.080       51.0       2.2
 3.090       50.8       2.2
 3.100       50.7       2.2
 3.110       50.4       2.2
 3.120       50.2       2.2
 3.130       50.0       2.2
 3.140       49.9       2.2
 3.150       49.9       2.2
 3.160       49.8       2.2
 3.170       49.6       2.2
 3.180       49.4       2.1
 3.190       49.4       2.2
 3.200       49.2       2.2
 3.210       49.0       2.2
 3.220       48.8       2.2
 3.230       48.5       2.2
 3.240       48.1       2.1
 3.250       48.1       2.1
 3.260       47.7       2.1
 3.270       47.6       2.1
 3.280       47.5       3.2
 3.290       47.4       3.2
 3.300       47.2       3.2
 3.310       47.0       3.2
 3.320       46.9       3.2
 3.330       46.7       3.2
 3.340       46.5       3.2
 3.350       46.4       3.2
 3.360       46.2       3.1
 3.370       46.1       3.1
 3.380       46.0       3.1
 3.390       45.9       3.1
 3.400       45.8       3.1
 3.410       45.7       3.2
 3.420       45.6       3.2
 3.430       45.4       3.2
 3.440       45.3       3.2
 3.450       45.2       3.2
 3.460       45.1       3.2
 3.470       45.0       3.2
 3.480       44.9       3.2
 3.490       44.8       3.2
 3.500       44.8       2.3
 3.510       45.0       2.3
 3.520       44.9       2.4
 3.530       44.7       2.4
 3.540       44.5       2.5
 3.550       44.3       2.5
 3.560       44.3       2.5
 3.570       44.0       2.5
 3.580       44.2       2.5
 3.590       44.1       2.5
 3.600       44.1       2.5
 3.610       44.1       2.6
 3.620       43.8       2.7
 3.630       43.9       2.8
 3.640       43.6       2.8
 3.650       43.3       2.8
 3.660       43.1       2.8
 3.670       42.8       2.8
 3.680       42.5       2.9
 3.690       42.5       3.0
 3.700       42.3       3.1
 3.710       42.1       3.3
 3.720       42.0       3.4
 3.730       41.9       3.5
 3.740       41.8       3.6
 3.750       41.7       3.8
 3.760       42.0       4.2
 3.770       41.9       4.6
 3.780       41.7       5.2
 3.790       41.4       6.1
 3.800       40.9       7.7
ENDDATA            194
ENDSUBENT          215
SUBENT        D0037003   20170209   20170403   20170328       D108
BIB                  3         10
REACTION   (3-LI-7(P,N)4-BE-7,PAR,SIG)
ERR-ANALYS (DATA-ERR) Uncertainties include:
               * current integration,
               * counting statistics,
               * corrections in collimator-flight path,
               * source scattering,
               * lithium resonance scattering.
STATUS     (TABLE) private communication to Liskien.
            Corresponded to Fig.9 of Phys.Rev.C10(1974)1299.
           (DEP,D0037002) Angular differential cross section
ENDBIB              10
COMMON               1          3
E-LVL
MEV
 0.
ENDCOMMON            3
DATA                 3        172
EN         DATA       DATA-ERR
MEV        MB         MB
 2.09       311.2       0.7
 2.10       320.5       0.8
 2.11       326.7       0.7
 2.12       340.5       0.7
 2.13       354.2       0.8
 2.14       366.9       0.9
 2.15       387.4       1.0
 2.16       413.1       1.1
 2.17       431.2       1.2
 2.18       453.2       1.3
 2.19       484.2       1.3
 2.20       503.3       1.3
 2.21       513.1       1.2
 2.22       537.0       1.2
 2.23       559.0       1.2
 2.24       564.7       1.2
 2.25       561.1       1.1
 2.26       557.6       1.1
 2.27       553.3       1.1
 2.28       543.1       1.0
 2.29       523.5       1.0
 2.30       504.5       1.0
 2.31       486.6       1.0
 2.32       467.4       0.9
 2.33       445.7       0.9
 2.34       437.9      12.9
 2.35       430.2      12.6
 2.36       422.2      12.4
 2.37       414.2      12.1
 2.38       405.8      11.8
 2.39       397.2      11.5
 2.40       388.5      11.3
 2.41       379.8      11.0
 2.42       370.8      10.7
 2.43       361.6      10.4
 2.44       352.6       0.8
 2.45       347.4       0.8
 2.46       342.2       0.8
 2.47       338.2       0.8
 2.48       333.8       0.8
 2.49       329.6       0.7
 2.50       324.8       0.7
 2.51       321.1       0.7
 2.52       317.9       0.7
 2.53       315.4       0.7
 2.54       311.8       0.7
 2.55       309.3       0.7
 2.56       307.3       0.7
 2.57       305.7       0.7
 2.58       303.5       0.7
 2.59       301.1       0.7
 2.60       299.3       0.7
 2.61       297.3       0.7
 2.62       295.2       0.7
 2.63       293.3       0.7
 2.64       292.5       0.7
 2.65       291.1       0.7
 2.66       289.6       0.7
 2.67       288.1       0.7
 2.68       286.6       0.7
 2.69       285.0       0.7
 2.70       283.8       0.7
 2.71       281.5       0.7
 2.72       280.2       0.7
 2.73       276.9       0.7
 2.74       275.9       0.7
 2.75       275.2       0.7
 2.76       272.9       0.7
 2.77       271.0       0.7
 2.78       270.5       3.7
 2.79       270.0       3.7
 2.80       269.5       3.6
 2.81       269.0       3.6
 2.82       268.4       3.6
 2.83       267.8       3.6
 2.84       267.1       3.6
 2.85       266.5       3.6
 2.86       265.9       3.6
 2.87       265.2       3.6
 2.88       264.7       3.6
 2.89       263.8       3.6
 2.90       263.1       3.5
 2.91       262.3       3.5
 2.92       261.6       3.5
 2.93       260.9       3.5
 2.94       260.0       3.5
 2.95       259.2       3.5
 2.96       258.3       3.5
 2.97       257.4       3.4
 2.98       256.5       3.4
 2.99       255.8       0.7
 3.00       254.8       0.7
 3.01       254.3       0.7
 3.02       253.0       0.7
 3.03       252.3       0.7
 3.04       251.8       0.6
 3.05       251.5       0.6
 3.06       250.5       0.6
 3.07       249.4       0.6
 3.08       248.7       0.6
 3.09       248.2       0.6
 3.10       247.9       0.6
 3.11       247.1       0.6
 3.12       246.4       0.6
 3.13       245.9       0.6
 3.14       245.0       0.6
 3.15       243.7       0.6
 3.16       242.9       0.6
 3.17       243.0       0.6
 3.18       242.7       0.6
 3.19       242.2       0.6
 3.20       242.0       0.6
 3.21       241.4       0.6
 3.22       240.7       0.6
 3.23       239.9       0.6
 3.24       239.2       0.6
 3.25       238.4       0.6
 3.26       237.4       0.6
 3.27       236.6       0.6
 3.28       236.4       3.1
 3.29       236.5       3.1
 3.30       236.5       3.1
 3.31       236.6       3.1
 3.32       236.6       3.1
 3.33       236.5       3.1
 3.34       236.6       3.1
 3.35       236.5       3.1
 3.36       236.5       3.1
 3.37       236.6       3.1
 3.38       236.6       6.1
 3.39       236.5       3.1
 3.40       236.5       3.1
 3.41       236.6       3.1
 3.42       236.5       3.1
 3.43       236.5       3.1
 3.44       236.7       3.1
 3.45       236.5       3.1
 3.46       236.5       3.1
 3.47       236.6       3.1
 3.48       236.6       3.1
 3.49       236.6       3.1
 3.50       236.8       0.7
 3.51       236.3       0.7
 3.52       236.1       0.7
 3.53       236.2       0.7
 3.54       236.3       0.7
 3.55       236.4       0.7
 3.56       236.0       0.7
 3.57       235.6       0.7
 3.58       235.6       0.7
 3.59       235.9       0.7
 3.60       235.7       0.7
 3.61       235.9       0.7
 3.62       235.4       0.7
 3.63       235.3       0.7
 3.64       234.9       0.7
 3.65       234.4       0.7
 3.66       234.0       0.7
 3.67       234.1       0.7
 3.68       233.9       0.7
 3.69       234.0       0.7
 3.70       233.7       0.7
 3.71       233.5       0.7
 3.72       232.9       0.7
 3.73       232.4       0.7
 3.74       232.0       0.7
 3.75       231.8       0.7
 3.76       231.4       0.7
 3.77       231.0       0.7
 3.78       230.2       0.7
 3.79       229.2       0.7
 3.80       228.0       0.7
ENDDATA            174
ENDSUBENT          193
SUBENT        D0037004   20230626   20240313   20240313       D139
BIB                  5         17
REACTION   (3-LI-7(P,N)4-BE-7,PAR,DA,,LEG/4PI)
            dsig/dOmega=(1/4pi)(a0*P0+a1*P1+a2*P2), i.e.,a0=sig
COMMENT    By compiler (2017-02-09):
            There might be some typos in numbers because of
            poor quality of the original document kept at NDS.
ERR-ANALYS (DATA-ERR) Uncertainties include:
               * current integration,
               * counting statistics,
               * corrections in collimator-flight path,
               * source scattering,
               * lithium resonance scattering.
STATUS     (TABLE) private communication to Liskien.
            Corresponded to Fig.10 of Phys.Rev.C10(1974)1299.
           (DEP,D0037002) Angular differential cross section
HISTORY    (20170209A) On. Data received from Liskien restored.
           (20230626A) VT+On. REACTION: SF8: FCT->4PI and
           DATA: NUMBER-CM -> NUMBER replaced.
ENDBIB              17
COMMON               1          3
E-LVL
MEV
 0.
ENDCOMMON            3
DATA                 4        516
NUMBER     EN         DATA-CM    DATA-ERR
NO-DIM     MEV        MB         MB
         0.       2.09      311.2        0.7
         0.       2.10      320.5        0.8
         0.       2.11      326.7        0.7
         0.       2.12      340.5        0.7
         0.       2.13      354.2        0.8
         0.       2.14      366.9        0.9
         0.       2.15      387.4        1.0
         0.       2.16      413.1        1.1
         0.       2.17      431.2        1.2
         0.       2.18      453.2        1.3
         0.       2.19      484.2        1.3
         0.       2.20      503.3        1.3
         0.       2.21      513.1        1.2
         0.       2.22      537.0        1.2
         0.       2.23      559.0        1.2
         0.       2.24      564.7        1.2
         0.       2.25      561.1        1.1
         0.       2.26      557.6        1.1
         0.       2.27      553.3        1.1
         0.       2.28      543.1        1.0
         0.       2.29      523.5        1.0
         0.       2.30      504.5        1.0
         0.       2.31      486.6        1.0
         0.       2.32      467.4        0.9
         0.       2.33      445.7        0.9
         0.       2.34      437.9       12.9
         0.       2.35      430.2       12.6
         0.       2.36      422.2       12.4
         0.       2.37      414.2       12.1
         0.       2.38      405.8       11.8
         0.       2.39      397.2       11.5
         0.       2.40      388.5       11.3
         0.       2.41      379.8       11.0
         0.       2.42      370.8       10.7
         0.       2.43      361.6       10.4
         0.       2.44      352.6        0.8
         0.       2.45      347.4        0.8
         0.       2.46      342.2        0.8
         0.       2.47      338.2        0.8
         0.       2.48      333.8        0.8
         0.       2.49      329.6        0.7
         0.       2.50      324.8        0.7
         0.       2.51      321.1        0.7
         0.       2.52      317.9        0.7
         0.       2.53      315.4        0.7
         0.       2.54      311.8        0.7
         0.       2.55      309.3        0.7
         0.       2.56      307.3        0.7
         0.       2.57      305.7        0.7
         0.       2.58      303.5        0.7
         0.       2.59      301.1        0.7
         0.       2.60      299.3        0.7
         0.       2.61      297.3        0.7
         0.       2.62      295.2        0.7
         0.       2.63      293.3        0.7
         0.       2.64      292.5        0.7
         0.       2.65      291.1        0.7
         0.       2.66      289.6        0.7
         0.       2.67      288.1        0.7
         0.       2.68      286.6        0.7
         0.       2.69      285.0        0.7
         0.       2.70      283.8        0.7
         0.       2.71      281.5        0.7
         0.       2.72      280.2        0.7
         0.       2.73      276.9        0.7
         0.       2.74      275.9        0.7
         0.       2.75      275.2        0.7
         0.       2.76      272.9        0.7
         0.       2.77      271.0        0.7
         0.       2.78      270.5        3.7
         0.       2.79      270.0        3.7
         0.       2.80      269.5        3.6
         0.       2.81      269.0        3.6
         0.       2.82      268.4        3.6
         0.       2.83      267.8        3.6
         0.       2.84      267.1        3.6
         0.       2.85      266.5        3.6
         0.       2.86      265.9        3.6
         0.       2.87      265.2        3.6
         0.       2.88      264.7        3.6
         0.       2.89      263.8        3.6
         0.       2.90      263.1        3.5
         0.       2.91      262.3        3.5
         0.       2.92      261.6        3.5
         0.       2.93      260.9        3.5
         0.       2.94      260.0        3.5
         0.       2.95      259.2        3.5
         0.       2.96      258.3        3.5
         0.       2.97      257.4        3.4
         0.       2.98      256.5        3.4
         0.       2.99      255.8        0.7
         0.       3.00      254.8        0.7
         0.       3.01      254.3        0.7
         0.       3.02      253.0        0.7
         0.       3.03      252.3        0.7
         0.       3.04      251.8        0.6
         0.       3.05      251.5        0.6
         0.       3.06      250.5        0.6
         0.       3.07      249.4        0.6
         0.       3.08      248.7        0.6
         0.       3.09      248.2        0.6
         0.       3.10      247.9        0.6
         0.       3.11      247.1        0.6
         0.       3.12      246.4        0.6
         0.       3.13      245.9        0.6
         0.       3.14      245.0        0.6
         0.       3.15      243.7        0.6
         0.       3.16      242.9        0.6
         0.       3.17      243.0        0.6
         0.       3.18      242.7        0.6
         0.       3.19      242.2        0.6
         0.       3.20      242.0        0.6
         0.       3.21      241.4        0.6
         0.       3.22      240.7        0.6
         0.       3.23      239.9        0.6
         0.       3.24      239.2        0.6
         0.       3.25      238.4        0.6
         0.       3.26      237.4        0.6
         0.       3.27      236.6        0.6
         0.       3.28      236.4        3.1
         0.       3.29      236.5        3.1
         0.       3.30      236.5        3.1
         0.       3.31      236.6        3.1
         0.       3.32      236.6        3.1
         0.       3.33      236.5        3.1
         0.       3.34      236.6        3.1
         0.       3.35      236.5        3.1
         0.       3.36      236.5        3.1
         0.       3.37      236.6        3.1
         0.       3.38      236.6        3.1
         0.       3.39      236.5        3.1
         0.       3.40      236.5        3.1
         0.       3.41      236.6        3.1
         0.       3.42      236.5        3.1
         0.       3.43      236.5        3.1
         0.       3.44      236.7        3.1
         0.       3.45      236.5        3.1
         0.       3.46      236.5        3.1
         0.       3.47      236.6        3.1
         0.       3.48      236.6        3.1
         0.       3.49      236.6        3.1
         0.       3.50      236.8        0.7
         0.       3.51      236.3        0.7
         0.       3.52      236.1        0.7
         0.       3.53      236.2        0.7
         0.       3.54      236.3        0.7
         0.       3.55      236.4        0.7
         0.       3.56      236.0        0.7
         0.       3.57      235.6        0.7
         0.       3.58      235.6        0.7
         0.       3.59      235.9        0.7
         0.       3.60      235.7        0.7
         0.       3.61      235.9        0.7
         0.       3.62      235.4        0.7
         0.       3.63      235.3        0.7
         0.       3.64      234.9        0.7
         0.       3.65      234.4        0.7
         0.       3.66      234.0        0.7
         0.       3.67      234.1        0.7
         0.       3.68      233.9        0.7
         0.       3.69      234.0        0.7
         0.       3.70      233.7        0.7
         0.       3.71      233.5        0.7
         0.       3.72      232.9        0.7
         0.       3.73      232.4        0.7
         0.       3.74      232.0        0.7
         0.       3.75      231.8        0.7
         0.       3.76      231.4        0.7
         0.       3.77      231.0        0.7
         0.       3.78      230.2        0.7
         0.       3.79      229.2        0.7
         0.       3.80      228.0        0.7
         1.       2.09     -107.2        0.9
         1.       2.10     -112.1        0.9
         1.       2.11     -108.6        0.9
         1.       2.12     -103.9        0.9
         1.       2.13      -96.8        1.0
         1.       2.14      -85.3        1.2
         1.       2.15      -70.3        1.6
         1.       2.16      -54.7        1.9
         1.       2.17      -26.4        2.1
         1.       2.18        6.2        2.2
         1.       2.19       43.0        2.3
         1.       2.20       93.3        2.3
         1.       2.21      151.7        2.4
         1.       2.22      204.0        2.4
         1.       2.23      261.0        2.3
         1.       2.24      316.9        2.3
         1.       2.25      369.1        2.2
         1.       2.26      412.7        2.2
         1.       2.27      441.8        2.1
         1.       2.28      458.6        2.0
         1.       2.29      468.1        1.8
         1.       2.30      468.4        1.8
         1.       2.31      464.9        1.7
         1.       2.32      456.2        1.6
         1.       2.33      438.5        1.6
         1.       2.34      431.0       21.8
         1.       2.35      422.1       21.4
         1.       2.36      412.3       21.0
         1.       2.37      401.9       20.5
         1.       2.38      391.2       20.1
         1.       2.39      379.7       19.6
         1.       2.40      367.9       19.1
         1.       2.41      355.7       18.5
         1.       2.42      342.9       18.0
         1.       2.43      330.0       17.5
         1.       2.44      316.5        1.3
         1.       2.45      307.4        1.3
         1.       2.46      298.6        1.3
         1.       2.47      289.1        1.3
         1.       2.48      280.2        1.3
         1.       2.49      270.9        1.3
         1.       2.50      264.6        1.3
         1.       2.51      257.3        1.3
         1.       2.52      249.3        1.3
         1.       2.53      241.5        1.3
         1.       2.54      234.3        1.2
         1.       2.55      229.9        1.2
         1.       2.56      226.0        1.2
         1.       2.57      222.1        1.2
         1.       2.58      216.5        1.2
         1.       2.59      211.5        1.2
         1.       2.60      206.3        1.2
         1.       2.61      202.5        1.2
         1.       2.62      198.7        1.2
         1.       2.63      195.2        1.2
         1.       2.64      192.4        1.2
         1.       2.65      188.2        1.1
         1.       2.66      185.3        1.1
         1.       2.67      183.5        1.1
         1.       2.68      181.7        1.1
         1.       2.69      179.2        1.1
         1.       2.70      176.5        1.1
         1.       2.71      173.2        1.1
         1.       2.72      170.6        1.1
         1.       2.73      169.1        1.1
         1.       2.74      167.1        1.1
         1.       2.75      165.1        1.1
         1.       2.76      162.7        1.1
         1.       2.77      160.0        1.1
         1.       2.78      160.0        5.5
         1.       2.79      159.9        5.5
         1.       2.80      159.7        5.5
         1.       2.81      159.4        5.4
         1.       2.82      159.0        5.4
         1.       2.83      158.6        5.4
         1.       2.84      158.1        5.4
         1.       2.85      157.7        5.4
         1.       2.86      157.2        5.4
         1.       2.87      156.8        5.3
         1.       2.88      156.5        5.3
         1.       2.89      155.7        5.3
         1.       2.90      155.2        5.3
         1.       2.91      154.7        5.2
         1.       2.92      154.2        5.2
         1.       2.93      153.6        5.2
         1.       2.94      153.0        5.2
         1.       2.95      152.4        5.2
         1.       2.96      151.7        5.1
         1.       2.97      151.1        5.1
         1.       2.98      150.5        5.1
         1.       2.99      149.9        1.1
         1.       3.00      149.2        1.1
         1.       3.01      149.2        1.1
         1.       3.02      149.1        1.1
         1.       3.03      148.1        1.1
         1.       3.04      146.9        1.1
         1.       3.05      147.0        1.1
         1.       3.06      146.7        1.1
         1.       3.07      146.0        1.1
         1.       3.08      144.8        1.1
         1.       3.09      144.8        1.1
         1.       3.10      146.9        1.1
         1.       3.11      144.2        1.1
         1.       3.12      143.2        1.1
         1.       3.13      142.7        1.1
         1.       3.14      142.2        1.1
         1.       3.15      141.2        1.1
         1.       3.16      140.1        1.0
         1.       3.17      139.4        1.0
         1.       3.18      139.4        1.0
         1.       3.19      138.0        1.0
         1.       3.20      138.2        1.0
         1.       3.21      138.0        1.0
         1.       3.22      137.6        1.0
         1.       3.23      137.1        1.0
         1.       3.24      136.0        1.0
         1.       3.25      134.9        1.0
         1.       3.26      133.2        1.0
         1.       3.27      132.1        1.0
         1.       3.28      131.8        4.6
         1.       3.29      131.2        4.6
         1.       3.30      130.5        4.6
         1.       3.31      129.8        4.6
         1.       3.32      129.0        4.6
         1.       3.33      128.3        4.6
         1.       3.34      127.5        4.6
         1.       3.35      126.8        4.6
         1.       3.36      126.0        4.6
         1.       3.37      125.3        4.6
         1.       3.38      124.5        4.6
         1.       3.39      124.0        4.6
         1.       3.40      123.3        4.6
         1.       3.41      122.4        4.6
         1.       3.42      121.7        4.6
         1.       3.43      120.9        4.6
         1.       3.44      120.1        4.6
         1.       3.45      119.6        4.6
         1.       3.46      118.8        4.6
         1.       3.47      118.1        4.6
         1.       3.48      117.3        4.6
         1.       3.49      116.6        4.6
         1.       3.50      115.9        1.1
         1.       3.51      115.3        1.1
         1.       3.52      114.9        1.1
         1.       3.53      114.1        1.1
         1.       3.54      113.1        1.1
         1.       3.55      111.3        1.1
         1.       3.56      110.3        1.1
         1.       3.57      109.4        1.1
         1.       3.58      109.1        1.1
         1.       3.59      108.6        1.1
         1.       3.60      108.1        1.1
         1.       3.61      107.1        1.1
         1.       3.62      106.0        1.1
         1.       3.63      105.2        1.1
         1.       3.64      104.5        1.1
         1.       3.65      103.7        1.1
         1.       3.66      102.5        1.1
         1.       3.67      101.2        1.1
         1.       3.68      100.5        1.1
         1.       3.69      100.3        1.1
         1.       3.70       99.4        1.1
         1.       3.71       97.3        1.1
         1.       3.72       96.0        1.1
         1.       3.73       95.0        1.1
         1.       3.74       94.8        1.1
         1.       3.75       93.8        1.1
         1.       3.76       93.4        1.1
         1.       3.77       92.4        1.1
         1.       3.78       91.2        1.1
         1.       3.79       90.1        1.1
         1.       3.80       88.7        1.1
         2.       2.09      -33.1        1.2
         2.       2.10      -23.7        1.2
         2.       2.11      -15.6        1.2
         2.       2.12      -13.3        1.2
         2.       2.13       -3.4        1.2
         2.       2.14        8.4        1.4
         2.       2.15       19.6        1.6
         2.       2.16       26.1        1.5
         2.       2.17       33.2        2.0
         2.       2.18       38.9        2.1
         2.       2.19       37.1        2.2
         2.       2.20       53.3        2.2
         2.       2.21       74.7        2.2
         2.       2.22       86.0        2.2
         2.       2.23       90.3        2.3
         2.       2.24      103.9        2.3
         2.       2.25      118.8        2.3
         2.       2.26      122.7        2.2
         2.       2.27      123.1        2.2
         2.       2.28      129.7        2.1
         2.       2.29      129.8        2.0
         2.       2.30      133.9        1.9
         2.       2.31      128.4        1.8
         2.       2.32      122.6        1.8
         2.       2.33      122.2        1.7
         2.       2.34      120.8       15.8
         2.       2.35      119.1       15.7
         2.       2.36      116.8       15.5
         2.       2.37      114.2       15.3
         2.       2.38      111.2       15.1
         2.       2.39      107.9       15.0
         2.       2.40      104.5       14.7
         2.       2.41      100.6       14.3
         2.       2.42       97.0       14.3
         2.       2.43       93.1       14.1
         2.       2.44       89.2        1.6
         2.       2.45       85.4        1.6
         2.       2.46       80.6        1.5
         2.       2.47       77.1        1.5
         2.       2.48       72.8        1.5
         2.       2.49       71.4        1.5
         2.       2.50       69.9        1.5
         2.       2.51       67.2        1.5
         2.       2.52       62.7        1.5
         2.       2.53       60.5        1.5
         2.       2.54       57.2        1.5
         2.       2.55       55.2        1.5
         2.       2.56       52.9        1.5
         2.       2.57       50.8        1.4
         2.       2.58       48.7        1.4
         2.       2.59       47.6        1.4
         2.       2.60       45.0        1.4
         2.       2.61       42.9        1.4
         2.       2.62       41.6        1.4
         2.       2.63       39.6        1.4
         2.       2.64       37.5        1.4
         2.       2.65       36.6        1.4
         2.       2.66       36.0        1.4
         2.       2.67       35.3        1.4
         2.       2.68       34.9        1.4
         2.       2.69       34.6        1.4
         2.       2.70       34.4        1.3
         2.       2.71       33.6        1.3
         2.       2.72       32.5        1.3
         2.       2.73       31.2        1.3
         2.       2.74       31.2        1.3
         2.       2.75       31.6        1.3
         2.       2.76       31.3        1.3
         2.       2.77       31.1        1.3
         2.       2.78       31.2        5.9
         2.       2.79       31.2        5.9
         2.       2.80       31.3        5.9
         2.       2.81       31.3        5.9
         2.       2.82       31.3        5.9
         2.       2.83       31.1        5.8
         2.       2.84       31.0        5.8
         2.       2.85       30.4        5.8
         2.       2.86       30.2        5.8
         2.       2.87       30.0        5.7
         2.       2.88       29.8        5.7
         2.       2.89       29.7        5.7
         2.       2.90       29.4        5.7
         2.       2.91       29.3        5.6
         2.       2.92       28.8        5.6
         2.       2.93       28.7        5.6
         2.       2.94       28.5        5.6
         2.       2.95       28.3        5.6
         2.       2.96       28.1        5.5
         2.       2.97       27.9        5.5
         2.       2.98       27.6        5.5
         2.       2.99       27.4        1.3
         2.       3.00       27.1        1.3
         2.       3.01       27.6        1.3
         2.       3.02       27.5        1.3
         2.       3.03       27.9        1.3
         2.       3.04       27.6        1.3
         2.       3.05       28.2        1.3
         2.       3.06       28.1        1.3
         2.       3.07       28.0        1.3
         2.       3.08       27.8        1.3
         2.       3.09       27.7        1.3
         2.       3.10       27.1        1.3
         2.       3.11       27.6        1.3
         2.       3.12       27.7        1.3
         2.       3.13       28.0        1.2
         2.       3.14       27.8        1.2
         2.       3.15       28.4        1.2
         2.       3.16       29.2        1.2
         2.       3.17       28.8        1.2
         2.       3.18       28.7        1.2
         2.       3.19       27.4        1.2
         2.       3.20       27.9        1.2
         2.       3.21       27.8        1.2
         2.       3.22       27.9        1.2
         2.       3.23       28.5        1.2
         2.       3.24       28.6        1.2
         2.       3.25       28.7        1.2
         2.       3.26       28.8        1.2
         2.       3.27       29.5        1.2
         2.       3.28       29.8        5.1
         2.       3.29       30.1        5.1
         2.       3.30       30.3        5.1
         2.       3.31       30.3        5.1
         2.       3.32       30.6        5.1
         2.       3.33       30.7        5.1
         2.       3.34       30.5        5.1
         2.       3.35       30.5        5.2
         2.       3.36       30.8        5.2
         2.       3.37       30.8        5.2
         2.       3.38       31.0        5.2
         2.       3.39       31.2        5.2
         2.       3.40       31.3        5.2
         2.       3.41       31.3        5.2
         2.       3.42       31.7        5.2
         2.       3.43       31.8        5.2
         2.       3.44       31.8        5.2
         2.       3.45       31.9        5.2
         2.       3.46       32.1        5.2
         2.       3.47       32.2        5.2
         2.       3.48       32.5        5.2
         2.       3.49       32.6        5.2
         2.       3.50       32.9        1.4
         2.       3.51       34.2        1.4
         2.       3.52       35.4        1.4
         2.       3.53       36.1        1.4
         2.       3.54       35.6        1.4
         2.       3.55       35.4        1.4
         2.       3.56       35.7        1.4
         2.       3.57       35.6        1.4
         2.       3.58       37.0        1.4
         2.       3.59       37.1        1.4
         2.       3.60       37.4        1.4
         2.       3.61       37.6        1.4
         2.       3.62       38.4        1.4
         2.       3.63       39.4        1.4
         2.       3.64       40.5        1.4
         2.       3.65       40.8        1.4
         2.       3.66       40.9        1.3
         2.       3.67       41.5        1.4
         2.       3.68       42.2        1.3
         2.       3.69       42.8        1.3
         2.       3.70       43.6        1.3
         2.       3.71       44.5        1.3
         2.       3.72       46.1        1.3
         2.       3.73       45.7        1.3
         2.       3.74       46.3        1.3
         2.       3.75       46.9        1.3
         2.       3.76       48.3        1.3
         2.       3.77       49.4        1.3
         2.       3.78       50.7        1.3
         2.       3.79       51.2        1.3
         2.       3.80       51.0        1.3
ENDDATA            518
ENDSUBENT          544
SUBENT        D0037005   20170209   20170403   20170328       D108
BIB                  3          3
REACTION   (3-LI-7(P,N)4-BE-7,,MLT/DA/DE,,TT)
STATUS     (CURVE) Figs.1+3 of Austral.J.Phys.22(1969)669
HISTORY    (20170209C) On+BL+SD
ENDBIB               3
COMMON               1          3
ANG
ADEG
 0.
ENDCOMMON            3
DATA                 3        434
EN         E          DATA
MEV        MEV        P/IN/MEVSR
 2.52       0.299       16.1749
 2.52       0.301       16.9355
 2.52       0.304       15.5868
 2.52       0.306       17.8657
 2.52       0.309       16.0952
 2.52       0.311       16.4339
 2.52       0.314       16.8569
 2.52       0.316       16.7738
 2.52       0.319       14.9191
 2.52       0.321       15.6795
 2.52       0.324       17.1149
 2.52       0.326       15.7661
 2.52       0.329       16.3579
 2.52       0.331       17.6244
 2.52       0.334       16.0227
 2.52       0.338       16.1089
 2.52       0.342       16.6170
 2.52       0.344       18.6427
 2.52       0.346       17.3784
 2.52       0.349       16.8736
 2.52       0.351       19.4897
 2.52       0.354       19.9972
 2.52       0.356       18.3955
 2.52       0.359       19.4934
 2.52       0.362       19.4106
 2.52       0.363       20.1704
 2.52       0.367       20.0032
 2.52       0.369       20.0889
 2.52       0.371       21.1018
 2.52       0.374       21.1879
 2.52       0.376       23.1291
 2.52       0.379       22.2022
 2.52       0.382       22.7942
 2.52       0.384       23.8075
 2.52       0.387       24.8212
 2.52       0.389       26.1719
 2.52       0.392       26.2579
 2.52       0.394       27.6088
 2.52       0.396       28.9595
 2.52       0.400       28.9611
 2.52       0.401       30.8178
 2.52       0.404       30.5661
 2.52       0.407       30.7363
 2.52       0.410       33.8588
 2.52       0.412       33.1005
 2.52       0.415       33.4395
 2.52       0.417       35.8023
 2.52       0.420       35.8039
 2.52       0.423       39.2639
 2.52       0.425       37.4934
 2.52       0.428       40.6160
 2.52       0.430       37.8332
 2.52       0.432       40.8714
 2.52       0.435       40.2821
 2.52       0.438       41.8863
 2.52       0.440       42.3092
 2.52       0.443       47.5407
 2.52       0.445       45.8548
 2.52       0.447       47.9647
 2.52       0.451       48.3881
 2.52       0.453       49.1483
 2.52       0.455       52.6927
 2.52       0.458       55.0559
 2.52       0.460       55.8165
 2.52       0.463       57.2518
 2.52       0.466       60.7118
 2.52       0.468       62.5688
 2.52       0.470       60.2923
 2.52       0.473       61.8119
 2.52       0.475       66.9591
 2.52       0.478       65.1888
 2.52       0.480       68.3957
 2.52       0.483       71.9399
 2.52       0.485       74.0499
 2.52       0.488       74.1356
 2.52       0.491       74.2214
 2.52       0.493       77.4282
 2.52       0.495       78.1884
 2.52       0.498       79.4552
 2.52       0.500       81.9029
 2.52       0.503       82.7476
 2.52       0.505       84.6891
 2.52       0.508       89.1614
 2.52       0.510       89.7531
 2.52       0.513       88.1515
 2.52       0.516       90.9366
 2.52       0.518       92.0345
 2.52       0.520       93.3009
 2.52       0.523       92.6275
 2.52       0.526       92.5442
 2.52       0.528       95.8355
 2.52       0.530       93.1369
 2.52       0.533       93.3915
 2.52       0.535       96.4294
 2.52       0.538       97.2742
 2.52       0.541       98.0348
 2.52       0.543       95.1678
 2.52       0.546       95.7595
 2.52       0.548       97.2791
 2.52       0.551       98.9675
 2.52       0.553       97.0282
 2.52       0.556       97.1140
 2.52       0.558       95.5123
 2.52       0.564       95.2616
 2.52       0.566       97.3717
 2.52       0.568       92.9018
 2.52       0.571       93.4934
 2.52       0.573       92.1449
 2.52       0.575       90.2898
 2.52       0.579       90.4602
 2.52       0.582       90.4617
 2.52       0.586       90.4638
 2.52       0.588       89.6211
 2.52       0.591       87.2602
 2.52       0.593       91.0577
 2.52       0.596       87.0096
 2.52       0.598       89.4568
 2.52       0.601       89.7115
 2.52       0.603       87.8566
 2.52       0.606       84.5677
 2.52       0.608       86.8467
 2.52       0.611       84.4014
 2.52       0.614       81.3657
 2.52       0.616       82.0416
 2.52       0.618       77.8247
 2.52       0.621       82.1284
 2.52       0.624       81.5393
 2.52       0.626       78.9250
 2.52       0.628       77.0699
 2.52       0.631       77.4088
 2.52       0.633       76.4819
 2.52       0.636       75.1334
 2.52       0.638       73.6161
 2.52       0.640       72.1829
 2.52       0.643       72.0156
 2.52       0.646       72.0169
 2.52       0.648       72.0180
 2.52       0.651       71.6819
 2.52       0.653       71.6830
 2.52       0.656       70.2499
 2.52       0.658       68.8168
 2.52       0.661       68.8183
 2.52       0.663       69.0724
 2.52       0.665       68.3985
 2.52       0.668       67.3874
 2.52       0.671       67.3889
 2.52       0.673       66.3773
 2.52       0.676       65.7882
 2.52       0.678       64.1865
 2.52       0.680       62.0786
 2.52       0.682       63.0917
 2.52       0.685       63.0931
 2.52       0.688       63.0947
 2.52       0.691       61.9991
 2.52       0.693       59.9755
 2.52       0.696       61.0736
 2.52       0.698       62.1712
 2.52       0.701       62.2571
 2.52       0.703       60.9081
 2.52       0.705       60.4032
 2.52       0.708       58.9704
 2.52       0.711       56.8626
 2.52       0.713       56.9482
 2.52       0.716       57.1181
 2.52       0.718       56.3599
 2.52       0.721       55.2645
 2.52       0.724       54.8439
 2.52       0.727       55.3517
 2.52       0.731       54.6787
 2.52       0.734       55.1862
 2.52       0.736       52.4876
 2.52       0.738       53.5010
 2.52       0.741       52.9120
 2.52       0.744       52.3225
 2.52       0.746       51.9018
 2.52       0.749       49.7940
 2.52       0.751       50.4701
 2.52       0.753       48.4466
 2.52       0.755       47.3508
 2.52       0.759       47.3523
 2.52       0.761       47.4379
 2.52       0.763       44.0644
 2.52       0.766       40.6912
 2.52       0.768       36.6431
 2.52       0.770       31.5824
 2.52       0.773       24.8346
 2.52       0.775       16.5684
 2.52       0.777       10.6642
 2.52       0.780        6.1100
 2.52       0.782        3.3270
 2.52       0.784        1.3877
 2.52       0.786        0.8822
 2.52       0.788        0.3772
 3.45       0.303       14.1153
 3.45       0.311       14.9723
 3.45       0.318       14.9770
 3.45       0.324       17.1093
 3.45       0.331       15.1992
 3.45       0.341       15.8446
 3.45       0.348       18.1897
 3.45       0.358       19.0478
 3.45       0.361       19.6884
 3.45       0.367       20.7570
 3.45       0.374       21.6127
 3.45       0.379       22.4673
 3.45       0.382       23.1079
 3.45       0.391       26.0925
 3.45       0.400       27.5889
 3.45       0.409       31.4245
 3.45       0.414       32.9173
 3.45       0.419       33.7719
 3.45       0.423       34.8392
 3.45       0.430       39.0992
 3.45       0.435       40.3793
 3.45       0.438       42.2965
 3.45       0.445       43.1923
 3.45       0.450       45.6083
 3.45       0.455       47.5604
 3.45       0.460       50.5331
 3.45       0.465       54.6193
 3.45       0.470       58.4270
 3.45       0.475       60.8436
 3.45       0.480       63.6307
 3.45       0.486       66.3256
 3.45       0.491       68.5561
 3.45       0.496       71.4360
 3.45       0.501       76.7283
 3.45       0.506       81.7429
 3.45       0.511       83.1382
 3.45       0.516       85.2759
 3.45       0.522       87.8780
 3.45       0.527       90.3868
 3.45       0.531       92.2456
 3.45       0.537       93.5487
 3.45       0.541       95.5930
 3.45       0.546       97.1740
 3.45       0.552       97.8276
 3.45       0.557       98.3879
 3.45       0.561      100.1534
 3.45       0.567       99.4158
 3.45       0.581       95.6214
 3.45       0.591       95.4425
 3.45       0.598       93.8703
 3.45       0.603       92.2966
 3.45       0.607       91.4641
 3.45       0.613       89.8909
 3.45       0.617       87.9449
 3.45       0.623       87.4857
 3.45       0.629       85.3557
 3.45       0.634       82.9469
 3.45       0.643       81.3758
 3.45       0.647       78.9659
 3.45       0.653       77.9494
 3.45       0.658       77.3963
 3.45       0.662       74.3375
 3.45       0.673       73.8813
 3.45       0.677       72.1209
 3.45       0.682       71.5678
 3.45       0.688       68.9740
 3.45       0.694       68.7930
 3.45       0.702       68.4271
 3.45       0.704       67.4080
 3.45       0.710       66.7631
 3.45       0.721       64.7290
 3.45       0.728       63.3424
 3.45       0.732       62.7888
 3.45       0.738       62.3290
 3.45       0.747       61.5929
 3.45       0.757       61.5073
 3.45       0.762       59.5624
 3.45       0.773       58.7346
 3.45       0.781       58.6480
 3.45       0.786       56.9809
 3.45       0.797       56.1536
 3.45       0.803       55.2304
 3.45       0.816       55.5180
 3.45       0.824       54.5031
 3.45       0.830       54.1360
 3.45       0.836       53.6762
 3.45       0.848       52.6638
 3.45       0.861       52.3947
 3.45       0.869       51.9365
 3.45       0.872       50.6396
 3.45       0.877       50.6432
 3.45       0.882       51.6674
 3.45       0.892       51.1179
 3.45       0.902       51.3102
 3.45       0.910       51.0375
 3.45       0.917       50.2076
 3.45       0.924       50.3983
 3.45       0.931       50.4962
 3.45       0.937       50.3148
 3.45       0.945       49.9488
 3.45       0.955       50.0488
 3.45       0.963       50.2400
 3.45       0.971       50.3385
 3.45       0.979       49.6024
 3.45       0.983       48.7699
 3.45       0.989       49.6091
 3.45       0.993       48.3132
 3.45       0.998       48.8735
 3.45       1.003       47.5776
 3.45       1.010       47.3972
 3.45       1.014       46.5652
 3.45       1.022       47.0348
 3.45       1.030       46.9471
 3.45       1.037       46.2100
 3.45       1.044       45.8440
 3.45       1.050       46.1265
 3.45       1.057       45.9461
 3.45       1.065       45.7657
 3.45       1.071       45.1203
 3.45       1.076       44.6600
 3.45       1.084       44.7584
 3.45       1.090       44.3919
 3.45       1.095       45.2301
 3.45       1.103       44.4007
 3.45       1.113       45.1507
 3.45       1.119       43.9486
 3.45       1.129       43.9558
 3.45       1.142       44.0573
 3.45       1.151       44.0640
 3.45       1.164       44.0728
 3.45       1.170       44.0774
 3.45       1.177       44.1753
 3.45       1.185       44.1810
 3.45       1.193       44.1867
 3.45       1.201       44.1918
 3.45       1.209       44.1975
 3.45       1.215       44.0160
 3.45       1.222       43.9284
 3.45       1.229       43.9336
 3.45       1.238       43.8470
 3.45       1.244       44.6867
 3.45       1.250       44.5052
 3.45       1.253       43.8578
 3.45       1.260       44.4196
 3.45       1.271       44.4274
 3.45       1.278       44.4325
 3.45       1.284       43.1371
 3.45       1.288       43.8825
 3.45       1.294       43.1443
 3.45       1.297       42.9613
 3.45       1.306       43.4314
 3.45       1.312       43.3428
 3.45       1.317       42.6041
 3.45       1.322       42.0510
 3.45       1.329       41.4989
 3.45       1.335       40.9469
 3.45       1.342       40.3948
 3.45       1.348       39.8422
 3.45       1.354       39.1045
 3.45       1.364       39.4824
 3.45       1.374       39.4896
 3.45       1.384       39.6824
 3.45       1.392       39.1313
 3.45       1.400       38.7658
 3.45       1.408       38.7715
 3.45       1.415       39.5184
 3.45       1.423       39.1535
 3.45       1.430       39.1581
 3.45       1.439       39.0715
 3.45       1.447       39.0777
 3.45       1.455       39.0833
 3.45       1.464       39.0895
 3.45       1.471       39.0019
 3.45       1.479       39.1003
 3.45       1.487       39.1983
 3.45       1.493       39.2029
 3.45       1.501       39.2086
 3.45       1.508       39.3993
 3.45       1.515       39.9606
 3.45       1.523       39.5952
 3.45       1.529       39.3209
 3.45       1.536       39.2333
 3.45       1.543       39.4235
 3.45       1.553       39.5235
 3.45       1.561       40.0859
 3.45       1.571       39.7219
 3.45       1.577       39.7261
 3.45       1.586       39.7328
 3.45       1.594       39.7384
 3.45       1.602       39.2802
 3.45       1.610       39.0075
 3.45       1.620       39.4786
 3.45       1.626       39.0188
 3.45       1.636       39.3966
 3.45       1.645       39.3106
 3.45       1.652       38.3879
 3.45       1.663       38.4878
 3.45       1.673       38.2172
 3.45       1.681       37.7584
 3.45       1.688       37.3925
 3.45       1.697       37.2131
 3.45       1.704       36.8471
 3.45       1.713       36.8538
 3.45       1.722       36.0249
 3.45       1.730       35.8450
 3.45       1.736       35.1068
 3.45       1.740       34.4604
 3.45       1.743       33.9980
 3.45       1.748       33.4449
 3.45       1.751       33.0759
 3.45       1.754       32.2434
 3.45       1.762       31.3207
 3.45       1.764       28.3531
 3.45       1.770       28.3572
 3.45       1.774       23.8138
 3.45       1.779       23.8169
 3.45       1.785       18.3467
 3.45       1.789       17.0508
 3.45       1.794       13.3425
 3.45       1.799       10.2842
 3.45       1.803        8.8028
 3.45       1.809        4.8166
 3.45       1.815        4.8212
 3.45       1.818        1.6686
 3.45       1.823        1.6722
 3.45       1.828        1.0263
 3.45       1.831        0.6572
 3.45       1.837        0.4758
 3.45       1.844        0.2949
 3.45       1.855        0.1170
 3.45       1.865        0.1242
 3.45       1.875        0.1314
 3.45       1.884        0.1381
 3.45       1.894        0.3304
 3.45       1.904        0.3376
 3.45       1.917        0.2541
 3.45       1.927        0.0757
 3.45       1.940        0.0845
 3.45       1.951        0.0927
 3.45       1.967        0.1963
 3.45       1.988        0.2118
ENDDATA            436
ENDSUBENT          448
ENDENTRY             5
