ENTRY            C0900   20030225   20030331
SUBENT        C0900001   20030225   20030331
BIB                 14         27
INSTITUTE  (1USAMIN,1USAINU)
REFERENCE  (J,PR/C,64,054608,200111)
AUTHOR     (D.N.Mihailidis,N.M.Hintz,A.Sethi,E.J.Stephenson)
TITLE      High spin two-neutron-hole states via the
            208Pb(p,t)206Pb reaction at 120 MeV
FACILITY   (CYCLO,1USAINU) IUCF
INC-SOURCE (ATOMI). Beam polarization typically about 0.76.
SAMPLE     Targets enriched to >99% 208Pb; thicknesses 3.6
            and 7.8 mg/cm2.
ANALYSIS   Fitting of summed spectra done using line-shape
            fitting routine FITTER.
DETECTOR   (MAGSP,SCIN,MWDC) K600 QDD spectrometer.
           2 plastic scintillator focal plane detectors for
            particle identification, located behind 2 multiwire
            vertical-drift chambers gave horizontal position and
            angle information.
           In-line polarimeter, employing p-d elastic
            scattering, measured beam polarization.
MONITOR    Energy calibration done by use of previously determined
            energies of several well-known peaks.
CORRECTION No information given.
ERR-ANALYS (ANG-ERR) Angle error.
           (E-ERR)   Secondary energy error.
           (DATA-ERR) Absolute uncertainty in data.
STATUS     Data received by email from N. Hintz, 24 January 2003.
           No reply from N. Hintz to author proof.
HISTORY    (20030128C) VM
ENDBIB              27
COMMON               4          3
EN         ANG-ERR    E-ERR      DATA-ERR
MEV        ADEG       KEV        PER-CENT
120.         0.2       15.         7.
ENDCOMMON            3
ENDSUBENT           34
SUBENT        C0900002   20030128   20030331
BIB                  1          1
REACTION   (82-PB-208(P,T)82-PB-206,PAR,DA)
ENDBIB               1
NOCOMMON             0          0
DATA                 4        115
E-LVL      ANG-CM     DATA-CM    ERR-S
KEV        ADEG       MU-B/SR    MU-B/SR
1680.        7.57       11.4129     0.2460
1680.        9.08       14.0541     0.2164
1680.       12.11        7.1327     0.2477
1680.       15.14        3.5472     0.0899
1680.       18.17        2.3645     0.1367
1680.       22.20        0.8931     0.0580
1680.       26.23        0.5424     0.0468
1680.       30.27        0.2648     0.0293
1680.       34.30        0.1235     0.0281
2200.        7.57       21.9366     0.2281
2200.        9.08       22.3320     0.2146
2200.       12.11       15.7584     0.2732
2200.       15.14        9.7336     0.1226
2200.       18.17        3.6793     0.0943
2200.       22.20        1.3431     0.0481
2200.       26.23        0.8098     0.0431
2200.       30.27        0.3992     0.0307
2200.       34.30        0.1950     0.0286
2660.        7.57       54.8033     0.3744
2660.        9.08       56.3936     0.3596
2660.       12.11       47.4713     0.5018
2660.       15.14       39.5450     0.2411
2660.       18.17       18.0896     0.2311
2660.       22.20        5.5814     0.1215
2660.       26.23        2.1698     0.0786
2660.       30.27        1.3917     0.0615
2660.       34.30        0.6254     0.0552
2865.        7.57        6.1568     0.1321
2865.        9.08        6.4119     0.1736
2865.       12.11        4.1714     0.1877
2865.       15.14        2.4815     0.1077
2865.       18.17        0.7093     0.0498
2865.       22.20        0.3346     0.0251
2865.       26.23        0.1279     0.0261
2865.       30.27        0.1145     0.0265
3260.        7.57       39.1717     0.3648
3260.        9.08       41.3887     0.3667
3260.       12.11       23.9151     0.4350
3260.       15.14       13.0741     0.2031
3260.       18.17        4.3946     0.1207
3260.       22.20        2.5659     0.0767
3260.       26.23        1.4241     0.0786
3260.       30.27        0.7047     0.0412
3260.       34.30        0.3552     0.0325
3389.        7.57        3.3028     0.1080
3389.        9.08        3.2580     0.1062
3389.       12.11        1.6941     0.1154
3389.       15.14        1.5472     0.0542
3389.       18.17        0.6650     0.0358
3389.       22.20        0.2762     0.0293
3389.       26.23        0.0747     0.0294
3389.       30.27        0.0511     0.0228
3910.        7.57       14.0948     0.2042
3910.        9.08       13.1046     0.3172
3910.       12.11        9.7481     0.3838
3910.       15.14        6.2770     0.3727
3910.       18.17        2.4645     0.0963
3910.       22.20        0.7022     0.0410
3910.       26.23        0.2932     0.0308
3910.       30.27        0.2091     0.0245
3910.       34.30        0.1023     0.0255
3960.        7.57        7.8820     0.2069
3960.        9.08        8.0014     0.4008
3960.       12.11        8.9183     0.4095
3960.       15.14        9.6025     0.3887
3960.       18.17        6.9999     0.1428
3960.       22.20        2.7103     0.0878
3960.       26.23        0.7677     0.0609
3960.       30.27        0.5345     0.0321
3960.       34.30        0.1908     0.0280
4030.        7.57        5.9562     0.2029
4030.        9.08        7.1000     0.3327
4030.       12.11        7.3665     0.3269
4030.       15.14        7.8861     0.2107
4030.       18.17        7.1278     0.1629
4030.       22.20        5.7489     0.1436
4030.       26.23        3.6321     0.1311
4030.       30.27        1.6221     0.0783
4030.       34.30        0.9009     0.0676
4550.        7.57       15.0122     0.2934
4550.        9.08       24.5021     0.3099
4550.       12.11       20.2906     0.4045
4550.       15.14       14.5632     0.2249
4550.       18.17        6.1071     0.1486
4550.       22.20        2.3999     0.0798
4550.       26.23        1.0221     0.0588
4550.       30.27        0.4758     0.0280
4550.       34.30        0.2774     0.0313
5430.        7.57       37.7852     0.6174
5430.        9.08       38.0262     0.3629
5430.       12.11       36.5842     0.7621
5430.       15.14       38.0874     0.4558
5430.       18.17       34.0428     0.4478
5430.       22.20       23.7374     0.3259
5430.       26.23       11.7209     0.2651
5430.       30.27        5.1556     0.1323
5430.       34.30        3.4000     0.1193
5660.        7.57        7.2539     0.2667
5660.        9.08        7.6014     0.1656
5660.       12.11        7.9346     0.3363
5660.       15.14        6.8382     0.1940
5660.       18.17        3.8953     0.1347
5660.       22.20        0.9648     0.0705
5660.       26.23        0.2767     0.0359
5660.       30.27        0.1647     0.0280
5660.       34.30        0.0989     0.0266
6200.        7.57       18.3051     0.3317
6200.        9.08       13.1283     0.3264
6200.       12.11       11.9739     0.5971
6200.       15.14        9.2252     0.4008
6200.       18.17        3.5103     0.1472
6200.       22.20        0.9921     0.0645
6200.       26.23        0.6077     0.0458
6200.       30.27        0.2795     0.0309
6200.       34.30        0.2145     0.0247
ENDDATA            117
ENDSUBENT          123
SUBENT        C0900003   20030128   20030331
BIB                  1          1
REACTION   (82-PB-208(P,T)82-PB-206,PAR,POL/DA,,ANA)
ENDBIB               1
NOCOMMON             0          0
DATA                 4        115
E-LVL      ANG-CM     DATA       ERR-S
KEV        ADEG       NO-DIM     NO-DIM
1680.         7.57    -0.276814   0.036014
1680.         9.08    -0.485186   0.024495
1680.        12.11    -0.595586   0.051659
1680.        15.14    -0.611384   0.036809
1680.        18.17    -0.637702   0.074310
1680.        22.20    -0.191182   0.117594
1680.        26.23     0.308594   0.181839
1680.        30.27     0.612360   0.240908
1680.        34.3      0.109479   0.435035
2200.        7.57      0.250126   0.031649
2200.        9.08      0.191840   0.019293
2200.       12.11      0.271119   0.035675
2200.       15.14      0.036644   0.023779
2200.       18.17     -0.007542   0.065537
2200.       22.20      0.434880   0.097992
2200.       26.23      0.804765   0.123332
2200.       30.27      0.745097   0.173919
2200.       34.30      0.542496   0.308707
2660.        7.57      0.181670   0.021640
2660.        9.08      0.177869   0.012754
2660.       12.11      0.227886   0.021613
2660.       15.14      0.226625   0.012421
2660.       18.17      0.178533   0.027892
2660.       22.20      0.332385   0.045808
2660.       26.23      0.719141   0.076084
2660.       30.27      0.606623   0.091802
2660.       34.30      0.130369   0.162483
2865.        7.57      0.199746   0.063841
2865.        9.08      0.212477   0.052814
2865.       12.11      0.361392   0.090282
2865.       15.14      0.186183   0.080644
2865.       18.17     -0.035484   0.131994
2865.       22.20      0.665236   0.168099
2865.       26.23      0.601931   0.439268
2865.       30.27      0.094051   0.433297
3260.        7.57      0.030775   0.023785
3260.        9.08      0.017199   0.016673
3260.       12.11     -0.084323   0.032957
3260.       15.14     -0.081386   0.028198
3260.       18.17      0.027111   0.051806
3260.       22.20      0.395446   0.063235
3260.       26.23      0.309624   0.112461
3260.       30.27      0.596682   0.130211
3260.       34.30      0.636246   0.202640
3389.        7.57      0.219907   0.113127
3389.        9.08     -0.036339   0.060661
3389.       12.11      0.313510   0.138930
3389.       15.14      0.388660   0.072239
3389.       18.17      0.598071   0.120251
3389.       22.20      0.257530   0.210822
3389.       26.23      0.205889   0.734644
3389.       30.27      0.192157   0.824411
3910.        7.57      0.152111   0.057202
3910.        9.08      0.177441   0.054800
3910.       12.11      0.219761   0.079550
3910.       15.14      0.130918   0.123053
3910.       18.17      0.213151   0.077723
3910.       22.20      0.567838   0.127656
3910.       26.23      0.939638   0.248718
3910.       30.27      0.641443   0.260217
3910.       34.30      0.886409   0.562146
3960.        7.57     -0.029747   0.065965
3960.        9.08     -0.027393   0.096666
3960.       12.11      0.009535   0.089449
3960.       15.14      0.163175   0.080866
3960.       18.17      0.150968   0.052761
3960.       22.20      0.267469   0.066396
3960.       26.23      0.327042   0.147271
3960.       30.27      0.851244   0.126591
3960.       34.30      1.070799   0.322288
4030.        7.57     -0.137897   0.060863
4030.        9.08     -0.121072   0.074116
4030.       12.11     -0.203292   0.078059
4030.       15.14     -0.034133   0.051206
4030.       18.17      0.003658   0.049732
4030.       22.20      0.079537   0.047920
4030.       26.23      0.321165   0.069245
4030.       30.27      0.324036   0.093889
4030.       34.30      0.286979   0.129658
4550.        7.57      0.114099   0.038317
4550.        9.08      0.086680   0.024229
4550.       12.11      0.114890   0.038998
4550.       15.14      0.109016   0.028885
4550.       18.17      0.151703   0.048175
4550.       22.20      0.300872   0.068583
4550.       26.23      0.583774   0.126357
4550.       30.27      0.825850   0.137958
4550.       34.30      0.514755   0.240113
5430.        7.57      0.003996   0.048464
5430.        9.08     -0.003173   0.015867
5430.       12.11      0.028769   0.039208
5430.       15.14      0.054778   0.022629
5430.       18.17      0.052267   0.031796
5430.       22.20      0.089791   0.029148
5430.       26.23      0.110997   0.043516
5430.       30.27      0.447599   0.055715
5430.       34.30      0.354448   0.072657
5660.        7.57      0.142169   0.099297
5660.        9.08      0.217609   0.067712
5660.       12.11      0.093833   0.081079
5660.       15.14      0.080190   0.053946
5660.       18.17      0.079383   0.092522
5660.       22.20     -0.041064   0.134701
5660.       26.23      0.555473   0.361819
5660.       30.27      0.327607   0.346856
5660.       34.30      0.790379   0.590861
6200.        7.57      0.132107   0.088999
6200.        9.08      0.075903   0.070104
6200.       12.11      0.086352   0.103440
6200.       15.14      0.093155   0.084284
6200.       18.17      0.020032   0.089534
6200.       22.20      0.393484   0.133399
6200.       26.23      0.697792   0.158836
6200.       30.27      0.368578   0.281413
6200.       34.30      0.937934   0.269691
ENDDATA            117
ENDSUBENT          123
ENDENTRY             3
