ENTRY            S0250   20211208   20220323   20220323       S030
SUBENT        S0250001   20211208   20220323   20220323       S030
BIB                 11         31
TITLE      Measurement of (n,f) and (n,xn) cross sections of
           actinides with the surrogate reaction method
AUTHOR     (Ma Nanru,Lin Chengjian,Jia Huiming,Xu Xinxing,
           Yang Feng,Yang Lei,Sun Lijie,Wang Dongxi,Liu Zuhua,
           Zhang Huanqiao)
INSTITUTE  (3CPRAEP)
REFERENCE  (J,CNPR,34,351,2017) In Chinese
           #doi:10.11804/NuclPhysRev.34.03.351
FACILITY   (VDGT,3CPRAEP) The HI-13 Tandem Accelerator
INC-SOURCE The alpha beam intensity was about 100 - 200 enA for
           the on-line experiment. The alpha beam intensity for
           the on-line irradiation was about 1.0 euA, and it was
           monitored by a water-cooling Faraday cup.
SAMPLE     236U target with a diameter of 5 mm was electroplated
           onto 2 um thick aluminum foil. Two thick targets of
           5.0 ug/cm2 were made for on-line experiment and
           eighteen thin targets of 1.0 ug/cm2 were made for
           on-line irradiation and off-line measurement.
DETECTOR   (SIBAR) In the on-line experiment, eight diameter of
           8 mm Si(Au) detectors were used with a rotatable base
           for the angular distribution measurement of elastic
           scattering and fission fragments. Four Si(Au)
           detectors were placed symmetrically at the forward
           angle of 25 deg for monitoring the beam quality and
           cross section normalization. For the off-line
           measurement of alpha radioactivity, 18 target-detector
           measurement systems were manufactured.
METHOD     (ACTIV,STTA)
ERR-ANALYS (DATA-ERR) No information
HISTORY    (20211206R) Data received from Ma Nanru
           (20211208C) Jimin Wang (CNDC)
ENDBIB              31
NOCOMMON             0          0
ENDSUBENT           34
SUBENT        S0250002   20211208   20220323   20220323       S030
BIB                  2          3
REACTION   (92-U-236(A,F),,DA,FF)
STATUS     (TABLE) Fig.6 of J,Nucl.Phys.Rev.,34,351,2017
                   Data obtained from AUTHOR
ENDBIB               3
NOCOMMON             0          0
DATA                 4        288
EN         ANG-CM     DATA-CM    DATA-ERR
MEV        ADEG       MB/SR      MB/SR
      17.93      92.36     0.0176     0.0055
      17.93      97.35     0.0239     0.0097
      17.93     102.32     0.0251     0.0065
      17.93     107.28     0.0304     0.0107
      17.93     112.22     0.0180     0.0054
      17.93     117.14     0.0223     0.0091
      17.93     122.04     0.0154     0.0051
      17.93     126.93     0.0194     0.0086
      17.93     131.81     0.0250     0.0066
      17.93     136.67     0.0324     0.0114
      17.93     141.52     0.0249     0.0049
      17.93     146.35     0.0239     0.0072
      17.93     151.18     0.0304     0.0054
      17.93     156.00     0.0378     0.0091
      17.93     160.81     0.0239     0.0048
      17.93     165.61     0.0217     0.0068
      17.93     170.41     0.0234     0.0067
      17.93     175.21     0.0221     0.0099
      19.00      92.43     0.1352     0.0162
      19.00      97.42     0.1784     0.0190
      19.00     102.39     0.1698     0.0177
      19.00     107.35     0.1159     0.0149
      19.00     112.28     0.1808     0.0181
      19.00     117.20     0.2080     0.0198
      19.00     122.10     0.1830     0.0186
      19.00     126.99     0.1737     0.0184
      19.00     131.86     0.2069     0.0202
      19.00     136.72     0.1813     0.0193
      19.00     141.56     0.2208     0.0153
      19.00     146.39     0.1634     0.0134
      19.00     151.21     0.2241     0.0156
      19.00     156.03     0.2489     0.0167
      19.00     160.83     0.2002     0.0146
      19.00     165.63     0.2392     0.0162
      19.00     170.42     0.2020     0.0209
      19.00     175.21     0.2496     0.0236
      20.03      92.49     0.6208     0.0327
      20.03      97.48     0.7370     0.0388
      20.03     102.46     0.7302     0.0346
      20.03     107.41     0.8058     0.0396
      20.03     112.34     0.7164     0.0339
      20.03     117.26     0.8041     0.0391
      20.03     122.16     0.8574     0.0379
      20.03     127.04     0.8992     0.0422
      20.03     131.91     0.8843     0.0393
      20.03     136.76     0.9135     0.0435
      20.03     141.60     0.9517     0.0299
      20.03     146.43     0.9156     0.0319
      20.03     151.25     0.9618     0.0304
      20.03     156.05     1.0254     0.0342
      20.03     160.85     1.0682     0.0316
      20.03     165.65     1.0661     0.0344
      20.03     170.43     1.0385     0.0445
      20.03     175.22     1.1340     0.0506
      21.06      92.56     2.1112     0.0600
      21.06      97.55     2.1833     0.0650
      21.06     102.52     2.2678     0.0607
      21.06     107.47     2.4066     0.0666
      21.06     112.40     2.2519     0.0598
      21.06     117.32     2.3630     0.0653
      21.06     122.21     2.4922     0.0643
      21.06     127.09     2.5820     0.0697
      21.06     131.96     2.5315     0.0662
      21.06     136.81     2.6691     0.0724
      21.06     141.64     2.7474     0.0505
      21.06     146.47     2.9281     0.0555
      21.06     151.28     2.8253     0.0518
      21.06     156.08     2.9900     0.0568
      21.06     160.87     2.9291     0.0521
      21.06     165.66     3.1284     0.0573
      21.06     170.44     3.1481     0.0771
      21.06     175.22     3.3786     0.0851
      22.06      92.62     4.8292     0.0924
      22.06      97.61     5.4694     0.1029
      22.06     102.58     5.7717     0.0986
      22.06     107.53     5.7230     0.1027
      22.06     112.46     5.7445     0.0973
      22.06     117.37     6.1000     0.1049
      22.06     122.27     6.5018     0.1058
      22.06     127.14     6.3704     0.1095
      22.06     132.00     6.6684     0.1095
      22.06     136.85     6.7518     0.1152
      22.06     141.68     6.9556     0.0818
      22.06     146.50     6.9994     0.0859
      22.06     151.31     7.5639     0.0864
      22.06     156.11     7.5735     0.0904
      22.06     160.89     8.0432     0.0879
      22.06     165.68     8.1379     0.0925
      22.06     170.45     8.1025     0.1261
      22.06     175.23     8.5625     0.1355
      22.56      92.65     7.5656     0.1279
      22.56      97.64     7.7320     0.1086
      22.56     102.61     7.6642     0.1256
      22.56     107.56     7.9634     0.1076
      22.56     112.49     8.7229     0.1326
      22.56     117.40     8.5646     0.1104
      22.56     122.29     9.1360     0.1387
      22.56     127.17     9.1228     0.1164
      22.56     132.03     9.8871     0.1474
      22.56     136.87    10.2645     0.1261
      22.56     141.70    10.4378     0.1109
      22.56     146.52    10.6490     0.0940
      22.56     151.32    10.9452     0.1149
      22.56     156.12    11.1366     0.0974
      22.56     160.90    11.8417     0.1180
      22.56     165.68    11.8953     0.0993
      22.56     170.46    12.3237     0.1719
      22.56     175.23    12.7983     0.1471
      23.05      92.68     9.9738     0.1066
      23.05      97.66    10.9781     0.1171
      23.05     102.63    11.2971     0.1107
      23.05     107.58    11.5914     0.1174
      23.05     112.51    11.2510     0.1093
      23.05     117.42    11.7032     0.1167
      23.05     122.32    11.9883     0.1153
      23.05     127.19    12.4767     0.1231
      23.05     132.05    13.2230     0.1237
      23.05     136.89    13.3927     0.1303
      23.05     141.72    13.5945     0.0918
      23.05     146.53    13.9394     0.0974
      23.05     151.34    14.3420     0.0955
      23.05     156.13    14.9597     0.1021
      23.05     160.91    16.0009     0.0995
      23.05     165.69    16.2999     0.1052
      23.05     170.46    16.6883     0.1452
      23.05     175.23    16.7848     0.1525
      23.55      92.70    14.6207     0.1569
      23.55      97.69    15.9287     0.1648
      23.55     102.66    15.5943     0.1582
      23.55     107.61    16.8832     0.1656
      23.55     112.54    16.2048     0.1596
      23.55     117.45    16.7668     0.1633
      23.55     122.34    17.6894     0.1703
      23.55     127.21    18.1180     0.1734
      23.55     132.07    19.2384     0.1815
      23.55     136.91    19.1717     0.1822
      23.55     141.74    20.0233     0.1355
      23.55     146.55    20.6272     0.1384
      23.55     151.35    21.4963     0.1422
      23.55     156.14    21.9831     0.1446
      23.55     160.92    23.8517     0.1478
      23.55     165.70    23.4924     0.1476
      23.55     170.47    25.3334     0.2176
      23.55     175.24    24.7219     0.2162
      24.03      92.73    18.3001     0.1867
      24.03      97.72    18.4243     0.1936
      24.03     102.69    18.6347     0.1838
      24.03     107.64    19.1239     0.1925
      24.03     112.57    18.6882     0.1821
      24.03     117.48    19.1039     0.1903
      24.03     122.37    20.4009     0.1944
      24.03     127.24    21.0953     0.2043
      24.03     132.09    21.7992     0.2053
      24.03     136.93    22.5378     0.2158
      24.03     141.76    23.5988     0.1564
      24.03     146.57    23.9043     0.1627
      24.03     151.37    25.2234     0.1637
      24.03     156.15    25.4587     0.1700
      24.03     160.93    27.0063     0.1672
      24.03     165.71    27.2900     0.1737
      24.03     170.47    28.0968     0.2436
      24.03     175.24    28.0490     0.2515
      25.09      92.79    29.8174     0.2952
      25.09      97.78    32.3457     0.3281
      25.09     102.75    31.5478     0.2964
      25.09     107.70    32.2341     0.3197
      25.09     112.62    30.4696     0.2882
      25.09     117.53    31.3030     0.3117
      25.09     122.42    34.1220     0.3115
      25.09     127.29    34.7274     0.3354
      25.09     132.14    35.3744     0.3241
      25.09     136.97    36.7905     0.3527
      25.09     141.79    38.5791     0.2478
      25.09     146.60    40.3896     0.2706
      25.09     151.40    41.4597     0.2600
      25.09     156.18    42.6284     0.2814
      25.09     160.95    44.6542     0.2664
      25.09     165.72    44.9270     0.2852
      25.09     170.48    46.8816     0.3898
      25.09     175.24    47.9412     0.4207
      26.11      92.85    33.4907     0.3874
      26.11      97.84    34.6417     0.3888
      26.11     102.80    36.4340     0.3944
      26.11     107.75    38.9991     0.4026
      26.11     112.68    38.3242     0.4002
      26.11     117.58    37.5358     0.3908
      26.11     122.47    41.4839     0.4253
      26.11     127.33    42.1495     0.4231
      26.11     132.18    43.8429     0.4467
      26.11     137.01    45.5413     0.4493
      26.11     141.83    48.4601     0.3438
      26.11     146.63    47.9117     0.3374
      26.11     151.42    51.8303     0.3600
      26.11     156.20    52.1437     0.3563
      26.11     160.97    57.4217     0.3740
      26.11     165.74    57.7852     0.3703
      26.11     170.49    59.4156     0.5434
      26.11     175.25    59.8616     0.5382
      27.13      92.90    40.5079     0.3680
      27.13      97.89    41.9022     0.4209
      27.13     102.86    47.9271     0.3907
      27.13     107.80    46.9029     0.4347
      27.13     112.73    47.9195     0.3865
      27.13     117.63    48.4539     0.4371
      27.13     122.51    51.2921     0.4085
      27.13     127.38    53.4733     0.4691
      27.13     132.22    55.7920     0.4353
      27.13     137.05    55.6378     0.4888
      27.13     141.87    60.7084     0.3324
      27.13     146.66    60.3868     0.3729
      27.13     151.45    66.1257     0.3512
      27.13     156.23    67.5677     0.3993
      27.13     160.99    71.5162     0.3605
      27.13     165.75    72.1111     0.4072
      27.13     170.50    75.4793     0.5290
      27.13     175.25    75.6248     0.5955
      28.12      92.95    51.2957     0.5142
      28.12      97.94    52.8489     0.4801
      28.12     102.91    58.1625     0.5344
      28.12     107.85    60.5612     0.5016
      28.12     112.78    58.5314     0.5304
      28.12     117.68    58.9541     0.4897
      28.12     122.56    63.3635     0.5638
      28.12     127.42    65.0371     0.5254
      28.12     132.26    67.7155     0.5954
      28.12     137.09    69.8884     0.5565
      28.12     141.90    74.1186     0.4561
      28.12     146.69    75.4478     0.4233
      28.12     151.48    80.9436     0.4825
      28.12     156.25    82.6428     0.4485
      28.12     161.01    87.7039     0.4958
      28.12     165.76    88.6220     0.4584
      28.12     170.51    92.2422     0.7261
      28.12     175.26    93.6994     0.6732
      30.11      93.06    66.6515     0.6493
      30.11      98.05    69.7287     0.7665
      30.11     103.01    78.3719     0.6873
      30.11     107.95    78.6881     0.7947
      30.11     112.87    74.6364     0.6636
      30.11     117.77    76.1630     0.7736
      30.11     122.65    85.1551     0.7241
      30.11     127.50    86.4887     0.8422
      30.11     132.34    91.2079     0.7656
      30.11     137.16    91.9938     0.8874
      30.11     141.96    97.7417     0.5802
      30.11     146.75   100.5599     0.6792
      30.11     151.53   108.1006     0.6177
      30.11     156.29   111.1579     0.7229
      30.11     161.05   117.0403     0.6345
      30.11     165.79   117.6301     0.7341
      30.11     170.53   124.1052     0.9331
      30.11     175.27   127.7374     1.0926
      32.00      93.15    70.7623     0.7272
      32.00      98.14    71.9613     0.7245
      32.00     103.10    73.1604     0.7218
      32.00     108.04    75.0907     0.7272
      32.00     112.96    77.0211     0.7327
      32.00     117.86    80.4263     0.7568
      32.00     122.73    83.8316     0.7809
      32.00     127.58    87.2701     0.8054
      32.00     132.41    90.7085     0.8299
      32.00     137.23    94.2003     0.7302
      32.00     142.03    97.6920     0.6305
      32.00     146.81   103.7376     0.6536
      32.00     151.58   109.7832     0.6767
      32.00     156.33   114.7622     0.6871
      32.00     161.08   119.7412     0.6976
      32.00     165.82   123.7929     0.8635
      32.00     170.55   127.8446     1.0295
      32.00     175.27   127.8446     1.0295
      36.00      93.34    90.8418     0.9033
      36.00      98.33    90.9691     0.9638
      36.00     103.29    94.6478     0.9000
      36.00     108.23    95.0340     0.9615
      36.00     113.14    97.2891     0.9028
      36.00     118.03    96.1051     0.9566
      36.00     122.90   103.0386     0.9491
      36.00     127.74   105.3110     1.0230
      36.00     132.56   112.6901     1.0141
      36.00     137.36   115.4520     1.0943
      36.00     142.15   120.7072     0.7684
      36.00     146.92   126.3987     0.8383
      36.00     151.67   135.4719     0.8241
      36.00     156.41   141.4782     0.8978
      36.00     161.14   151.6291     0.8606
      36.00     165.86   152.7269     0.9208
      36.00     170.58   161.0700     1.2668
      36.00     175.29   159.4742     1.3439
ENDDATA            290
ENDSUBENT          298
SUBENT        S0250003   20211208   20220323   20220323       S030
BIB                  2          3
REACTION   (92-U-236(A,F),,SIG)
STATUS     (TABLE) Fig.7 of J,Nucl.Phys.Rev.,34,351,2017
                   Data obtained from AUTHOR
ENDBIB               3
NOCOMMON             0          0
DATA                 3         16
EN         DATA       DATA-ERR
MEV        MB         MB
      17.93       0.28       0.09
      19.00       2.23       0.22
      20.03      10.46       0.54
      21.06      31.45       1.20
      22.06      79.06       2.66
      22.56     115.22       3.74
      23.05     155.88       4.87
      23.55     226.76       7.08
      24.03     263.59       8.23
      25.09     437.95      14.06
      26.11     527.18      16.51
      27.13     659.65      20.41
      28.12     815.96      25.56
      30.11    1077.72      35.52
      32.00    1089.75      33.94
      36.00    1355.16      42.12
ENDDATA             18
ENDSUBENT           26
SUBENT        S0250004   20211208   20220323   20220323       S030
BIB                  2          3
REACTION   (92-U-236(A,2N)94-PU-238,,SIG)
STATUS     (TABLE) Fig.7 of J,Nucl.Phys.Rev.,34,351,2017
                   Data obtained from AUTHOR
ENDBIB               3
NOCOMMON             0          0
DATA                 3         15
EN         DATA       DATA-ERR
MEV        MB         MB
      17.93       0.05       0.05
      19.00       0.34       0.31
      20.03       1.56       1.15
      21.06       3.39       1.57
      22.06       9.42       2.86
      22.56      17.82       5.11
      23.05      24.25       5.45
      23.55      31.84       7.06
      24.03      38.17       4.94
      25.09      41.54       8.61
      26.11      61.97      12.42
      27.13      46.15      10.64
      28.12      83.18      16.15
      30.11      73.25      14.40
      32.00      33.66       6.77
ENDDATA             17
ENDSUBENT           25
ENDENTRY             4
