ENTRY            12144   20141211   20150701   20150604       1405
SUBENT        12144001   20141211   20150701   20150604       1405
BIB                  8         14
TITLE      Microscopic Neutron Scattering Cross-Sections for
           Reactor Design
AUTHOR     (A.B.Smith,D.Lister,J.F.Whalen)
REFERENCE  (C,66PARIS,1,399,196610)
INSTITUTE  (1USAANL)
FACILITY   (VDG,1USAANL) Pulsed Van-de-Graaff and a magnetic ion
           bunching system.
INC-SOURCE (P-LI7)
METHOD     (TOF) Multi-angle detector system.
HISTORY    (19830614C)
           (20141211A) BP: Updated to new date formats,lower
           case. corrections according last EXFOR rules and
           Dict. Corrected title, reaction strings, updated
           information, reformatted the entry.
ENDBIB              14
NOCOMMON             0          0
ENDSUBENT           17
SUBENT        12144002   20141211   20150701   20150604       1405
BIB                  5          7
REACTION   (26-FE-0(N,EL)26-FE-0,,SIG)
ANALYSIS   (INTAD)
ERR-ANALYS (DATA-ERR,5.,8.) Estimated cross-section error is 5-8
           percent.
STATUS     (DEP,12144003)
           (TABLE) Taken from private comm, Smith,1968/4.
HISTORY    (19860407A) Reaction product added.
ENDBIB               7
COMMON               1          3
EN-RSL
KEV
        50.
ENDCOMMON            3
DATA                 2         95
EN         DATA
KEV        B
       318.       3.58
       322.       3.65
       334.       3.72
       347.       3.79
       353.       3.40
       374.       3.21
       381.       3.38
       396.       3.68
       412.       4.00
       428.       3.99
       443.       4.01
       459.       3.84
       474.       3.63
       483.       3.47
       514.       3.34
       525.       3.25
       535.       3.28
       545.       3.11
       549.       3.07
       556.       3.13
       571.       2.71
       579.       2.62
       597.       2.21
       626.       1.99
       641.       2.18
       662.       2.43
       674.       2.38
       681.       2.52
       700.       2.78
       712.       2.59
       725.       2.85
       737.       3.27
       749.       3.48
       762.       3.65
       774.       3.77
       781.       3.88
       800.       3.84
       812.       3.80
       825.       3.45
       837.       3.49
       849.       3.28
       862.       3.25
       874.       2.99
       887.       3.06
       899.       2.95
       912.       2.87
       924.       2.46
       937.       2.39
       948.       2.14
       961.       2.06
       967.       1.92
       982.       2.16
       989.       2.24
      1008.       2.41
      1039.       2.63
      1052.       2.69
      1067.       2.76
      1071.       2.79
      1087.       2.55
      1112.       2.38
      1123.       2.33
      1132.       2.25
      1135.       2.29
      1137.       2.28
      1140.       2.27
      1145.       2.28
      1178.       2.06
      1193.       2.02
      1226.       2.29
      1230.       2.34
      1235.       2.43
      1248.       2.51
      1257.       2.61
      1260.       2.61
      1275.       2.39
      1279.       2.36
      1289.       2.39
      1299.       2.27
      1310.       2.33
      1324.       2.28
      1329.       2.36
      1339.       2.42
      1349.       2.43
      1360.       2.42
      1378.       2.29
      1382.       2.30
      1390.       2.29
      1399.       2.17
      1408.       2.14
      1421.       2.08
      1424.       2.07
      1429.       2.08
      1439.       2.17
      1449.       2.19
      1460.       2.34
ENDDATA             97
ENDSUBENT          113
SUBENT        12144003   20141211   20150701   20150604       1405
BIB                  5         10
REACTION   (26-FE-0(N,EL)26-FE-0,,DA,,LEG/RS)
FLAG       (1.) Energy value changed by compiler from 1339. to
            1329. (as 1339. would mean incomplete sets of
            coefficients for both, 1329. and 1339. keV) which is
            more plausible
ERR-ANALYS (DATA-ERR) No information given
STATUS     (TABLE) Taken from private comm, Smith,1968/4
HISTORY    (19860407A) Reaction product added.
           (20141211A) BP: Reaction string corrected, FLAG added,
            one EN value changed
ENDBIB              10
COMMON               1          3
EN-RSL
KEV
        50.
ENDCOMMON            3
DATA                 5        470
EN         NUMBER     DATA       DATA-ERR   FLAG
KEV        NO-DIM     NO-DIM     NO-DIM     NO-DIM
       318.         1.      0.394      0.054
       318.         2.      0.231      0.076
       318.         3.      0.023      0.099
       318.         4.      0.075      0.065
       318.         5.      0.014      0.017
       322.         1.      0.396      0.051
       322.         2.      0.269      0.072
       322.         3.      0.006      0.094
       322.         4.      0.091      0.078
       322.         5.      0.017      0.020
       334.         1.      0.397      0.044
       334.         2.      0.283      0.072
       334.         3.      0.006      0.097
       334.         4.      0.080      0.081
       334.         5.      0.002      0.046
       347.         1.      0.337      0.042
       347.         2.      0.230      0.070
       347.         3.     -0.070      0.094
       347.         4.      0.071      0.078
       347.         5.     -0.014      0.041
       353.         1.      0.351      0.032
       353.         2.      0.241      0.059
       353.         3.     -0.039      0.082
       353.         4.      0.089      0.098
       353.         5.     -0.018      0.052
       374.         1.      0.275      0.018
       374.         2.      0.181      0.036
       374.         3.      0.022      0.055
       374.         4.      0.078      0.058
       374.         5.     -0.003      0.045
       381.         1.      0.288      0.017
       381.         2.      0.185      0.037
       381.         3.     -0.004      0.058
       381.         4.      0.082      0.060
       381.         5.     -0.004      0.057
       396.         1.      0.221      0.024
       396.         2.      0.107      0.033
       396.         3.      0.006      0.051
       396.         4.      0.045      0.053
       396.         5.      0.011      0.047
       412.         1.      0.286      0.022
       412.         2.      0.144      0.030
       412.         3.      0.049      0.045
       412.         4.      0.034      0.047
       412.         5.     -0.004      0.040
       428.         1.      0.317      0.025
       428.         2.      0.205      0.035
       428.         3.      0.037      0.052
       428.         4.      0.009      0.054
       428.         5.     -0.018      0.035
       443.         1.      0.526      0.024
       443.         2.      0.296      0.031
       443.         3.      0.054      0.048
       443.         4.     -0.002      0.052
       443.         5.     -0.040      0.053
       459.         1.      0.655      0.019
       459.         2.      0.375      0.026
       459.         3.      0.068      0.039
       459.         4.      0.036      0.043
       459.         5.     -0.006      0.041
       474.         1.      0.579      0.022
       474.         2.      0.363      0.031
       474.         3.      0.058      0.045
       474.         4.      0.074      0.049
       474.         5.      0.009      0.028
       483.         1.      0.635      0.023
       483.         2.      0.376      0.031
       483.         3.      0.092      0.046
       483.         4.      0.086      0.050
       483.         5.      0.012      0.037
       514.         1.      0.661      0.022
       514.         2.      0.422      0.030
       514.         3.      0.110      0.044
       514.         4.      0.071      0.049
       514.         5.      0.001      0.038
       525.         1.      0.648      0.023
       525.         2.      0.424      0.032
       525.         3.      0.091      0.046
       525.         4.      0.074      0.051
       525.         5.     -0.019      0.031
       535.         1.      0.728      0.020
       535.         2.      0.477      0.027
       535.         3.      0.114      0.041
       535.         4.      0.063      0.044
       535.         5.     -0.029      0.037
       545.         1.      0.767      0.024
       545.         2.      0.504      0.028
       545.         3.      0.108      0.043
       545.         4.      0.056      0.045
       545.         5.     -0.029      0.027
       549.         1.      0.802      0.023
       549.         2.      0.537      0.027
       549.         3.      0.122      0.040
       549.         4.      0.066      0.042
       549.         5.     -0.017      0.018
       556.         1.      0.841      0.024
       556.         2.      0.559      0.026
       556.         3.      0.120      0.041
       556.         4.      0.062      0.042
       556.         5.     -0.021      0.022
       571.         1.      0.876      0.021
       571.         2.      0.561      0.023
       571.         3.      0.097      0.034
       571.         4.      0.050      0.035
       571.         5.     -0.014      0.010
       579.         1.      0.966      0.022
       579.         2.      0.625      0.020
       579.         3.      0.122      0.032
       579.         4.      0.026      0.032
       579.         5.     -0.019      0.014
       597.         1.      1.015      0.023
       597.         2.      0.595      0.021
       597.         3.      0.065      0.033
       597.         4.      0.014      0.034
       597.         5.     -0.002      0.016
       626.         1.      0.832      0.020
       626.         2.      0.673      0.029
       626.         3.      0.017      0.040
       626.         4.      0.124      0.045
       626.         5.     -0.013      0.014
       641.         1.      0.637      0.025
       641.         2.      0.724      0.034
       641.         3.      0.080      0.049
       641.         4.      0.162      0.054
       641.         5.     -0.021      0.029
       662.         1.      0.436      0.023
       662.         2.      0.737      0.031
       662.         3.      0.155      0.045
       662.         4.      0.227      0.065
       662.         5.     -0.025      0.031
       674.         1.      0.437      0.025
       674.         2.      0.743      0.034
       674.         3.      0.171      0.049
       674.         4.      0.233      0.070
       674.         5.     -0.016      0.027
       681.         1.      0.477      0.017
       681.         2.      0.731      0.021
       681.         3.      0.237      0.032
       681.         4.      0.194      0.055
       681.         5.     -0.020      0.034
       700.         1.      0.625      0.015
       700.         2.      0.720      0.018
       700.         3.      0.222      0.028
       700.         4.      0.170      0.046
       700.         5.     -0.007      0.030
       712.         1.      0.605      0.018
       712.         2.      0.713      0.023
       712.         3.      0.171      0.034
       712.         4.      0.090      0.039
       712.         5.     -0.020      0.028
       725.         1.      0.657      0.023
       725.         2.      0.654      0.032
       725.         3.      0.156      0.044
       725.         4.      0.050      0.051
       725.         5.      0.002      0.015
       737.         1.      0.590      0.025
       737.         2.      0.648      0.035
       737.         3.      0.140      0.049
       737.         4.      0.025      0.056
       737.         5.     -0.011      0.031
       749.         1.      0.519      0.030
       749.         2.      0.625      0.040
       749.         3.      0.065      0.058
       749.         4.      0.027      0.066
       749.         5.     -0.029      0.044
       762.         1.      0.552      0.029
       762.         2.      0.663      0.040
       762.         3.      0.063      0.057
       762.         4.      0.011      0.064
       762.         5.     -0.033      0.041
       774.         1.      0.564      0.033
       774.         2.      0.680      0.046
       774.         3.      0.091      0.066
       774.         4.      0.041      0.072
       774.         5.     -0.033      0.041
       781.         1.      0.579      0.029
       781.         2.      0.725      0.039
       781.         3.      0.081      0.058
       781.         4.      0.073      0.063
       781.         5.     -0.041      0.052
       800.         1.      0.731      0.029
       800.         2.      0.750      0.039
       800.         3.      0.125      0.059
       800.         4.      0.102      0.046
       800.         5.     -0.046      0.059
       812.         1.      0.871      0.027
       812.         2.      0.778      0.036
       812.         3.      0.198      0.054
       812.         4.      0.102      0.041
       812.         5.     -0.041      0.052
       825.         1.      0.907      0.030
       825.         2.      0.793      0.041
       825.         3.      0.240      0.060
       825.         4.      0.096      0.048
       825.         5.     -0.038      0.045
       837.         1.      1.021      0.028
       837.         2.      0.868      0.038
       837.         3.      0.271      0.055
       837.         4.      0.113      0.045
       837.         5.     -0.038      0.045
       849.         1.      0.987      0.024
       849.         2.      0.868      0.035
       849.         3.      0.275      0.046
       849.         4.      0.092      0.056
       849.         5.     -0.019      0.019
       862.         1.      1.022      0.031
       862.         2.      0.905      0.045
       862.         3.      0.310      0.057
       862.         4.      0.113      0.073
       862.         5.     -0.011      0.012
       874.         1.      0.964      0.034
       874.         2.      0.942      0.051
       874.         3.      0.302      0.064
       874.         4.      0.170      0.080
       874.         5.      0.000      0.000
       887.         1.      1.034      0.034
       887.         2.      0.974      0.049
       887.         3.      0.321      0.063
       887.         4.      0.193      0.079
       887.         5.      0.029      0.015
       899.         1.      1.067      0.044
       899.         2.      0.950      0.041
       899.         3.      0.300      0.055
       899.         4.      0.169      0.067
       899.         5.      0.026      0.019
       912.         1.      1.145      0.044
       912.         2.      0.969      0.040
       912.         3.      0.309      0.056
       912.         4.      0.191      0.065
       912.         5.      0.034      0.034
       924.         1.      1.110      0.040
       924.         2.      1.011      0.034
       924.         3.      0.317      0.049
       924.         4.      0.178      0.054
       924.         5.      0.034      0.034
       937.         1.      1.105      0.041
       937.         2.      1.007      0.035
       937.         3.      0.321      0.050
       937.         4.      0.107      0.059
       937.         5.      0.034      0.034
       948.         1.      1.058      0.041
       948.         2.      1.007      0.035
       948.         3.      0.275      0.050
       948.         4.      0.071      0.059
       948.         5.     -0.004      0.034
       961.         1.      0.984      0.030
       961.         2.      1.005      0.041
       961.         3.      0.260      0.056
       961.         4.      0.030      0.069
       961.         5.     -0.001      0.029
       967.         1.      0.908      0.031
       967.         2.      1.010      0.044
       967.         3.      0.255      0.057
       967.         4.     -0.001      0.072
       967.         5.     -0.011      0.018
       982.         1.      0.906      0.034
       982.         2.      0.944      0.048
       982.         3.      0.217      0.063
       982.         4.     -0.055      0.081
       982.         5.     -0.011      0.018
       989.         1.      0.925      0.030
       989.         2.      0.907      0.042
       989.         3.      0.196      0.057
       989.         4.     -0.077      0.071
       989.         5.     -0.015      0.024
      1008.         1.      0.844      0.026
      1008.         2.      0.875      0.037
      1008.         3.      0.208      0.047
      1008.         4.     -0.062      0.061
      1008.         5.     -0.010      0.012
      1039.         1.      0.727      0.027
      1039.         2.      0.873      0.037
      1039.         3.      0.165      0.051
      1039.         4.      0.008      0.061
      1039.         5.     -0.003      0.022
      1052.         1.      0.667      0.029
      1052.         2.      0.845      0.040
      1052.         3.      0.118      0.040
      1052.         4.      0.020      0.045
      1052.         5.     -0.002      0.025
      1067.         1.      0.616      0.035
      1067.         2.      0.845      0.048
      1067.         3.      0.144      0.050
      1067.         4.      0.016      0.057
      1067.         5.      0.003      0.018
      1071.         1.      0.629      0.035
      1071.         2.      0.827      0.049
      1071.         3.      0.155      0.045
      1071.         4.     -0.001      0.054
      1071.         5.      0.001      0.003
      1087.         1.      0.819      0.039
      1087.         2.      0.935      0.055
      1087.         3.      0.197      0.050
      1087.         4.     -0.030      0.064
      1087.         5.      0.001      0.003
      1112.         1.      0.948      0.037
      1112.         2.      1.127      0.050
      1112.         3.      0.370      0.055
      1112.         4.      0.020      0.067
      1112.         5.     -0.002      0.009
      1123.         1.      0.931      0.032
      1123.         2.      1.181      0.044
      1123.         3.      0.433      0.057
      1123.         4.      0.016      0.071
      1123.         5.     -0.003      0.007
      1132.         1.      0.985      0.031
      1132.         2.      1.219      0.042
      1132.         3.      0.426      0.055
      1132.         4.      0.024      0.070
      1132.         5.     -0.003      0.007
      1135.         1.      0.931      0.030
      1135.         2.      1.208      0.041
      1135.         3.      0.437      0.054
      1135.         4.      0.041      0.067
      1135.         5.     -0.004      0.008
      1137.         1.      0.942      0.028
      1137.         2.      1.166      0.039
      1137.         3.      0.410      0.053
      1137.         4.      0.017      0.066
      1137.         5.     -0.005      0.010
      1140.         1.      0.967      0.025
      1140.         2.      1.127      0.036
      1140.         3.      0.393      0.046
      1140.         4.     -0.004      0.060
      1140.         5.     -0.006      0.012
      1145.         1.      0.866      0.021
      1145.         2.      1.139      0.030
      1145.         3.      0.432      0.040
      1145.         4.      0.021      0.051
      1145.         5.     -0.008      0.016
      1178.         1.      0.807      0.027
      1178.         2.      1.189      0.040
      1178.         3.      0.459      0.049
      1178.         4.      0.074      0.063
      1178.         5.      0.000      0.000
      1193.         1.      0.828      0.032
      1193.         2.      1.207      0.048
      1193.         3.      0.375      0.059
      1193.         4.      0.102      0.076
      1193.         5.      0.000      0.000
      1226.         1.      0.554      0.038
      1226.         2.      1.215      0.055
      1226.         3.      0.411      0.072
      1226.         4.      0.195      0.088
      1226.         5.     -0.015      0.023
      1230.         1.      0.503      0.039
      1230.         2.      1.211      0.055
      1230.         3.      0.404      0.073
      1230.         4.      0.206      0.088
      1230.         5.     -0.017      0.027
      1235.         1.      0.445      0.041
      1235.         2.      1.212      0.058
      1235.         3.      0.371      0.078
      1235.         4.      0.218      0.094
      1235.         5.     -0.020      0.031
      1248.         1.      0.460      0.039
      1248.         2.      1.285      0.055
      1248.         3.      0.477      0.074
      1248.         4.      0.243      0.090
      1248.         5.     -0.019      0.035
      1257.         1.      0.441      0.042
      1257.         2.      1.253      0.060
      1257.         3.      0.457      0.079
      1257.         4.      0.196      0.098
      1257.         5.     -0.023      0.029
      1260.         1.      0.436      0.033
      1260.         2.      1.281      0.046
      1260.         3.      0.502      0.064
      1260.         4.      0.218      0.075
      1260.         5.     -0.027      0.034
      1275.         1.      0.509      0.035
      1275.         2.      1.320      0.051
      1275.         3.      0.443      0.067
      1275.         4.      0.160      0.080
      1275.         5.     -0.023      0.029
      1279.         1.      0.561      0.040
      1279.         2.      1.344      0.058
      1279.         3.      0.436      0.076
      1279.         4.      0.138      0.091
      1279.         5.     -0.027      0.034
      1289.         1.      0.562      0.035
      1289.         2.      1.375      0.051
      1289.         3.      0.339      0.063
      1289.         4.      0.082      0.082
      1289.         5.     -0.002      0.009
      1299.         1.      0.584      0.030
      1299.         2.      1.395      0.043
      1299.         3.      0.264      0.055
      1299.         4.      0.067      0.069
      1299.         5.     -0.006      0.016
      1310.         1.      0.608      0.031
      1310.         2.      1.400      0.046
      1310.         3.      0.215      0.056
      1310.         4.      0.085      0.073
      1310.         5.     -0.004      0.007
      1324.         1.      0.695      0.034
      1324.         2.      1.387      0.048
      1324.         3.      0.284      0.063
      1324.         4.      0.137      0.075
      1324.         5.      0.004      0.021
      1329.         1.      0.748      0.030
      1329.         2.      1.414      0.042
      1329.         3.      0.310      0.058
      1329.         4.      0.182      0.066
      1329.         5.      0.004      0.024    1.
      1349.         1.      0.854      0.029
      1349.         2.      1.380      0.042
      1349.         3.      0.321      0.058
      1349.         4.      0.197      0.064
      1349.         5.      0.007      0.029
      1360.         1.      0.906      0.027
      1360.         2.      1.373      0.040
      1360.         3.      0.329      0.055
      1360.         4.      0.188      0.061
      1360.         5.      0.012      0.021
      1378.         1.      0.892      0.033
      1378.         2.      1.416      0.048
      1378.         3.      0.384      0.065
      1378.         4.      0.252      0.074
      1378.         5.      0.016      0.027
      1382.         1.      0.926      0.031
      1382.         2.      1.414      0.047
      1382.         3.      0.388      0.061
      1382.         4.      0.273      0.071
      1382.         5.      0.011      0.016
      1390.         1.      0.908      0.028
      1390.         2.      1.475      0.043
      1390.         3.      0.373      0.055
      1390.         4.      0.236      0.067
      1390.         5.      0.011      0.016
      1399.         1.      0.905      0.029
      1399.         2.      1.514      0.043
      1399.         3.      0.380      0.059
      1399.         4.      0.267      0.068
      1399.         5.      0.000      0.037
      1408.         1.      0.801      0.034
      1408.         2.      1.574      0.049
      1408.         3.      0.380      0.065
      1408.         4.      0.292      0.080
      1408.         5.     -0.001      0.033
      1421.         1.      0.680      0.042
      1421.         2.      1.538      0.061
      1421.         3.      0.399      0.081
      1421.         4.      0.344      0.107
      1421.         5.      0.012      0.058
      1424.         1.      0.719      0.041
      1424.         2.      1.537      0.059
      1424.         3.      0.398      0.078
      1424.         4.      0.333      0.104
      1424.         5.      0.013      0.067
      1429.         1.      0.675      0.044
      1429.         2.      1.536      0.063
      1429.         3.      0.413      0.085
      1429.         4.      0.349      0.113
      1429.         5.      0.006      0.063
      1439.         1.      0.604      0.050
      1439.         2.      1.571      0.052
      1439.         3.      0.374      0.094
      1439.         4.      0.318      0.130
      1439.         5.      0.006      0.063
      1449.         1.      0.556      0.050
      1449.         2.      1.546      0.052
      1449.         3.      0.365      0.096
      1449.         4.      0.320      0.130
      1449.         5.      0.007      0.074
      1460.         1.      0.611      0.045
      1460.         2.      1.527      0.047
      1460.         3.      0.374      0.085
      1460.         4.      0.247      0.119
      1460.         5.      0.019      0.050
ENDDATA            472
ENDSUBENT          491
SUBENT        12144004   20141211   20150701   20150604       1405
BIB                  5          8
REACTION   (26-FE-56(N,INL)26-FE-56,PAR,SIG)
ANALYSIS   (INTAD) From Legendre polynomial fit to data.
FLAG       (1.) First measurement at energy given.
           (2.) Second measurement at energy given.
           (3.) Third measurement at energy given.
STATUS     (DEP,12144005)
           (TABLE) Taken from private comm, Smith 1968/4
HISTORY    (19860407A) Reaction product added.
ENDBIB               8
COMMON               2          3
EN-RSL     E-LVL
KEV        MEV
        50.      0.845
ENDCOMMON            3
DATA                 3         26
EN         DATA       FLAG
MEV        B          NO-DIM
      1.125      0.313
      1.149      0.882
      1.174      0.432
      1.199      0.841
      1.209      0.425
      1.224      0.401
      1.250      0.433         1.
      1.250      0.652         2.
      1.250      0.390         3.
      1.269      0.390
      1.299      0.380         1.
      1.299      0.451         2.
      1.319      0.591
      1.324      0.376
      1.359      0.534
      1.375      0.458
      1.379      0.477
      1.399      0.804         1.
      1.399      0.532         2.
      1.399      0.576         3.
      1.419      0.457
      1.424      0.569
      1.449      0.532         1.
      1.449      0.630         2.
      1.474      0.553
      1.500      0.494
ENDDATA             28
ENDSUBENT           45
SUBENT        12144005   20141211   20150701   20150604       1405
BIB                  4          7
REACTION   (26-FE-56(N,INL)26-FE-56,PAR,DA,,LEG/RS)
FLAG       (1.) First measurement at energy given.
           (2.) Second measurement at energy given.
           (3.) Third measurement at energy given.
STATUS     (TABLE) Taken from private comm, Smith,1968/4.
HISTORY    (19860407A) Reaction product added.
           (20141211A) BP: Reaction string corrected.
ENDBIB               7
COMMON               2          3
EN-RSL     E-LVL
KEV        MEV
        50.      0.845
ENDCOMMON            3
DATA                 4         52
EN         NUMBER     DATA       FLAG
MEV        NO-DIM     NO-DIM     NO-DIM
      1.125         1.      0.339
      1.125         2.      0.120
      1.149         1.      0.065
      1.149         2.      0.037
      1.174         1.      0.022
      1.174         2.     -0.224
      1.199         1.      0.036
      1.199         2.     -0.279
      1.209         1.     -0.028
      1.209         2.      0.055
      1.224         1.      0.061
      1.224         2.     -0.224
      1.250         1.     -0.022         1.
      1.250         1.     -0.002         2.
      1.250         1.      0.198         3.
      1.250         2.      0.047         1.
      1.250         2.     -0.253         2.
      1.250         2.     -0.047         3.
      1.269         1.      0.018
      1.269         2.      0.034
      1.299         1.      0.012         1.
      1.299         1.     -0.001         2.
      1.299         2.     -0.159         1.
      1.299         2.      0.013         2.
      1.319         1.      0.079
      1.319         2.     -0.186
      1.324         1.      0.138
      1.324         2.      0.166
      1.359         1.     -0.009
      1.359         2.     -0.323
      1.375         1.      0.098
      1.375         2.     -0.234
      1.379         1.      0.129
      1.379         2.      0.076
      1.399         1.      0.038         1.
      1.399         1.      0.204         2.
      1.399         1.      0.236         3.
      1.399         2.     -0.111         1.
      1.399         2.     -0.069         2.
      1.399         2.      0.186         3.
      1.419         1.     -0.057
      1.419         2.     -0.144
      1.424         1.      0.101
      1.424         2.     -0.037
      1.449         1.     -0.002         1.
      1.449         1.      0.303         2.
      1.449         2.      0.049         1.
      1.449         2.      0.159         2.
      1.474         1.      0.199
      1.474         2.      0.298
      1.500         1.      0.366
      1.500         2.      0.307
ENDDATA             54
ENDSUBENT           70
SUBENT        12144006   20141211   20150701   20150604       1405
BIB                  3          7
REACTION   (26-FE-0(N,TOT),,SIG)
ERR-ANALYS Energy error estimated to be less than 5 keV.
           Estimated cross section uncertainty is 5 percent or
           less at most energies. Possibly larger uncertainty at
           high energy. Energy scale is calibrated against
           Li(p,n) threshold at 1.882 MeV.
STATUS     (TABLE) Taken from private comm, Smith 1968/3.
ENDBIB               7
NOCOMMON             0          0
DATA                 2       1472
EN         DATA
MEV        B
   0.332603       1.45
   0.333171       0.85
   0.333729       1.00
   0.334297       1.05
   0.334855       1.20
   0.335423       0.75
   0.335992       1.50
   0.336550       2.20
   0.337118       1.90
   0.337686       1.40
   0.338244       0.55
   0.338812       0.60
   0.339370       0.85
   0.339938       0.80
   0.340504       0.95
   0.341064       0.70
   0.341632       0.75
   0.342191       1.25
   0.342759       1.05
   0.343317       0.90
   0.343885       0.62
   0.344453       0.50
   0.345011       0.70
   0.345579       0.65
   0.346137       1.00
   0.346705       1.05
   0.347273       1.85
   0.347831       2.05
   0.348399       2.50
   0.348957       2.10
   0.349525       1.10
   0.350093       1.05
   0.350651       0.80
   0.351219       0.70
   0.351787       0.50
   0.352345       0.60
   0.352913       0.50
   0.353471       0.40
   0.354039       0.70
   0.354597       0.95
   0.355165       1.10
   0.355733       0.90
   0.356291       1.20
   0.356859       1.40
   0.357427       1.50
   0.357985       2.30
   0.358553       2.70
   0.359111       3.30
   0.359679       3.35
   0.360237       2.80
   0.360247       1.80
   0.360745       1.95
   0.360805       1.85
   0.361243       2.45
   0.361741       3.10
   0.362239       3.35
   0.362737       3.75
   0.363236       4.30
   0.363734       5.60
   0.364232       6.15
   0.364730       6.45
   0.365228       6.55
   0.365726       6.80
   0.366225       6.65
   0.366723       6.90
   0.367221       6.30
   0.367719       5.90
   0.368217       6.00
   0.368715       5.35
   0.369213       5.25
   0.369711       4.90
   0.370210       4.30
   0.370708       4.35
   0.371206       3.75
   0.371704       3.15
   0.372202       2.75
   0.372700       2.95
   0.373198       2.35
   0.373696       2.25
   0.374194       2.00
   0.374692       1.85
   0.375190       1.40
   0.375689       1.45
   0.376187       1.70
   0.376685       1.25
   0.377183       1.45
   0.377681       0.70
   0.378179       0.85
   0.378414       0.80
   0.378677       0.70
   0.379000       0.40
   0.379175       0.80
   0.379585       0.67
   0.380171       0.92
   0.380757       1.34
   0.381342       1.65
   0.381928       2.35
   0.382514       2.61
   0.383100       2.66
   0.383685       3.15
   0.384271       3.43
   0.384857       4.32
   0.385442       4.65
   0.386028       5.07
   0.386614       5.52
   0.387199       5.19
   0.387785       5.83
   0.388370       5.87
   0.388956       6.35
   0.389542       6.61
   0.390530       6.78
   0.390928       7.00
   0.391326       7.27
   0.391725       6.96
   0.392123       6.82
   0.392522       6.60
   0.392920       6.67
   0.393318       6.67
   0.393717       6.82
   0.394115       6.63
   0.394513       6.38
   0.394912       6.28
   0.395310       6.17
   0.395708       6.15
   0.396107       6.08
   0.396505       5.80
   0.396904       5.65
   0.397302       5.58
   0.397700       5.21
   0.398099       5.06
   0.398497       5.21
   0.398895       5.24
   0.399294       5.02
   0.399692       4.50
   0.400090       4.32
   0.400564       4.62
   0.401038       4.52
   0.401512       4.22
   0.401986       3.80
   0.402460       3.91
   0.402934       4.41
   0.403408       4.79
   0.403882       5.53
   0.404356       5.87
   0.404830       6.16
   0.405304       5.48
   0.405778       4.23
   0.406252       2.97
   0.406726       2.86
   0.407200       2.76
   0.407674       4.10
   0.408148       5.12
   0.408622       5.82
   0.409096       6.15
   0.409570       6.22
   0.410044       5.93
   0.410546       6.30
   0.411043       5.35
   0.411541       5.85
   0.412039       5.54
   0.412537       5.35
   0.413035       5.40
   0.413533       5.18
   0.414030       5.24
   0.414528       5.27
   0.415026       4.75
   0.415524       5.17
   0.416022       4.55
   0.416520       4.70
   0.417017       4.50
   0.417515       4.70
   0.418013       5.18
   0.418511       5.35
   0.419009       6.07
   0.419506       6.84
   0.420004       8.03
   0.420502       8.08
   0.421000       7.17
   0.421497       6.28
   0.421995       5.28
   0.422493       4.95
   0.422991       4.29
   0.423488       4.06
   0.423986       4.31
   0.424484       4.06
   0.424982       4.15
   0.425479       3.94
   0.425977       3.87
   0.426475       4.18
   0.426973       4.02
   0.427470       3.95
   0.427968       3.70
   0.428466       3.92
   0.428964       3.88
   0.429461       3.43
   0.429959       3.25
   0.429979       2.77
   0.430433       3.00
   0.430642       2.73
   0.430907       3.16
   0.431305       2.49
   0.431380       2.93
   0.431854       3.15
   0.431968       2.97
   0.432328       2.73
   0.432631       2.56
   0.432802       2.71
   0.433276       2.70
   0.433294       1.82
   0.433750       2.46
   0.433957       1.45
   0.434223       2.94
   0.434619       1.43
   0.434697       2.53
   0.435171       1.80
   0.435282       1.97
   0.435645       1.44
   0.435945       2.82
   0.436118       1.45
   0.436592       1.93
   0.436608       3.87
   0.437066       2.80
   0.437271       5.53
   0.437540       3.86
   0.437934       5.58
   0.438014       5.27
   0.438487       5.55
   0.438597       5.35
   0.438961       5.33
   0.439260       5.01
   0.439435       4.95
   0.439909       4.79
   0.439923       4.80
   0.440382       4.56
   0.440585       4.59
   0.440856       4.55
   0.441248       4.57
   0.441330       4.45
   0.441804       4.32
   0.441911       4.49
   0.442277       4.07
   0.442574       4.32
   0.442751       4.00
   0.443225       4.20
   0.443237       4.08
   0.443699       4.16
   0.443900       3.97
   0.444172       4.37
   0.444563       4.23
   0.444646       4.82
   0.445120       5.45
   0.445225       4.18
   0.445594       5.62
   0.445888       3.93
   0.446551       4.25
   0.447214       4.99
   0.447877       6.08
   0.448539       5.59
   0.449202       4.68
   0.449865       4.20
   0.450528       4.22
   0.451191       4.19
   0.451853       3.68
   0.452516       3.52
   0.453177       3.66
   0.453179       3.32
   0.453842       3.31
   0.454504       3.28
   0.455830       3.99
   0.456492       4.05
   0.457155       3.89
   0.457818       3.50
   0.458481       3.19
   0.459143       2.94
   0.459806       2.92
   0.460469       3.08
   0.461131       3.00
   0.461794       2.87
   0.462457       2.68
   0.463119       2.75
   0.463782       2.45
   0.464445       2.00
   0.465107       1.75
   0.465770       1.53
   0.466433       1.30
   0.467095       1.16
   0.467758       1.11
   0.470407       1.50
   0.471049       2.33
   0.471691       3.82
   0.472332       5.07
   0.472974       5.41
   0.473616       5.24
   0.474257       5.03
   0.474899       4.69
   0.475541       4.41
   0.476182       4.25
   0.476824       3.84
   0.477466       3.69
   0.478107       3.66
   0.478749       3.62
   0.479391       3.55
   0.480032       3.65
   0.480674       3.74
   0.481316       3.56
   0.481957       3.90
   0.482599       4.14
   0.483240       3.93
   0.483882       3.33
   0.484524       3.12
   0.485165       3.17
   0.485807       3.27
   0.486448       3.20
   0.487090       3.04
   0.487731       3.20
   0.488373       3.15
   0.489015       3.33
   0.489656       3.96
   0.490323       4.90
   0.490986       6.05
   0.491648       5.20
   0.492311       3.95
   0.492973       3.28
   0.493635       2.68
   0.494298       2.93
   0.494960       2.71
   0.495623       2.30
   0.496285       1.98
   0.496947       1.73
   0.497610       1.55
   0.498272       1.67
   0.498934       1.85
   0.499597       2.28
   0.500259       3.13
   0.500921       4.00
   0.501584       4.75
   0.502246       4.94
   0.502908       4.70
   0.503571       4.65
   0.504233       3.94
   0.504895       3.50
   0.505558       3.37
   0.506220       2.96
   0.506882       2.82
   0.507544       2.88
   0.508207       2.77
   0.508869       2.94
   0.509531       3.52
   0.510261       4.50
   0.510971       5.32
   0.511681       5.66
   0.512391       4.70
   0.513101       4.15
   0.513811       3.31
   0.514521       3.12
   0.515231       3.01
   0.515941       2.92
   0.516651       2.69
   0.517361       2.74
   0.518070       2.68
   0.518780       2.67
   0.519490       2.71
   0.520200       2.77
   0.520910       2.49
   0.521620       2.58
   0.522320       2.65
   0.523040       2.54
   0.523749       2.64
   0.524459       2.53
   0.525169       2.75
   0.525879       2.94
   0.526616       2.10
   0.526990       2.25
   0.527365       2.45
   0.527740       2.30
   0.528115       2.45
   0.528490       2.31
   0.528864       2.25
   0.529239       2.15
   0.529614       2.05
   0.529989       1.91
   0.530363       1.75
   0.530738       1.87
   0.531113       2.02
   0.531488       2.17
   0.531863       2.37
   0.532237       2.40
   0.532612       2.37
   0.532987       2.15
   0.533362       1.82
   0.533736       1.92
   0.534111       1.95
   0.534486       1.77
   0.534861       1.90
   0.535235       1.71
   0.535610       1.70
   0.535985       1.75
   0.536360       2.00
   0.536734       2.20
   0.537109       2.41
   0.537484       3.00
   0.537859       3.30
   0.538233       3.20
   0.538608       3.45
   0.538983       3.71
   0.539358       4.05
   0.539732       4.31
   0.540060       4.26
   0.540402       3.70
   0.540744       3.45
   0.541086       3.00
   0.541428       2.63
   0.541770       2.30
   0.542112       2.05
   0.542454       1.80
   0.542796       1.91
   0.543138       2.10
   0.543479       2.22
   0.543821       2.41
   0.544163       2.66
   0.544505       2.62
   0.544847       3.02
   0.545189       3.45
   0.545531       3.91
   0.545873       4.32
   0.546215       4.71
   0.546557       4.82
   0.546898       4.21
   0.547240       3.61
   0.547582       3.37
   0.547924       2.70
   0.548266       2.58
   0.548608       2.39
   0.548950       2.22
   0.549292       2.33
   0.549634       2.11
   0.549634       2.04
   0.549975       2.13
   0.549975       2.21
   0.550317       2.06
   0.550659       2.14
   0.551001       2.32
   0.551343       2.11
   0.551685       2.23
   0.552027       2.38
   0.552369       2.21
   0.552710       1.94
   0.553052       1.64
   0.553394       1.52
   0.553696       1.60
   0.554078       1.44
   0.554420       1.54
   0.554762       1.50
   0.555103       1.52
   0.555445       1.63
   0.555787       1.64
   0.556129       2.02
   0.556471       2.12
   0.556813       2.10
   0.557155       2.82
   0.557496       3.50
   0.557838       3.83
   0.558180       3.44
   0.558522       2.94
   0.558864       2.70
   0.559206       2.83
   0.559547       3.78
   0.559889       4.73
   0.560231       5.40
   0.560573       5.12
   0.560915       4.60
   0.561257       4.11
   0.561598       3.72
   0.561940       3.51
   0.562282       3.13
   0.562624       3.22
   0.562966       3.12
   0.563308       3.11
   0.563649       3.22
   0.563991       2.91
   0.564333       2.82
   0.564346       3.21
   0.564675       2.55
   0.564768       3.02
   0.565017       2.60
   0.565191       3.10
   0.565358       2.50
   0.565613       3.11
   0.566035       2.90
   0.566457       2.62
   0.566880       2.50
   0.567302       2.42
   0.567724       2.52
   0.568147       2.75
   0.568569       3.00
   0.568991       2.82
   0.569413       2.62
   0.569836       2.50
   0.570258       2.15
   0.570680       2.10
   0.571097       2.10
   0.571525       1.90
   0.571942       2.00
   0.572369       2.02
   0.572786       1.75
   0.573214       1.95
   0.573631       2.07
   0.574058       2.21
   0.574475       2.41
   0.574903       2.70
   0.575320       3.46
   0.575747       4.10
   0.576169       5.06
   0.576592       5.84
   0.577009       6.60
   0.577436       6.80
   0.577858       6.51
   0.578281       5.35
   0.578698       5.00
   0.579125       4.40
   0.579969       3.80
   0.580392       3.42
   0.580814       2.90
   0.581236       2.70
   0.581658       2.65
   0.582080       2.49
   0.582503       2.31
   0.582925       2.21
   0.583347       2.00
   0.583347       2.20
   0.583769       2.26
   0.584191       2.00
   0.584614       2.00
   0.585458       2.00
   0.585880       1.80
   0.586302       1.89
   0.586724       1.90
   0.587147       2.00
   0.587569       1.90
   0.587991       1.80
   0.588413       1.89
   0.588835       2.07
   0.589257       2.00
   0.589680       1.90
   0.590102       2.00
   0.590524       2.10
   0.590946       2.09
   0.591368       1.70
   0.591790       1.60
   0.592213       1.62
   0.592635       1.50
   0.593057      1.509
   0.593479       1.80
   0.593901       1.70
   0.594323       1.85
   0.594745       2.05
   0.595167       2.30
   0.595590       2.15
   0.596012       2.20
   0.596434       2.03
   0.596856       1.85
   0.597278       1.80
   0.597700       1.77
   0.598122       1.75
   0.598544       1.65
   0.598966       1.60
   0.600314       1.45
   0.600755       1.50
   0.601196       1.65
   0.601637       1.40
   0.602078       1.30
   0.602740      1.575
   0.603401       1.77
   0.603842       1.60
   0.604283       1.68
   0.604724       1.68
   0.605165       1.30
   0.605606       1.27
   0.606047       1.34
   0.606708       1.12
   0.607369       0.95
   0.607810       1.08
   0.608251       0.90
   0.608692       1.07
   0.609133       1.20
   0.609574       1.04
   0.610015       1.27
   0.610676      1.085
   0.611338       1.41
   0.611778       1.80
   0.612219       2.35
   0.612660       3.15
   0.613101       3.80
   0.613542       4.39
   0.613983       4.51
   0.614644       3.86
   0.615306       2.87
   0.615746       2.60
   0.616187       2.60
   0.616628       2.39
   0.617069       2.30
   0.617510       2.07
   0.617951       1.92
   0.618612      1.915
   0.619714       1.70
   0.620155       1.60
   0.620596       1.57
   0.621037       1.57
   0.621478       1.68
   0.621918       1.60
   0.622580       1.65
   0.623241       1.51
   0.623682       1.50
   0.624123       1.41
   0.624563       1.40
   0.625004       1.40
   0.625445       1.37
   0.625886       1.20
   0.626547    1.24999
   0.627208       1.30
   0.627649       1.20
   0.628090       1.19
   0.628531       1.17
   0.628972       1.65
   0.629412       1.32
   0.629853       1.40
   0.630514      1.435
   0.631193       1.30
   0.631630       1.30
   0.632077       1.29
   0.632518       1.21
   0.632958       1.40
   0.633399       1.60
   0.633840       1.50
   0.634501       1.45
   0.635162       1.00
   0.635603       0.90
   0.636038       0.82
   0.636539       0.71
   0.637023      0.735
   0.637506      0.805
   0.637989      0.705
   0.638547       0.83
   0.639125       0.90
   0.639404       1.00
   0.639766       1.20
   0.640295       1.31
   0.640824       1.50
   0.641349       2.04
   0.641875       2.52
   0.642411       3.12
   0.642937       3.34
   0.643463       3.10
   0.643969       2.63
   0.644525       1.82
   0.645051       1.20
   0.645587       1.07
   0.646153       0.80
   0.646649       0.69
   0.647165       0.68
   0.647701       0.68
   0.648227       0.80
   0.649289       1.00
   0.649815       1.02
   0.650341       1.54
   0.650867       1.80
   0.651393       1.89
   0.651929       1.70
   0.652455       1.79
   0.652981       2.00
   0.653517       2.22
   0.654043       2.40
   0.654569       2.41
   0.655105       2.39
   0.655631       2.81
   0.656157       3.02
   0.656683       2.52
   0.657219       1.90
   0.657745       1.80
   0.658415       1.70
   0.659065       1.87
   0.659571       1.69
   0.660077       1.69
   0.660583       1.86
   0.661099       2.10
   0.661605       2.32
   0.662111       2.43
   0.662617       2.40
   0.663124       2.69
   0.663640       2.62
   0.664146       2.61
   0.664652       2.89
   0.665158       2.92
   0.665664       3.12
   0.666180       3.22
   0.666686       3.61
   0.667192       3.83
   0.667698       3.62
   0.668204       3.61
   0.668720       3.70
   0.669226       3.91
   0.669732       4.02
   0.670238       4.12
   0.670744       3.82
   0.671260       3.82
   0.671766       3.82
   0.672272       3.82
   0.672778       3.71
   0.673284       3.70
   0.673800       3.80
   0.674306       3.69
   0.674812       3.68
   0.675318       3.50
   0.675824       3.57
   0.676340       3.67
   0.676846       3.69
   0.677352       3.69
   0.677858       3.69
   0.678404       3.79
   0.678969       3.80
   0.679535       3.40
   0.680100       3.39
   0.680666       3.30
   0.681231       3.29
   0.681797       3.12
   0.682362       2.62
   0.682928       2.40
   0.683493       2.02
   0.684069       1.92
   0.684634       1.90
   0.685200       1.82
   0.685765       2.00
   0.686331       2.31
   0.686896       2.10
   0.687462       2.11
   0.688027       2.01
   0.688592       1.81
   0.689158       1.62
   0.689733       1.81
   0.690299       2.19
   0.690864       2.80
   0.691429       3.82
   0.691995       4.20
   0.692560       4.43
   0.693126       4.52
   0.693691       3.95
   0.694256       3.29
   0.694822       2.54
   0.695397       1.92
   0.695963       1.61
   0.696528       1.32
   0.697093       1.20
   0.697659       1.20
   0.698244       1.12
   0.698779       1.12
   0.699315       1.02
   0.699851       0.95
   0.700386       1.02
   0.700922       0.85
   0.701457       0.91
   0.701993       1.02
   0.702529       0.84
   0.703064       0.92
   0.703600       0.84
   0.704135       0.90
   0.704671       0.91
   0.705206       1.10
   0.705735       1.04
   0.706264       1.18
   0.706793       1.40
   0.707319       1.42
   0.707845       1.63
   0.708380       1.71
   0.708861       1.62
   0.709431       1.91
   0.709957       2.18
   0.710492       2.41
   0.711018       2.50
   0.711554       2.61
   0.712079       3.00
   0.712605       3.30
   0.713140       3.51
   0.713656       3.70
   0.714191       4.00
   0.714717       4.11
   0.715252       4.12
   0.715778       4.21
   0.716304       4.11
   0.716829       4.00
   0.717365       3.40
   0.717890       4.18
   0.718416       4.50
   0.719477       4.90
   0.720002       4.90
   0.720528       4.60
   0.721063       4.61
   0.721589       4.11
   0.722114       4.40
   0.722640       4.60
   0.723175       4.61
   0.723701       5.07
   0.724236       5.80
   0.724762       6.10
   0.725287       5.50
   0.725823       4.68
   0.726348       4.18
   0.726874       3.50
   0.727409       3.28
   0.727934       3.30
   0.728460       3.40
   0.728985       3.20
   0.729686      2.565
   0.730259      2.395
   0.730572       2.30
   0.731092       2.12
   0.731712       2.12
   0.732331       2.40
   0.732951       3.07
   0.733571       3.60
   0.734190       3.80
   0.734810       2.91
   0.735430       2.39
   0.736049       1.87
   0.736669       1.70
   0.737288       1.70
   0.737908       2.08
   0.738528       2.42
   0.739147       3.12
   0.739767       3.40
   0.740386       3.82
   0.741006       4.19
   0.741625       4.30
   0.742245       4.48
   0.742864       4.31
   0.743484       4.00
   0.744104       3.88
   0.744723       3.52
   0.745343       3.88
   0.745962       3.90
   0.746582       4.39
   0.747201       4.00
   0.747821       3.85
   0.749369      3.495
   0.750299       4.70
   0.751227      6.135
   0.752466      6.865
   0.753396       6.29
   0.754325      5.095
   0.755254       4.39
   0.756183      3.785
   0.758392       3.43
   0.759382       3.10
   0.760372       2.72
   0.761362       2.62
   0.762352       2.92
   0.763342       3.07
   0.764332       3.12
   0.765322       2.79
   0.766312       2.42
   0.767302       2.87
   0.768292       3.82
   0.769282       4.35
   0.770272       4.32
   0.771262       4.10
   0.772252       3.92
   0.773242       3.86
   0.774232       4.01
   0.775221       3.87
   0.776211       4.03
   0.777201      4.215
   0.778211       4.42
   0.779201      3.995
   0.780190       3.82
   0.781180       4.01
   0.782170       3.62
   0.783160      3.655
   0.784149       4.50
   0.785139       5.28
   0.786129       6.20
   0.787119      6.795
   0.788108       6.58
   0.789098      5.135
   0.790088      4.410
   0.791077       3.87
   0.792067       3.77
   0.793056       3.94
   0.794046       3.50
   0.795036      3.335
   0.796025       3.00
   0.797015       2.85
   0.798024       2.80
   0.799014      2.935
   0.800003       2.92
   0.800993       3.01
   0.801982       3.50
   0.802972       3.81
   0.803963       3.80
   0.804951      3.105
   0.805940       2.58
   0.806930       2.67
   0.807919       2.31
   0.808908       2.15
   0.809898       2.10
   0.810887       2.24
   0.811877       2.50
   0.812866       2.74
   0.813855       3.32
   0.814845      3.175
   0.815834       3.12
   0.816823       2.95
   0.817880       3.00
   0.818587       2.89
   0.819647      2.295
   0.820708       1.82
   0.821769      1.705
   0.822829       2.04
   0.823536       2.13
   0.824597       2.95
   0.825657       3.53
   0.826717      3.865
   0.827778       3.63
   0.828485       2.84
   0.829545      2.025
   0.830606       1.71
   0.831666      1.865
   0.832726       2.52
   0.833433       2.62
   0.834494      2.805
   0.835554       2.60
   0.836614       1.99
   0.837675       2.12
   0.838382       2.50
   0.839442      2.695
   0.840502       3.00
   0.841562       2.84
   0.842623       3.31
   0.844405       2.67
   0.845466       3.00
   0.846172       2.77
   0.847233       3.07
   0.848293       3.90
   0.849353       3.72
   0.850413       2.80
   0.851120       2.17
   0.852180      1.855
   0.853240       1.87
   0.854300       1.72
   0.855360       1.61
   0.856420       1.41
   0.857480       1.50
   0.858187       1.80
   0.859247      2.365
   0.860307       3.07
   0.861367       3.03
   0.862427       3.07
   0.863133       2.90
   0.864193      2.935
   0.865253       2.92
   0.866313      3.335
   0.867373       3.67
   0.868080       3.99
   0.869139       3.55
   0.870199       3.27
   0.871259       2.90
   0.872319       2.60
   0.873025       2.81
   0.874085      3.075
   0.875145       3.50
   0.876205      3.235
   0.877264       2.82
   0.877971       2.50
   0.879031      2.035
   0.880090       2.10
   0.881150      1.895
   0.882210       1.95
   0.882916       1.75
   0.883976       2.09
   0.885035       2.47
   0.886095       2.85
   0.887155       2.71
   0.887861       2.48
   0.888921       2.56
   0.889980       2.65
   0.891040       2.51
   0.892099       2.15
   0.892806       1.85
   0.893865       1.60
   0.894925       1.60
   0.896353       1.50
   0.897177       1.67
   0.898001       1.90
   0.898825       1.97
   0.899649       1.87
   0.900885      2.425
   0.902121       2.75
   0.902945       2.91
   0.903769       2.55
   0.904596       2.56
   0.905828       2.13
   0.907065       1.91
   0.907889       2.05
   0.908712       1.82
   0.909536       1.85
   0.910772       1.72
   0.912008       1.74
   0.912832       1.70
   0.913656       1.71
   0.914479       1.70
   0.915715      2.075
   0.916951       2.35
   0.917775       2.25
   0.918598       2.07
   0.919422       1.80
   0.920657      1.655
   0.921893       1.92
   0.922717       1.68
   0.923541       1.90
   0.924365       1.76
   0.925600      1.845
   0.926836       2.00
   0.927659       1.87
   0.928483       1.89
   0.929307       1.75
   0.930542      1.525
   0.931778       1.64
   0.932601       1.76
   0.933425       2.00
   0.934249       2.35
   0.935483    2.49999
   0.936719       2.21
   0.937543       1.85
   0.938366       1.42
   0.939190       1.18
   0.941476       1.31
   0.942403       1.11
   0.943375       1.35
   0.944347       1.32
   0.945318       1.37
   0.946290       1.55
   0.947262       1.79
   0.948234       2.04
   0.949205       1.87
   0.950177       2.14
   0.951149       2.10
   0.952121       2.19
   0.953092       2.20
   0.954064       2.07
   0.955035       2.00
   0.956007       1.80
   0.956979       1.75
   0.957950       1.20
   0.958922       1.07
   0.959894       1.06
   0.960865       1.25
   0.961837       1.45
   0.962808       1.55
   0.963780       1.62
   0.964751       1.77
   0.965723       2.40
   0.966694       2.75
   0.967666       3.10
   0.968637       3.60
   0.969609       3.62
   0.970580       3.47
   0.971552       3.27
   0.972523       3.10
   0.973494       3.15
   0.974951       3.55
   0.976408       3.90
   0.977380       3.85
   0.978351       3.62
   0.979322       3.25
   0.980294       3.40
   0.981265       2.95
   0.982236       2.70
   0.983208       2.42
   0.984179       2.10
   0.985150       2.05
   0.986121       1.87
   0.987093       1.85
   0.988064       1.83
   0.989035       1.80
   0.990006       2.10
   0.990977       2.30
   0.991949       2.40
   0.992920       2.85
   0.993891       2.93
   0.994862       2.82
   0.996800       2.95
   0.997768       3.35
   0.998746       3.00
   0.999714       2.80
    1.00068       2.79
    1.00188       2.21
    1.00286       2.01
    1.00384       2.08
    1.00508       2.80
    1.00607       3.20
    1.00706       3.10
    1.00805       3.21
    1.00903       3.20
    1.01002       3.10
    1.01101       3.10
    1.01200       2.85
    1.01299       2.45
    1.01397       2.25
    1.01496       2.65
    1.01595       2.45
    1.01694       2.35
    1.01792       2.35
    1.01891       2.65
    1.01990       2.10
    1.02089       2.00
    1.02187       2.05
    1.02286       1.75
    1.02385       1.82
    1.02484       1.65
    1.02582       1.50
    1.02681       1.60
    1.02780       1.45
    1.02879       1.62
    1.02977       1.50
    1.03076       1.70
    1.03175       1.85
    1.03274       2.10
    1.03372       2.10
    1.03471       2.10
    1.03580       2.05
    1.03688       1.95
    1.03807       2.05
    1.03915       2.25
    1.04024       2.57
    1.04142       2.77
    1.04251       2.92
    1.04360       2.80
    1.04478       2.85
    1.04587       3.10
    1.04695       3.15
    1.04804       3.05
    1.04922       3.35
    1.05031       3.57
    1.05140       3.40
    1.05258       3.70
    1.05367       3.67
    1.05475       3.62
    1.05594       3.60
    1.05702       3.47
    1.05811       3.55
    1.05919       3.20
    1.06028       3.05
    1.06146       3.06
    1.06255       2.76
    1.06373       2.75
    1.06482       2.82
    1.06591       2.61
    1.06699       2.75
    1.06818       2.65
    1.06926       2.81
    1.07035       2.95
    1.07153       2.76
    1.07262       2.94
    1.07370       2.83
    1.07489       2.98
    1.07597       3.27
    1.07706       3.40
    1.07824       3.63
    1.07933       3.70
    1.08041       3.68
    1.08160       3.35
    1.08268       3.20
    1.08377       2.90
    1.08485       2.60
    1.08604       2.70
    1.08712       2.30
    1.08821       2.60
    1.08939       2.60
    1.09048       2.70
    1.09156       2.77
    1.09265       3.10
    1.09383       2.93
    1.09492       2.69
    1.09580       2.82
    1.09679       2.64
    1.09768       2.37
    1.09867       2.37
    1.09955       2.21
    1.10044       2.03
    1.10143       1.80
    1.10232       1.83
    1.10330       1.67
    1.10429       1.65
    1.10518       1.77
    1.10616       2.00
    1.10705       1.76
    1.10804       2.03
    1.10892       1.99
    1.10991       2.31
    1.11080       2.10
    1.11223    2.24999
    1.11366       2.31
    1.11465       2.35
    1.11553       2.25
    1.11642       2.20
    1.11741       2.00
    1.11839       1.82
    1.11928       1.85
    1.12027       1.77
    1.12115       2.02
    1.12214       1.76
    1.12303       1.85
    1.12401       1.60
    1.12490       1.80
    1.12589       2.02
    1.12678       2.10
    1.12776       2.32
    1.12865       2.35
    1.12964       2.57
    1.13097      3.085
    1.13240       3.20
    1.13333       3.07
    1.13427       2.90
    1.13526       3.00
    1.13614       2.80
    1.13713       2.67
    1.13802       2.57
    1.13900       2.55
    1.13989       2.31
    1.14088       2.50
    1.14176       2.35
    1.14275       2.25
    1.14374       2.24
    1.14462      2.235
    1.14561       2.40
    1.14650       2.52
    1.14748       2.32
    1.14837       2.57
    1.14926       2.58
    1.15069       2.52
    1.15212       2.25
    1.15310       2.40
    1.15399       2.52
    1.15497       2.43
    1.15586       2.58
    1.15685       2.40
    1.15783       2.15
    1.15872       2.13
    1.15911       2.41
    1.16020       2.20
    1.16138       2.18
    1.16256       2.03
    1.16365       2.20
    1.16483       1.93
    1.16601       1.80
    1.16720       1.87
    1.16828       1.80
    1.16946       1.85
    1.17055       1.60
    1.17177       1.65
    1.17291       1.80
    1.17410       1.85
    1.17518       1.80
    1.17636       1.99
    1.17755       1.85
    1.17863       1.99
    1.17981       2.15
    1.18099       2.07
    1.18218       2.05
    1.18326       2.40
    1.18444       2.35
    1.18553       2.65
    1.18671       2.50
    1.18789       3.07
    1.18907       2.80
    1.19016       2.85
    1.19134       2.80
    1.19252       2.65
    1.19370       2.70
    1.19489       2.50
    1.19607       2.15
    1.19725       2.07
    1.19843       1.65
    1.19962       1.35
    1.20090       1.47
    1.20208       1.47
    1.20326       1.80
    1.20444       1.89
    1.20563       2.03
    1.20681       2.10
    1.20799       2.35
    1.20917       2.45
    1.21035       2.76
    1.21163       3.06
    1.21272       3.15
    1.21400       3.27
    1.21508       3.10
    1.21636       2.85
    1.21754       2.40
    1.21873       2.15
    1.21991       2.10
    1.22109       1.77
    1.22227       1.55
    1.22345       1.75
    1.22464       1.95
    1.22582       2.07
    1.22710       2.25
    1.22828       2.80
    1.22946       3.10
    1.23064       3.95
    1.23182       4.15
    1.23320       4.30
    1.23458       4.15
    1.23586       3.70
    1.23724       3.40
    1.23862       3.35
    1.23990       3.15
    1.24128       3.00
    1.24394       2.65
    1.24531       2.42
    1.24659       2.41
    1.24797       2.20
    1.24935       2.40
    1.25063       2.25
    1.25201       2.10
    1.25329       2.30
    1.25467       2.20
    1.25604       2.35
    1.25732       2.65
    1.25851       2.90
    1.25998       2.80
    1.26136       3.15
    1.26274       3.16
    1.26402       3.20
    1.26540       2.80
    1.26677       2.90
    1.26805       2.40
    1.26943       2.40
    1.27071       2.60
    1.27209       2.27
    1.27337       2.65
    1.27475       2.62
    1.27603       2.45
    1.27740       2.80
    1.27878       2.85
    1.28006       3.15
    1.28144       3.40
    1.28272       3.10
    1.28410       3.20
    1.28547       3.00
    1.28675       2.85
    1.28813       2.77
    1.28951       2.55
    1.29079       2.31
    1.29244       2.05
    1.29384       2.15
    1.29531       2.30
    1.29836       2.52
    1.30082       3.03
    1.30328       3.57
    1.30574       3.69
    1.30820       3.26
    1.31066       2.92
    1.31312       2.75
    1.31558       2.29
    1.31804       1.72
    1.32050       1.62
    1.32295       1.88
    1.32541       2.15
    1.32787       3.22
    1.33033       3.35
    1.33279       3.24
    1.33525       3.42
    1.33771       3.59
    1.34016       3.82
    1.34262       3.68
    1.34508       3.55
    1.34754       3.65
    1.35000       3.29
    1.35245       2.87
    1.35491       2.57
    1.35737       2.81
    1.35983       3.12
    1.36228       2.83
    1.36474       3.00
    1.36720       3.11
    1.36966       3.09
    1.37211       2.91
    1.37457     2.5503
    1.37703       2.23
    1.37949       2.24
    1.38194       1.86
    1.38440       1.95
    1.38686      1.925
    1.38833    2.42024
    1.38931       2.59
    1.39054     2.6583
    1.39177     2.9178
    1.39324    3.61775
    1.39423    4.25346
    1.39570    4.08767
    1.39668    4.23737
    1.39816     3.6074
    1.39914    3.44973
    1.40061    2.81521
    1.40159     2.4528
    1.40307      2.078
    1.40405     2.2812
    1.40552     2.1698
    1.40651    2.23224
    1.40798      1.764
    1.40896       2.75
    1.41044       2.87
    1.41142      3.016
    1.41289       2.48
    1.41387      2.327
    1.41535      1.964
    1.41633       1.83
    1.41878      1.962
    1.42026    2.28866
    1.42124     2.6237
    1.42271    2.60484
    1.42370     2.9219
    1.42517       2.79
    1.42615    2.66675
    1.42762     2.4637
    1.42861      2.948
    1.43008      2.868
    1.43106      2.894
    1.43253      2.801
    1.43352    2.44706
    1.43499       2.39
    1.43597    2.49037
    1.43744     2.5603
    1.43843    2.78755
    1.43990      2.438
    1.44088     2.2026
    1.44235     2.7408
    1.44481      2.529
    1.44579    3.07062
    1.44726    3.37164
    1.44825     3.0015
    1.44972     3.7206
    1.45109    3.38773
    1.45217    3.66213
    1.45315    3.85166
    1.45463      3.968
    1.45561       4.02
    1.45708     2.9437
    1.45806    3.85969
    1.45954    3.43474
    1.46052     2.8277
    1.46199     2.9967
    1.46297      3.394
    1.46444     3.3784
    1.46543    3.18242
    1.46690    4.67903
    1.46788      4.246
    1.46935      4.551
    1.47033    4.70082
    1.47181      4.088
    1.47279     4.0586
    1.47426     4.1802
    1.47524     4.1483
    1.47671     3.6626
    1.47770     4.1318
    1.47917    3.03546
    1.48015    2.86077
    1.48162    2.41046
    1.48260      2.631
    1.48407     2.1551
    1.48506      2.229
    1.48653     2.1067
    1.48751    2.07042
ENDDATA           1474
ENDSUBENT         1486
ENDENTRY             6
