ENTRY            12159     821012
SUBENT        12159001     821012              20050926       0000
BIB                  8         12
INSTITUTE  (1USARPI)
REFERENCE  (J,BAP,12,106(GD12),6701)
           (C,66WASH,,690,6603)
           (W,YERGIN,6707) TABULATED DATA
AUTHOR     (R.C.MARTIN,P.F.YERGIN,R.H.AUGUSTSON,N.N.KAUSHAL,
           H.A.MEDICUS,E.J.WINHOLD)
TITLE      MEV NEUTRON TOTAL CROSS SECTIONS OF TA AND W ISOTOPES.
FACILITY   (LINAC) RPI ELECTRON LINAC.
METHOD     (TOF) TIME-OF-FLIGHT. 100-M FLIGHT PATH.
STATUS     (SCSRS)
HISTORY    (760803T) TRANSLATED FROM SCISRS
           (821012A) CONVERTED TO REACTION FORMALISM
ENDBIB              12
NOCOMMON             0          0
ENDSUBENT           15
SUBENT        12159002     821012              20050926       0000
BIB                  2          3
REACTION   (73-TA-181(N,TOT),,SIG)
SAMPLE     SAMPLE THICKNESS .130B/ATOM. SEPARATED ISOTOPE.
            COMPACTED METAL.
ENDBIB               3
COMMON               1          3
EN-RSL
NSEC/M
 0.25
ENDCOMMON            3
DATA                 3        565
EN         DATA       DATA-ERR
MEV        B          B
 7.001  -01 7.653  +00 5.00   -01
 7.020  -01 7.745  +00 4.93   -01
 7.040  -01 7.447  +00 4.85   -01
 7.060  -01 7.196  +00 4.71   -01
 7.080  -01 7.455  +00 4.78   -01
 7.100  -01 6.500  +00 4.70   -01
 7.120  -01 7.430  +00 4.63   -01
 7.140  -01 6.381  +00 4.68   -01
 7.162  -01 7.552  +00 4.48   -01
 7.183  -01 6.146  +00 4.65   -01
 7.205  -01 6.713  +00 4.70   -01
 7.226  -01 6.566  +00 4.58   -01
 7.248  -01 7.210  +00 4.56   -01
 7.270  -01 7.320  +00 4.54   -01
 7.288  -01 6.806  +00 4.42   -01
 7.306  -01 7.789  +00 4.37   -01
 7.325  -01 6.977  +00 4.34   -01
 7.343  -01 7.110  +00 4.45   -01
 7.361  -01 6.923  +00 4.32   -01
 7.380  -01 6.944  +00 4.37   -01
 7.402  -01 6.693  +00 4.56   -01
 7.423  -01 6.610  +00 4.53   -01
 7.445  -01 7.543  +00 4.46   -01
 7.466  -01 7.183  +00 4.37   -01
 7.488  -01 7.257  +00 4.40   -01
 7.510  -01 7.459  +00 4.26   -01
 7.532  -01 8.030  +00 4.20   -01
 7.553  -01 6.890  +00 4.40   -01
 7.575  -01 7.324  +00 4.24   -01
 7.596  -01 7.251  +00 4.18   -01
 7.618  -01 6.991  +00 4.06   -01
 7.640  -01 6.871  +00 4.16   -01
 7.662  -01 7.102  +00 4.34   -01
 7.683  -01 6.995  +00 4.36   -01
 7.705  -01 7.007  +00 4.31   -01
 7.726  -01 6.590  +00 4.36   -01
 7.748  -01 6.131  +00 4.32   -01
 7.770  -01 7.230  +00 4.42   -01
 7.792  -01 6.996  +00 4.35   -01
 7.813  -01 7.216  +00 4.18   -01
 7.835  -01 6.777  +00 4.11   -01
 7.856  -01 7.078  +00 4.20   -01
 7.878  -01 6.581  +00 4.24   -01
 7.900  -01 6.943  +00 3.99   -01
 7.925  -01 7.657  +00 4.03   -01
 7.950  -01 6.113  +00 4.12   -01
 7.975  -01 7.028  +00 4.14   -01
 8.000  -01 7.751  +00 3.92   -01
 8.025  -01 6.768  +00 3.97   -01
 8.050  -01 6.999  +00 3.95   -01
 8.072  -01 6.869  +00 3.94   -01
 8.093  -01 7.213  +00 4.04   -01
 8.115  -01 6.839  +00 3.86   -01
 8.136  -01 6.844  +00 3.89   -01
 8.158  -01 7.443  +00 3.86   -01
 8.180  -01 6.232  +00 4.01   -01
 8.203  -01 7.120  +00 3.87   -01
 8.226  -01 6.743  +00 3.90   -01
 8.250  -01 7.205  +00 3.86   -01
 8.273  -01 6.862  +00 3.89   -01
 8.296  -01 6.895  +00 3.82   -01
 8.320  -01 6.670  +00 3.81   -01
 8.347  -01 7.308  +00 3.83   -01
 8.373  -01 6.633  +00 3.81   -01
 8.400  -01 7.395  +00 3.79   -01
 8.426  -01 7.009  +00 3.99   -01
 8.453  -01 6.823  +00 3.90   -01
 8.480  -01 7.150  +00 3.70   -01
 8.505  -01 6.082  +00 3.86   -01
 8.530  -01 6.946  +00 3.73   -01
 8.555  -01 6.921  +00 3.74   -01
 8.580  -01 6.562  +00 3.71   -01
 8.605  -01 6.833  +00 3.66   -01
 8.630  -01 6.967  +00 3.64   -01
 8.655  -01 7.292  +00 3.72   -01
 8.680  -01 7.132  +00 3.66   -01
 8.705  -01 7.666  +00 3.58   -01
 8.730  -01 6.453  +00 3.59   -01
 8.755  -01 7.196  +00 3.47   -01
 8.780  -01 6.725  +00 3.58   -01
 8.807  -01 7.031  +00 3.46   -01
 8.833  -01 7.211  +00 3.52   -01
 8.860  -01 6.854  +00 3.47   -01
 8.886  -01 7.011  +00 3.43   -01
 8.913  -01 6.788  +00 3.41   -01
 8.940  -01 6.830  +00 3.40   -01
 8.967  -01 6.704  +00 3.38   -01
 8.993  -01 7.151  +00 3.30   -01
 9.020  -01 7.006  +00 3.32   -01
 9.046  -01 7.477  +00 3.28   -01
 9.073  -01 7.000  +00 3.33   -01
 9.100  -01 6.961  +00 3.40   -01
 9.128  -01 7.302  +00 3.23   -01
 9.156  -01 6.716  +00 3.27   -01
 9.185  -01 7.386  +00 3.25   -01
 9.213  -01 7.380  +00 3.34   -01
 9.241  -01 7.186  +00 3.28   -01
 9.270  -01 7.151  +00 3.23   -01
 9.298  -01 7.202  +00 3.21   -01
 9.326  -01 6.778  +00 3.28   -01
 9.355  -01 7.113  +00 3.23   -01
 9.383  -01 8.039  +00 3.16   -01
 9.411  -01 7.040  +00 3.21   -01
 9.440  -01 6.613  +00 3.30   -01
 9.470  -01 7.100  +00 3.16   -01
 9.500  -01 7.248  +00 3.18   -01
 9.530  -01 7.579  +00 3.10   -01
 9.560  -01 7.285  +00 3.15   -01
 9.590  -01 7.098  +00 3.21   -01
 9.620  -01 7.161  +00 3.23   -01
 9.652  -01 6.688  +00 3.19   -01
 9.683  -01 6.907  +00 3.26   -01
 9.715  -01 7.698  +00 3.20   -01
 9.746  -01 7.142  +00 3.22   -01
 9.778  -01 7.697  +00 3.15   -01
 9.810  -01 7.332  +00 3.10   -01
 9.842  -01 7.835  +00 3.14   -01
 9.874  -01 6.932  +00 3.18   -01
 9.905  -01 6.757  +00 3.18   -01
 9.937  -01 6.555  +00 3.26   -01
 9.969  -01 6.633  +00 3.20   -01
 1.000  +00 7.667  +00 3.23   -01
 1.003  +00 7.341  +00 3.21   -01
 1.006  +00 7.441  +00 3.21   -01
 1.010  +00 6.862  +00 3.24   -01
 1.013  +00 7.193  +00 3.25   -01
 1.016  +00 7.409  +00 3.19   -01
 1.020  +00 7.468  +00 3.17   -01
 1.023  +00 7.089  +00 3.05   -01
 1.026  +00 6.922  +00 3.14   -01
 1.029  +00 7.044  +00 3.13   -01
 1.032  +00 7.478  +00 3.09   -01
 1.035  +00 7.566  +00 3.08   -01
 1.039  +00 7.085  +00 3.06   -01
 1.042  +00 6.913  +00 3.07   -01
 1.046  +00 6.836  +00 2.98   -01
 1.049  +00 6.674  +00 2.97   -01
 1.053  +00 7.453  +00 2.93   -01
 1.056  +00 6.755  +00 2.92   -01
 1.060  +00 7.175  +00 2.93   -01
 1.064  +00 7.291  +00 2.83   -01
 1.067  +00 7.312  +00 2.83   -01
 1.071  +00 7.343  +00 2.83   -01
 1.074  +00 7.387  +00 2.84   -01
 1.078  +00 7.244  +00 2.85   -01
 1.082  +00 7.067  +00 2.88   -01
 1.086  +00 7.395  +00 2.87   -01
 1.090  +00 6.629  +00 2.86   -01
 1.094  +00 7.434  +00 2.85   -01
 1.098  +00 7.426  +00 2.89   -01
 1.102  +00 7.220  +00 2.91   -01
 1.106  +00 7.456  +00 2.92   -01
 1.110  +00 7.545  +00 2.87   -01
 1.114  +00 6.891  +00 2.85   -01
 1.118  +00 7.457  +00 2.79   -01
 1.122  +00 6.741  +00 2.79   -01
 1.126  +00 7.027  +00 2.73   -01
 1.130  +00 7.282  +00 2.69   -01
 1.134  +00 7.036  +00 2.72   -01
 1.138  +00 6.964  +00 2.71   -01
 1.143  +00 7.223  +00 2.72   -01
 1.147  +00 7.551  +00 2.62   -01
 1.151  +00 7.218  +00 2.71   -01
 1.156  +00 7.396  +00 2.73   -01
 1.161  +00 7.418  +00 2.67   -01
 1.165  +00 7.230  +00 2.63   -01
 1.170  +00 7.199  +00 2.62   -01
 1.172  +00 7.858  +00 2.67   -01
 1.177  +00 6.726  +00 2.79   -01
 1.181  +00 7.541  +00 2.71   -01
 1.186  +00 7.290  +00 2.80   -01
 1.190  +00 7.420  +00 2.70   -01
 1.195  +00 7.418  +00 2.70   -01
 1.199  +00 7.275  +00 2.66   -01
 1.204  +00 6.870  +00 2.75   -01
 1.208  +00 7.354  +00 2.63   -01
 1.213  +00 7.249  +00 2.63   -01
 1.218  +00 6.806  +00 2.63   -01
 1.222  +00 7.038  +00 2.65   -01
 1.227  +00 6.908  +00 2.65   -01
 1.231  +00 7.337  +00 2.65   -01
 1.236  +00 7.166  +00 2.65   -01
 1.241  +00 7.255  +00 2.63   -01
 1.246  +00 7.022  +00 2.63   -01
 1.250  +00 7.412  +00 2.61   -01
 1.255  +00 6.791  +00 2.62   -01
 1.260  +00 7.391  +00 2.59   -01
 1.265  +00 7.340  +00 2.61   -01
 1.270  +00 7.297  +00 2.63   -01
 1.275  +00 7.066  +00 2.62   -01
 1.280  +00 7.177  +00 2.61   -01
 1.285  +00 6.978  +00 2.65   -01
 1.290  +00 6.854  +00 2.62   -01
 1.295  +00 7.259  +00 2.57   -01
 1.300  +00 7.366  +00 2.58   -01
 1.305  +00 7.369  +00 2.55   -01
 1.310  +00 7.135  +00 2.64   -01
 1.315  +00 7.579  +00 2.60   -01
 1.320  +00 7.333  +00 2.66   -01
 1.325  +00 7.591  +00 2.58   -01
 1.331  +00 7.398  +00 2.66   -01
 1.336  +00 6.577  +00 2.72   -01
 1.342  +00 7.213  +00 2.70   -01
 1.347  +00 7.309  +00 2.66   -01
 1.353  +00 6.913  +00 2.63   -01
 1.358  +00 7.346  +00 2.58   -01
 1.364  +00 7.010  +00 2.63   -01
 1.369  +00 7.162  +00 2.65   -01
 1.375  +00 6.957  +00 2.66   -01
 1.380  +00 7.484  +00 2.58   -01
 1.386  +00 7.316  +00 2.56   -01
 1.391  +00 7.145  +00 2.55   -01
 1.397  +00 6.928  +00 2.53   -01
 1.403  +00 6.817  +00 2.55   -01
 1.408  +00 7.051  +00 2.58   -01
 1.414  +00 6.771  +00 2.58   -01
 1.419  +00 7.377  +00 2.58   -01
 1.425  +00 7.250  +00 2.61   -01
 1.431  +00 7.221  +00 2.57   -01
 1.437  +00 7.807  +00 2.55   -01
 1.443  +00 7.295  +00 2.51   -01
 1.449  +00 7.084  +00 2.51   -01
 1.455  +00 7.188  +00 2.50   -01
 1.461  +00 7.129  +00 2.57   -01
 1.467  +00 6.801  +00 2.53   -01
 1.473  +00 6.928  +00 2.51   -01
 1.479  +00 7.112  +00 2.53   -01
 1.485  +00 7.197  +00 2.49   -01
 1.491  +00 7.521  +00 2.47   -01
 1.497  +00 7.315  +00 2.43   -01
 1.503  +00 7.070  +00 2.46   -01
 1.509  +00 7.026  +00 2.43   -01
 1.516  +00 7.640  +00 2.41   -01
 1.522  +00 7.367  +00 2.40   -01
 1.529  +00 6.719  +00 2.47   -01
 1.535  +00 7.592  +00 2.41   -01
 1.542  +00 7.700  +00 2.41   -01
 1.548  +00 7.598  +00 2.44   -01
 1.555  +00 7.019  +00 2.42   -01
 1.561  +00 6.919  +00 2.48   -01
 1.568  +00 7.074  +00 2.46   -01
 1.574  +00 7.147  +00 2.48   -01
 1.581  +00 7.017  +00 2.44   -01
 1.588  +00 7.234  +00 2.40   -01
 1.595  +00 7.700  +00 2.39   -01
 1.602  +00 6.889  +00 2.43   -01
 1.609  +00 6.765  +00 2.44   -01
 1.616  +00 7.433  +00 2.46   -01
 1.623  +00 7.411  +00 2.46   -01
 1.630  +00 7.390  +00 2.52   -01
 1.637  +00 6.948  +00 2.53   -01
 1.644  +00 7.353  +00 2.45   -01
 1.651  +00 6.899  +00 2.44   -01
 1.658  +00 7.382  +00 2.34   -01
 1.666  +00 7.236  +00 2.37   -01
 1.673  +00 7.170  +00 2.37   -01
 1.680  +00 7.203  +00 2.41   -01
 1.688  +00 6.875  +00 2.47   -01
 1.695  +00 7.576  +00 2.43   -01
 1.702  +00 7.173  +00 2.38   -01
 1.710  +00 7.463  +00 2.38   -01
 1.717  +00 7.324  +00 2.37   -01
 1.725  +00 7.373  +00 2.41   -01
 1.732  +00 7.365  +00 2.38   -01
 1.740  +00 7.127  +00 2.38   -01
 1.747  +00 7.277  +00 2.43   -01
 1.755  +00 6.864  +00 2.45   -01
 1.763  +00 7.224  +00 2.42   -01
 1.771  +00 7.443  +00 2.43   -01
 1.779  +00 7.001  +00 2.46   -01
 1.787  +00 6.710  +00 2.52   -01
 1.795  +00 7.218  +00 2.48   -01
 1.803  +00 7.270  +00 2.46   -01
 1.811  +00 7.085  +00 2.49   -01
 1.819  +00 7.368  +00 2.48   -01
 1.828  +00 7.307  +00 2.50   -01
 1.836  +00 7.384  +00 2.51   -01
 1.844  +00 7.222  +00 2.44   -01
 1.853  +00 7.369  +00 2.40   -01
 1.861  +00 7.604  +00 2.41   -01
 1.870  +00 7.413  +00 2.46   -01
 1.878  +00 7.739  +00 2.43   -01
 1.887  +00 7.180  +00 2.46   -01
 1.895  +00 7.252  +00 2.44   -01
 1.904  +00 7.463  +00 2.45   -01
 1.913  +00 7.146  +00 2.43   -01
 1.922  +00 7.226  +00 2.42   -01
 1.931  +00 7.220  +00 2.46   -01
 1.940  +00 8.092  +00 2.47   -01
 1.949  +00 7.233  +00 2.47   -01
 1.959  +00 7.792  +00 2.50   -01
 1.968  +00 7.131  +00 2.51   -01
 1.977  +00 7.300  +00 2.48   -01
 1.986  +00 7.450  +00 2.46   -01
 1.995  +00 7.682  +00 2.50   -01
 2.004  +00 7.621  +00 2.50   -01
 2.014  +00 7.294  +00 2.45   -01
 2.024  +00 6.929  +00 2.48   -01
 2.033  +00 7.467  +00 2.44   -01
 2.043  +00 7.752  +00 2.43   -01
 2.053  +00 6.994  +00 2.45   -01
 2.063  +00 7.855  +00 2.45   -01
 2.073  +00 7.480  +00 2.47   -01
 2.083  +00 7.607  +00 2.49   -01
 2.093  +00 7.575  +00 2.48   -01
 2.104  +00 7.358  +00 2.47   -01
 2.114  +00 7.175  +00 2.46   -01
 2.124  +00 7.222  +00 2.46   -01
 2.135  +00 7.272  +00 2.54   -01
 2.146  +00 7.447  +00 2.61   -01
 2.157  +00 7.266  +00 2.53   -01
 2.168  +00 7.042  +00 2.44   -01
 2.179  +00 7.109  +00 2.44   -01
 2.190  +00 7.412  +00 2.41   -01
 2.201  +00 7.169  +00 2.42   -01
 2.212  +00 7.908  +00 2.36   -01
 2.224  +00 7.349  +00 2.43   -01
 2.235  +00 7.682  +00 2.44   -01
 2.247  +00 7.231  +00 2.44   -01
 2.258  +00 7.709  +00 2.41   -01
 2.270  +00 7.284  +00 2.42   -01
 2.282  +00 7.874  +00 2.42   -01
 2.293  +00 7.539  +00 2.42   -01
 2.305  +00 7.179  +00 2.43   -01
 2.317  +00 7.088  +00 2.36   -01
 2.329  +00 7.547  +00 2.36   -01
 2.341  +00 7.530  +00 2.36   -01
 2.354  +00 7.242  +00 2.36   -01
 2.366  +00 7.462  +00 2.32   -01
 2.379  +00 7.411  +00 2.31   -01
 2.391  +00 7.428  +00 2.33   -01
 2.404  +00 6.763  +00 2.28   -01
 2.417  +00 7.287  +00 2.28   -01
 2.430  +00 7.187  +00 2.29   -01
 2.443  +00 6.922  +00 2.30   -01
 2.457  +00 6.847  +00 2.32   -01
 2.470  +00 7.309  +00 2.31   -01
 2.483  +00 6.854  +00 2.35   -01
 2.497  +00 7.572  +00 2.37   -01
 2.511  +00 6.959  +00 2.33   -01
 2.525  +00 6.815  +00 2.34   -01
 2.539  +00 6.973  +00 2.34   -01
 2.553  +00 6.875  +00 2.38   -01
 2.567  +00 7.015  +00 2.42   -01
 2.582  +00 7.115  +00 2.43   -01
 2.597  +00 6.895  +00 2.43   -01
 2.611  +00 7.339  +00 2.41   -01
 2.626  +00 7.137  +00 2.45   -01
 2.641  +00 7.271  +00 2.43   -01
 2.656  +00 7.068  +00 2.51   -01
 2.671  +00 7.375  +00 2.47   -01
 2.686  +00 7.163  +00 2.43   -01
 2.702  +00 7.316  +00 2.41   -01
 2.717  +00 7.449  +00 2.40   -01
 2.733  +00 7.310  +00 2.44   -01
 2.748  +00 6.948  +00 2.43   -01
 2.764  +00 7.099  +00 2.40   -01
 2.781  +00 6.908  +00 2.43   -01
 2.797  +00 7.060  +00 2.46   -01
 2.814  +00 6.749  +00 2.44   -01
 2.830  +00 7.011  +00 2.41   -01
 2.847  +00 7.077  +00 2.44   -01
 2.864  +00 6.955  +00 2.47   -01
 2.881  +00 7.284  +00 2.53   -01
 2.898  +00 6.783  +00 2.51   -01
 2.916  +00 6.903  +00 2.45   -01
 2.933  +00 7.234  +00 2.51   -01
 2.950  +00 7.093  +00 2.51   -01
 2.968  +00 6.999  +00 2.53   -01
 2.986  +00 6.970  +00 2.53   -01
 3.005  +00 7.010  +00 2.57   -01
 3.023  +00 7.356  +00 2.55   -01
 3.042  +00 6.557  +00 2.59   -01
 3.060  +00 7.372  +00 2.60   -01
 3.079  +00 6.974  +00 2.51   -01
 3.098  +00 6.690  +00 2.49   -01
 3.117  +00 7.062  +00 2.47   -01
 3.137  +00 6.849  +00 2.46   -01
 3.156  +00 6.786  +00 2.46   -01
 3.175  +00 6.998  +00 2.44   -01
 3.195  +00 7.572  +00 2.49   -01
 3.216  +00 7.127  +00 2.49   -01
 3.236  +00 6.683  +00 2.44   -01
 3.257  +00 6.834  +00 2.48   -01
 3.277  +00 6.754  +00 2.50   -01
 3.298  +00 6.630  +00 2.52   -01
 3.319  +00 6.809  +00 2.57   -01
 3.341  +00 7.050  +00 2.55   -01
 3.362  +00 6.980  +00 2.51   -01
 3.384  +00 6.697  +00 2.53   -01
 3.406  +00 6.587  +00 2.57   -01
 3.428  +00 7.084  +00 2.59   -01
 3.450  +00 6.462  +00 2.57   -01
 3.473  +00 6.939  +00 2.58   -01
 3.496  +00 6.806  +00 2.56   -01
 3.519  +00 6.840  +00 2.55   -01
 3.542  +00 6.742  +00 2.56   -01
 3.565  +00 6.882  +00 2.53   -01
 3.588  +00 6.365  +00 2.56   -01
 3.612  +00 6.646  +00 2.57   -01
 3.637  +00 6.396  +00 2.59   -01
 3.661  +00 6.222  +00 2.57   -01
 3.686  +00 6.870  +00 2.58   -01
 3.710  +00 6.754  +00 2.60   -01
 3.735  +00 6.475  +00 2.59   -01
 3.761  +00 6.803  +00 2.57   -01
 3.787  +00 6.843  +00 2.54   -01
 3.813  +00 6.552  +00 2.53   -01
 3.839  +00 6.251  +00 2.52   -01
 3.865  +00 6.409  +00 2.56   -01
 3.891  +00 6.104  +00 2.57   -01
 3.919  +00 6.900  +00 2.54   -01
 3.946  +00 6.661  +00 2.54   -01
 3.974  +00 6.420  +00 2.56   -01
 4.001  +00 6.762  +00 2.56   -01
 4.029  +00 6.592  +00 2.51   -01
 4.057  +00 6.451  +00 2.52   -01
 4.086  +00 6.158  +00 2.47   -01
 4.116  +00 6.087  +00 2.47   -01
 4.145  +00 6.118  +00 2.48   -01
 4.175  +00 6.306  +00 2.41   -01
 4.204  +00 6.181  +00 2.43   -01
 4.234  +00 6.650  +00 2.40   -01
 4.265  +00 6.607  +00 2.38   -01
 4.296  +00 6.403  +00 2.34   -01
 4.327  +00 5.997  +00 2.34   -01
 4.358  +00 6.657  +00 2.36   -01
 4.389  +00 6.426  +00 2.39   -01
 4.421  +00 6.029  +00 2.34   -01
 4.454  +00 6.242  +00 2.27   -01
 4.487  +00 6.402  +00 2.30   -01
 4.521  +00 6.370  +00 2.27   -01
 4.554  +00 5.956  +00 2.28   -01
 4.587  +00 5.782  +00 2.29   -01
 4.621  +00 6.142  +00 2.31   -01
 4.656  +00 5.673  +00 2.24   -01
 4.691  +00 5.825  +00 2.23   -01
 4.727  +00 5.950  +00 2.22   -01
 4.762  +00 6.112  +00 2.18   -01
 4.797  +00 5.885  +00 2.22   -01
 4.833  +00 6.128  +00 2.21   -01
 4.871  +00 5.676  +00 2.22   -01
 4.909  +00 5.948  +00 2.21   -01
 4.947  +00 6.022  +00 2.21   -01
 4.985  +00 5.608  +00 2.18   -01
 5.023  +00 6.024  +00 2.17   -01
 5.061  +00 5.519  +00 2.16   -01
 5.101  +00 5.744  +00 2.16   -01
 5.141  +00 6.034  +00 2.13   -01
 5.182  +00 6.058  +00 2.12   -01
 5.222  +00 6.003  +00 2.13   -01
 5.262  +00 5.637  +00 2.10   -01
 5.303  +00 5.421  +00 2.13   -01
 5.346  +00 5.582  +00 2.14   -01
 5.389  +00 5.921  +00 2.12   -01
 5.432  +00 6.244  +00 2.13   -01
 5.475  +00 5.475  +00 2.12   -01
 5.518  +00 5.959  +00 2.12   -01
 5.562  +00 5.611  +00 2.11   -01
 5.608  +00 5.766  +00 2.12   -01
 5.654  +00 5.761  +00 2.11   -01
 5.700  +00 6.050  +00 2.07   -01
 5.746  +00 5.941  +00 2.05   -01
 5.792  +00 5.585  +00 2.02   -01
 5.838  +00 5.656  +00 2.02   -01
 5.887  +00 5.467  +00 2.03   -01
 5.936  +00 5.214  +00 2.06   -01
 5.985  +00 5.707  +00 2.00   -01
 6.034  +00 5.852  +00 2.04   -01
 6.083  +00 5.262  +00 1.99   -01
 6.133  +00 5.727  +00 1.98   -01
 6.185  +00 5.544  +00 1.98   -01
 6.237  +00 5.542  +00 2.00   -01
 6.290  +00 5.268  +00 1.96   -01
 6.342  +00 5.271  +00 1.96   -01
 6.394  +00 5.234  +00 1.92   -01
 6.447  +00 5.768  +00 1.92   -01
 6.502  +00 5.414  +00 1.94   -01
 6.558  +00 5.200  +00 1.94   -01
 6.613  +00 5.482  +00 1.94   -01
 6.669  +00 5.232  +00 1.94   -01
 6.724  +00 5.662  +00 1.94   -01
 6.780  +00 5.440  +00 1.94   -01
 7.018  +00 5.650  +00 2.00   -01
 7.077  +00 5.570  +00 1.99   -01
 7.137  +00 5.172  +00 2.02   -01
 7.200  +00 5.675  +00 1.98   -01
 7.263  +00 4.805  +00 1.97   -01
 7.327  +00 5.386  +00 1.91   -01
 7.390  +00 5.239  +00 1.96   -01
 7.453  +00 5.011  +00 1.91   -01
 7.517  +00 5.712  +00 1.94   -01
 7.585  +00 5.328  +00 1.92   -01
 7.652  +00 5.450  +00 1.93   -01
 7.720  +00 5.265  +00 1.95   -01
 7.787  +00 5.607  +00 1.97   -01
 7.855  +00 5.422  +00 1.99   -01
 7.923  +00 5.585  +00 2.01   -01
 7.995  +00 5.289  +00 2.06   -01
 8.067  +00 5.468  +00 2.09   -01
 8.139  +00 5.257  +00 2.03   -01
 8.211  +00 5.343  +00 2.05   -01
 8.283  +00 5.221  +00 2.07   -01
 8.355  +00 5.700  +00 2.07   -01
 8.432  +00 5.336  +00 2.10   -01
 8.508  +00 5.126  +00 2.12   -01
 8.585  +00 5.180  +00 2.10   -01
 8.661  +00 5.406  +00 2.06   -01
 8.738  +00 5.042  +00 2.08   -01
 8.815  +00 5.743  +00 2.08   -01
 8.896  +00 4.975  +00 2.07   -01
 8.976  +00 5.445  +00 2.10   -01
 9.057  +00 5.555  +00 2.11   -01
 9.138  +00 5.482  +00 2.15   -01
 9.219  +00 5.660  +00 2.16   -01
 9.300  +00 5.595  +00 2.15   -01
 9.386  +00 5.143  +00 2.20   -01
 9.472  +00 5.728  +00 2.20   -01
 9.558  +00 5.331  +00 2.21   -01
 9.644  +00 5.699  +00 2.23   -01
 9.730  +00 5.521  +00 2.26   -01
 9.817  +00 5.753  +00 2.32   -01
 9.912  +00 5.211  +00 2.36   -01
 1.000  +01 5.507  +00 2.36   -01
 1.009  +01 5.515  +00 2.42   -01
 1.018  +01 5.167  +00 2.40   -01
 1.027  +01 5.702  +00 2.41   -01
 1.036  +01 5.336  +00 2.46   -01
 1.046  +01 5.480  +00 2.48   -01
 1.056  +01 5.431  +00 2.54   -01
 1.066  +01 5.552  +00 2.50   -01
 1.076  +01 4.997  +00 2.57   -01
 1.085  +01 4.946  +00 2.61   -01
 1.095  +01 5.126  +00 2.63   -01
 1.106  +01 5.390  +00 2.63   -01
 1.116  +01 5.397  +00 2.65   -01
 1.127  +01 5.409  +00 2.69   -01
 1.137  +01 5.652  +00 2.70   -01
 1.148  +01 5.261  +00 2.74   -01
 1.159  +01 5.269  +00 2.72   -01
 1.170  +01 5.128  +00 2.79   -01
 1.182  +01 5.413  +00 2.83   -01
 1.193  +01 5.641  +00 2.84   -01
 1.205  +01 5.420  +00 2.87   -01
 1.216  +01 5.401  +00 2.84   -01
 1.228  +01 5.489  +00 2.91   -01
 1.241  +01 5.976  +00 2.97   -01
 1.254  +01 5.622  +00 3.07   -01
 1.266  +01 5.506  +00 3.03   -01
 1.279  +01 5.633  +00 3.11   -01
 1.292  +01 5.620  +00 3.13   -01
 1.304  +01 5.556  +00 3.17   -01
 1.319  +01 5.792  +00 3.16   -01
 1.333  +01 5.450  +00 3.15   -01
 1.347  +01 6.100  +00 3.19   -01
 1.361  +01 5.685  +00 3.20   -01
 1.375  +01 5.167  +00 3.24   -01
 1.389  +01 5.304  +00 3.21   -01
 1.405  +01 5.474  +00 3.31   -01
 1.421  +01 5.378  +00 3.29   -01
 1.437  +01 5.272  +00 3.35   -01
 1.454  +01 5.417  +00 3.39   -01
 1.470  +01 5.182  +00 3.39   -01
 1.486  +01 6.728  +00 3.46   -01
 1.504  +01 5.696  +00 3.36   -01
ENDDATA            567
ENDSUBENT          579
SUBENT        12159003     821012              20050926       0000
BIB                  2          3
REACTION   (74-W-182(N,TOT),,SIG)
SAMPLE     SAMPLE THICKNESS .120B/ATOM. SEPARATED ISOTOPE.
            COMPACTED METAL.
ENDBIB               3
COMMON               1          3
EN-RSL
NSEC/M
 0.25
ENDCOMMON            3
DATA                 3        547
EN         DATA       DATA-ERR
MEV        B          B
 7.000  -01 6.985  +00 5.11   -01
 7.020  -01 7.973  +00 5.21   -01
 7.040  -01 6.915  +00 5.24   -01
 7.062  -01 6.629  +00 5.25   -01
 7.083  -01 7.067  +00 5.21   -01
 7.105  -01 6.223  +00 5.14   -01
 7.126  -01 7.228  +00 5.06   -01
 7.148  -01 5.891  +00 5.15   -01
 7.170  -01 6.208  +00 5.07   -01
 7.190  -01 6.411  +00 5.12   -01
 7.210  -01 6.610  +00 5.03   -01
 7.230  -01 6.801  +00 4.87   -01
 7.250  -01 7.088  +00 4.94   -01
 7.270  -01 6.159  +00 4.86   -01
 7.290  -01 5.580  +00 5.07   -01
 7.312  -01 7.083  +00 4.82   -01
 7.333  -01 7.545  +00 4.70   -01
 7.355  -01 6.464  +00 4.81   -01
 7.376  -01 6.348  +00 4.68   -01
 7.398  -01 6.353  +00 4.85   -01
 7.420  -01 5.888  +00 4.80   -01
 7.440  -01 7.045  +00 4.68   -01
 7.460  -01 5.973  +00 4.80   -01
 7.480  -01 6.845  +00 4.72   -01
 7.500  -01 6.052  +00 4.67   -01
 7.520  -01 6.944  +00 4.74   -01
 7.540  -01 6.625  +00 4.69   -01
 7.563  -01 7.678  +00 4.56   -01
 7.586  -01 6.574  +00 4.72   -01
 7.610  -01 7.181  +00 4.57   -01
 7.633  -01 7.339  +00 4.52   -01
 7.656  -01 6.566  +00 4.58   -01
 7.680  -01 6.810  +00 4.44   -01
 7.702  -01 7.301  +00 4.52   -01
 7.723  -01 6.876  +00 4.45   -01
 7.745  -01 6.299  +00 4.50   -01
 7.766  -01 6.241  +00 4.61   -01
 7.788  -01 6.616  +00 4.65   -01
 7.810  -01 6.409  +00 4.49   -01
 7.835  -01 7.052  +00 4.51   -01
 7.860  -01 7.210  +00 4.37   -01
 7.885  -01 7.135  +00 4.43   -01
 7.910  -01 7.629  +00 4.34   -01
 7.935  -01 6.134  +00 4.57   -01
 7.960  -01 6.433  +00 4.37   -01
 7.983  -01 7.510  +00 4.34   -01
 8.006  -01 6.860  +00 4.22   -01
 8.030  -01 7.023  +00 4.21   -01
 8.053  -01 6.881  +00 4.25   -01
 8.076  -01 7.176  +00 4.21   -01
 8.100  -01 6.969  +00 4.11   -01
 8.123  -01 7.150  +00 4.10   -01
 8.146  -01 6.965  +00 4.11   -01
 8.170  -01 7.315  +00 3.94   -01
 8.193  -01 6.862  +00 4.01   -01
 8.216  -01 7.328  +00 3.98   -01
 8.240  -01 7.037  +00 3.93   -01
 8.267  -01 6.923  +00 3.98   -01
 8.293  -01 7.160  +00 3.94   -01
 8.320  -01 7.177  +00 3.78   -01
 8.346  -01 7.063  +00 3.83   -01
 8.373  -01 6.926  +00 3.83   -01
 8.400  -01 6.748  +00 3.81   -01
 8.425  -01 6.462  +00 3.84   -01
 8.450  -01 6.823  +00 3.74   -01
 8.475  -01 6.805  +00 3.74   -01
 8.500  -01 6.675  +00 3.78   -01
 8.525  -01 6.775  +00 3.68   -01
 8.550  -01 6.840  +00 3.68   -01
 8.577  -01 7.293  +00 3.64   -01
 8.603  -01 6.541  +00 3.64   -01
 8.630  -01 7.154  +00 3.58   -01
 8.656  -01 7.023  +00 3.62   -01
 8.683  -01 6.793  +00 3.54   -01
 8.710  -01 7.115  +00 3.49   -01
 8.738  -01 6.742  +00 3.52   -01
 8.766  -01 7.152  +00 3.52   -01
 8.795  -01 7.227  +00 3.40   -01
 8.823  -01 6.209  +00 3.50   -01
 8.851  -01 6.516  +00 3.43   -01
 8.880  -01 7.081  +00 3.32   -01
 8.908  -01 6.235  +00 3.39   -01
 8.936  -01 7.356  +00 3.32   -01
 8.965  -01 6.987  +00 3.33   -01
 8.993  -01 6.698  +00 3.33   -01
 9.021  -01 6.380  +00 3.30   -01
 9.050  -01 6.504  +00 3.25   -01
 9.080  -01 7.573  +00 3.19   -01
 9.110  -01 7.215  +00 3.23   -01
 9.140  -01 6.738  +00 3.25   -01
 9.170  -01 6.122  +00 3.24   -01
 9.200  -01 6.844  +00 3.15   -01
 9.230  -01 6.638  +00 3.17   -01
 9.260  -01 6.885  +00 3.19   -01
 9.290  -01 6.650  +00 3.23   -01
 9.320  -01 6.559  +00 3.23   -01
 9.350  -01 6.801  +00 3.14   -01
 9.380  -01 7.175  +00 3.18   -01
 9.410  -01 6.965  +00 3.13   -01
 9.442  -01 6.890  +00 3.10   -01
 9.473  -01 6.561  +00 3.11   -01
 9.505  -01 6.873  +00 3.12   -01
 9.536  -01 6.769  +00 3.15   -01
 9.568  -01 6.924  +00 3.08   -01
 9.600  -01 7.145  +00 3.00   -01
 9.632  -01 7.268  +00 3.07   -01
 9.663  -01 6.665  +00 3.07   -01
 9.695  -01 6.659  +00 3.09   -01
 9.726  -01 6.598  +00 3.07   -01
 9.758  -01 7.192  +00 3.05   -01
 9.790  -01 7.001  +00 3.06   -01
 9.823  -01 6.572  +00 3.08   -01
 9.856  -01 7.313  +00 2.99   -01
 9.890  -01 6.396  +00 3.04   -01
 9.923  -01 6.725  +00 3.03   -01
 9.956  -01 7.474  +00 3.02   -01
 9.990  -01 7.722  +00 2.98   -01
 1.002  +00 7.224  +00 3.02   -01
 1.006  +00 6.705  +00 3.09   -01
 1.009  +00 7.367  +00 3.02   -01
 1.013  +00 6.696  +00 3.09   -01
 1.016  +00 6.629  +00 3.08   -01
 1.020  +00 6.122  +00 3.08   -01
 1.023  +00 6.460  +00 3.01   -01
 1.026  +00 7.419  +00 2.95   -01
 1.029  +00 6.946  +00 2.92   -01
 1.032  +00 6.823  +00 2.90   -01
 1.035  +00 6.625  +00 2.85   -01
 1.038  +00 6.218  +00 2.94   -01
 1.042  +00 6.981  +00 2.87   -01
 1.045  +00 6.728  +00 2.83   -01
 1.049  +00 6.504  +00 2.83   -01
 1.053  +00 7.022  +00 2.77   -01
 1.057  +00 6.661  +00 2.74   -01
 1.061  +00 6.918  +00 2.68   -01
 1.065  +00 7.199  +00 2.68   -01
 1.069  +00 6.420  +00 2.64   -01
 1.073  +00 6.663  +00 2.65   -01
 1.077  +00 6.694  +00 2.62   -01
 1.081  +00 6.496  +00 2.62   -01
 1.085  +00 6.842  +00 2.60   -01
 1.089  +00 6.881  +00 2.58   -01
 1.093  +00 6.900  +00 2.57   -01
 1.097  +00 7.000  +00 2.59   -01
 1.101  +00 6.799  +00 2.65   -01
 1.105  +00 7.165  +00 2.59   -01
 1.110  +00 6.712  +00 2.59   -01
 1.114  +00 6.858  +00 2.63   -01
 1.118  +00 7.024  +00 2.62   -01
 1.123  +00 6.760  +00 2.58   -01
 1.127  +00 6.768  +00 2.62   -01
 1.131  +00 6.591  +00 2.62   -01
 1.136  +00 7.056  +00 2.60   -01
 1.140  +00 7.207  +00 2.63   -01
 1.144  +00 6.705  +00 2.61   -01
 1.149  +00 7.116  +00 2.58   -01
 1.153  +00 6.945  +00 2.53   -01
 1.157  +00 7.395  +00 2.53   -01
 1.162  +00 6.989  +00 2.55   -01
 1.166  +00 6.628  +00 2.56   -01
 1.170  +00 6.748  +00 2.54   -01
 1.175  +00 7.186  +00 2.52   -01
 1.179  +00 6.831  +00 2.54   -01
 1.184  +00 6.908  +00 2.53   -01
 1.188  +00 6.724  +00 2.53   -01
 1.193  +00 7.247  +00 2.50   -01
 1.197  +00 6.411  +00 2.51   -01
 1.202  +00 6.902  +00 2.45   -01
 1.207  +00 6.937  +00 2.48   -01
 1.211  +00 6.767  +00 2.44   -01
 1.216  +00 7.033  +00 2.45   -01
 1.221  +00 7.192  +00 2.44   -01
 1.226  +00 6.981  +00 2.47   -01
 1.231  +00 6.885  +00 2.46   -01
 1.236  +00 7.334  +00 2.42   -01
 1.241  +00 6.949  +00 2.44   -01
 1.246  +00 7.139  +00 2.43   -01
 1.251  +00 6.711  +00 2.41   -01
 1.256  +00 7.190  +00 2.40   -01
 1.261  +00 6.797  +00 2.46   -01
 1.266  +00 6.921  +00 2.43   -01
 1.271  +00 7.201  +00 2.45   -01
 1.276  +00 6.717  +00 2.48   -01
 1.281  +00 6.750  +00 2.43   -01
 1.286  +00 6.990  +00 2.43   -01
 1.291  +00 7.208  +00 2.46   -01
 1.296  +00 6.692  +00 2.44   -01
 1.301  +00 6.766  +00 2.47   -01
 1.307  +00 6.917  +00 2.41   -01
 1.312  +00 6.708  +00 2.41   -01
 1.317  +00 6.724  +00 2.40   -01
 1.323  +00 7.179  +00 2.39   -01
 1.328  +00 7.324  +00 2.39   -01
 1.334  +00 7.058  +00 2.37   -01
 1.339  +00 7.141  +00 2.36   -01
 1.345  +00 6.963  +00 2.36   -01
 1.350  +00 6.891  +00 2.32   -01
 1.356  +00 7.145  +00 2.31   -01
 1.362  +00 6.833  +00 2.33   -01
 1.367  +00 7.156  +00 2.31   -01
 1.373  +00 6.682  +00 2.31   -01
 1.378  +00 6.729  +00 2.28   -01
 1.384  +00 7.335  +00 2.27   -01
 1.390  +00 6.902  +00 2.28   -01
 1.396  +00 6.704  +00 2.27   -01
 1.401  +00 6.612  +00 2.31   -01
 1.407  +00 7.186  +00 2.28   -01
 1.413  +00 7.155  +00 2.26   -01
 1.419  +00 6.791  +00 2.25   -01
 1.425  +00 6.321  +00 2.25   -01
 1.431  +00 7.125  +00 2.22   -01
 1.437  +00 7.174  +00 2.23   -01
 1.443  +00 6.692  +00 2.21   -01
 1.449  +00 6.838  +00 2.24   -01
 1.455  +00 6.735  +00 2.20   -01
 1.461  +00 6.806  +00 2.18   -01
 1.467  +00 6.934  +00 2.19   -01
 1.474  +00 6.956  +00 2.21   -01
 1.480  +00 7.250  +00 2.19   -01
 1.487  +00 6.759  +00 2.20   -01
 1.493  +00 7.215  +00 2.18   -01
 1.500  +00 7.049  +00 2.24   -01
 1.506  +00 7.028  +00 2.20   -01
 1.513  +00 7.071  +00 2.18   -01
 1.519  +00 6.760  +00 2.18   -01
 1.526  +00 6.770  +00 2.17   -01
 1.532  +00 7.077  +00 2.16   -01
 1.539  +00 6.865  +00 2.19   -01
 1.546  +00 7.221  +00 2.17   -01
 1.552  +00 7.062  +00 2.17   -01
 1.559  +00 6.808  +00 2.20   -01
 1.566  +00 7.074  +00 2.21   -01
 1.573  +00 7.118  +00 2.19   -01
 1.580  +00 6.995  +00 2.18   -01
 1.587  +00 7.351  +00 2.15   -01
 1.594  +00 7.182  +00 2.15   -01
 1.601  +00 7.236  +00 2.17   -01
 1.608  +00 6.960  +00 2.16   -01
 1.615  +00 7.014  +00 2.18   -01
 1.623  +00 7.106  +00 2.14   -01
 1.630  +00 7.269  +00 2.13   -01
 1.637  +00 7.064  +00 2.13   -01
 1.645  +00 7.027  +00 2.09   -01
 1.652  +00 7.115  +00 2.12   -01
 1.659  +00 6.902  +00 2.14   -01
 1.667  +00 7.036  +00 2.13   -01
 1.675  +00 6.882  +00 2.16   -01
 1.682  +00 6.992  +00 2.13   -01
 1.690  +00 7.129  +00 2.13   -01
 1.697  +00 6.699  +00 2.14   -01
 1.705  +00 6.939  +00 2.18   -01
 1.713  +00 7.214  +00 2.16   -01
 1.721  +00 6.594  +00 2.17   -01
 1.729  +00 7.080  +00 2.19   -01
 1.737  +00 7.028  +00 2.15   -01
 1.745  +00 7.038  +00 2.19   -01
 1.753  +00 6.928  +00 2.18   -01
 1.762  +00 7.006  +00 2.14   -01
 1.770  +00 7.060  +00 2.14   -01
 1.778  +00 6.939  +00 2.14   -01
 1.787  +00 7.195  +00 2.13   -01
 1.795  +00 6.956  +00 2.10   -01
 1.803  +00 6.867  +00 2.10   -01
 1.812  +00 7.300  +00 2.12   -01
 1.821  +00 6.965  +00 2.09   -01
 1.829  +00 7.144  +00 2.10   -01
 1.838  +00 6.825  +00 2.11   -01
 1.846  +00 7.272  +00 2.11   -01
 1.855  +00 6.860  +00 2.11   -01
 1.864  +00 6.954  +00 2.13   -01
 1.873  +00 7.156  +00 2.14   -01
 1.882  +00 7.092  +00 2.11   -01
 1.891  +00 7.110  +00 2.13   -01
 1.900  +00 7.425  +00 2.14   -01
 1.909  +00 7.293  +00 2.12   -01
 1.918  +00 7.155  +00 2.12   -01
 1.927  +00 7.087  +00 2.11   -01
 1.937  +00 6.830  +00 2.09   -01
 1.946  +00 7.199  +00 2.10   -01
 1.956  +00 7.070  +00 2.09   -01
 1.965  +00 7.132  +00 2.12   -01
 1.975  +00 6.988  +00 2.12   -01
 1.985  +00 7.169  +00 2.13   -01
 1.995  +00 6.902  +00 2.10   -01
 2.005  +00 7.194  +00 2.10   -01
 2.015  +00 7.111  +00 2.10   -01
 2.025  +00 7.116  +00 2.13   -01
 2.035  +00 7.178  +00 2.18   -01
 2.045  +00 6.916  +00 2.15   -01
 2.055  +00 6.915  +00 2.11   -01
 2.066  +00 7.074  +00 2.11   -01
 2.076  +00 6.297  +00 2.14   -01
 2.086  +00 6.790  +00 2.13   -01
 2.097  +00 7.055  +00 2.12   -01
 2.108  +00 6.777  +00 2.11   -01
 2.118  +00 7.156  +00 2.11   -01
 2.129  +00 6.686  +00 2.14   -01
 2.139  +00 7.209  +00 2.13   -01
 2.150  +00 7.037  +00 2.10   -01
 2.161  +00 6.977  +00 2.10   -01
 2.172  +00 7.126  +00 2.11   -01
 2.183  +00 6.855  +00 2.13   -01
 2.195  +00 7.195  +00 2.11   -01
 2.206  +00 6.813  +00 2.10   -01
 2.217  +00 6.588  +00 2.11   -01
 2.229  +00 6.904  +00 2.10   -01
 2.241  +00 7.089  +00 2.08   -01
 2.252  +00 6.996  +00 2.10   -01
 2.264  +00 7.155  +00 2.08   -01
 2.276  +00 6.906  +00 2.11   -01
 2.288  +00 7.216  +00 2.06   -01
 2.300  +00 7.176  +00 2.10   -01
 2.312  +00 6.971  +00 2.07   -01
 2.324  +00 7.150  +00 2.07   -01
 2.337  +00 7.003  +00 2.08   -01
 2.349  +00 6.639  +00 2.08   -01
 2.361  +00 7.273  +00 2.12   -01
 2.374  +00 6.947  +00 2.11   -01
 2.387  +00 6.947  +00 2.11   -01
 2.400  +00 6.767  +00 2.13   -01
 2.413  +00 6.942  +00 2.15   -01
 2.426  +00 7.066  +00 2.16   -01
 2.439  +00 7.094  +00 2.17   -01
 2.452  +00 6.697  +00 2.17   -01
 2.466  +00 6.874  +00 2.17   -01
 2.479  +00 6.865  +00 2.18   -01
 2.493  +00 7.016  +00 2.20   -01
 2.506  +00 6.963  +00 2.23   -01
 2.520  +00 7.396  +00 2.21   -01
 2.534  +00 6.710  +00 2.21   -01
 2.548  +00 6.915  +00 2.22   -01
 2.562  +00 6.528  +00 2.20   -01
 2.577  +00 6.479  +00 2.19   -01
 2.591  +00 7.001  +00 2.20   -01
 2.605  +00 7.302  +00 2.18   -01
 2.620  +00 6.683  +00 2.18   -01
 2.635  +00 6.745  +00 2.21   -01
 2.650  +00 6.956  +00 2.20   -01
 2.665  +00 6.823  +00 2.18   -01
 2.680  +00 7.150  +00 2.18   -01
 2.695  +00 6.949  +00 2.19   -01
 2.710  +00 6.812  +00 2.21   -01
 2.726  +00 6.565  +00 2.22   -01
 2.741  +00 6.667  +00 2.22   -01
 2.757  +00 5.802  +00 2.25   -01
 2.772  +00 7.075  +00 2.26   -01
 2.788  +00 6.674  +00 2.25   -01
 2.804  +00 6.292  +00 2.25   -01
 2.821  +00 6.540  +00 2.27   -01
 2.837  +00 6.156  +00 2.31   -01
 2.854  +00 6.714  +00 2.30   -01
 2.871  +00 6.358  +00 2.33   -01
 2.888  +00 6.619  +00 2.30   -01
 2.905  +00 6.894  +00 2.30   -01
 2.922  +00 6.603  +00 2.26   -01
 2.940  +00 7.150  +00 2.25   -01
 2.957  +00 6.499  +00 2.25   -01
 2.975  +00 6.575  +00 2.25   -01
 2.992  +00 6.443  +00 2.25   -01
 3.010  +00 6.536  +00 2.26   -01
 3.028  +00 6.306  +00 2.27   -01
 3.046  +00 6.246  +00 2.24   -01
 3.065  +00 6.281  +00 2.25   -01
 3.083  +00 6.709  +00 2.25   -01
 3.101  +00 6.610  +00 2.22   -01
 3.120  +00 6.711  +00 2.26   -01
 3.139  +00 6.804  +00 2.29   -01
 3.159  +00 6.656  +00 2.27   -01
 3.178  +00 6.903  +00 2.25   -01
 3.198  +00 6.940  +00 2.27   -01
 3.217  +00 6.274  +00 2.28   -01
 3.237  +00 6.598  +00 2.28   -01
 3.257  +00 6.851  +00 2.28   -01
 3.278  +00 6.785  +00 2.31   -01
 3.298  +00 6.835  +00 2.31   -01
 3.319  +00 6.723  +00 2.28   -01
 3.339  +00 6.394  +00 2.28   -01
 3.360  +00 6.446  +00 2.30   -01
 3.382  +00 6.800  +00 2.31   -01
 3.403  +00 6.443  +00 2.32   -01
 3.425  +00 6.044  +00 2.30   -01
 3.446  +00 6.232  +00 2.32   -01
 3.468  +00 6.475  +00 2.29   -01
 3.490  +00 6.440  +00 2.31   -01
 3.513  +00 6.293  +00 2.32   -01
 3.535  +00 6.268  +00 2.31   -01
 3.558  +00 6.554  +00 2.31   -01
 3.581  +00 6.543  +00 2.29   -01
 3.604  +00 6.389  +00 2.29   -01
 3.627  +00 6.608  +00 2.27   -01
 3.651  +00 6.372  +00 2.28   -01
 3.675  +00 6.487  +00 2.27   -01
 3.700  +00 6.389  +00 2.29   -01
 3.724  +00 6.192  +00 2.28   -01
 3.748  +00 6.227  +00 2.24   -01
 3.773  +00 5.968  +00 2.22   -01
 3.799  +00 6.385  +00 2.23   -01
 3.824  +00 6.431  +00 2.23   -01
 3.850  +00 6.104  +00 2.20   -01
 3.876  +00 6.356  +00 2.19   -01
 3.902  +00 6.074  +00 2.16   -01
 3.928  +00 6.379  +00 2.19   -01
 3.955  +00 6.384  +00 2.19   -01
 3.983  +00 5.981  +00 2.13   -01
 4.010  +00 5.921  +00 2.13   -01
 4.038  +00 6.020  +00 2.12   -01
 4.065  +00 6.246  +00 2.14   -01
 4.093  +00 6.636  +00 2.14   -01
 4.122  +00 5.889  +00 2.14   -01
 4.151  +00 5.444  +00 2.13   -01
 4.180  +00 6.213  +00 2.11   -01
 4.209  +00 5.574  +00 2.12   -01
 4.238  +00 6.119  +00 2.09   -01
 4.268  +00 6.165  +00 2.09   -01
 4.299  +00 6.048  +00 2.09   -01
 4.330  +00 6.045  +00 2.08   -01
 4.361  +00 5.535  +00 2.03   -01
 4.392  +00 5.795  +00 2.03   -01
 4.423  +00 5.989  +00 2.05   -01
 4.455  +00 6.029  +00 2.04   -01
 4.490  +00 5.950  +00 2.07   -01
 4.524  +00 5.488  +00 2.06   -01
 4.559  +00 5.899  +00 2.04   -01
 4.593  +00 5.386  +00 2.03   -01
 4.628  +00 6.125  +00 2.01   -01
 4.663  +00 5.562  +00 2.02   -01
 4.702  +00 6.019  +00 2.03   -01
 4.741  +00 5.959  +00 2.02   -01
 4.780  +00 5.395  +00 2.00   -01
 4.819  +00 5.708  +00 2.02   -01
 4.858  +00 6.023  +00 2.02   -01
 4.897  +00 5.813  +00 1.98   -01
 4.931  +00 5.922  +00 1.98   -01
 4.966  +00 5.868  +00 2.01   -01
 5.000  +00 5.744  +00 2.00   -01
 5.035  +00 5.642  +00 2.04   -01
 5.069  +00 5.630  +00 2.01   -01
 5.104  +00 5.490  +00 1.99   -01
 5.143  +00 5.375  +00 1.98   -01
 5.182  +00 5.267  +00 2.01   -01
 5.221  +00 5.260  +00 2.02   -01
 5.260  +00 5.407  +00 1.98   -01
 5.299  +00 5.173  +00 2.02   -01
 5.339  +00 5.309  +00 1.97   -01
 5.383  +00 5.597  +00 1.96   -01
 5.426  +00 5.675  +00 1.95   -01
 5.470  +00 5.343  +00 1.94   -01
 5.514  +00 5.635  +00 1.95   -01
 5.558  +00 5.373  +00 1.92   -01
 5.602  +00 5.461  +00 1.91   -01
 5.649  +00 5.393  +00 1.92   -01
 5.696  +00 5.160  +00 1.92   -01
 5.743  +00 5.057  +00 1.90   -01
 5.790  +00 5.174  +00 1.90   -01
 5.837  +00 5.234  +00 1.86   -01
 5.884  +00 5.257  +00 1.86   -01
 5.935  +00 5.036  +00 1.85   -01
 5.985  +00 5.279  +00 1.86   -01
 6.036  +00 5.281  +00 1.85   -01
 6.087  +00 4.813  +00 1.85   -01
 6.138  +00 5.210  +00 1.87   -01
 6.189  +00 5.259  +00 1.84   -01
 6.244  +00 5.245  +00 1.84   -01
 6.298  +00 5.148  +00 1.86   -01
 6.353  +00 5.762  +00 1.84   -01
 6.408  +00 4.981  +00 1.86   -01
 6.463  +00 5.016  +00 1.84   -01
 6.518  +00 5.183  +00 1.83   -01
 6.577  +00 5.051  +00 1.83   -01
 6.636  +00 4.957  +00 1.83   -01
 6.695  +00 4.928  +00 1.82   -01
 6.754  +00 4.786  +00 1.84   -01
 6.813  +00 4.609  +00 1.83   -01
 6.873  +00 5.052  +00 1.83   -01
 6.937  +00 5.139  +00 1.85   -01
 7.001  +00 4.671  +00 1.85   -01
 7.001  +00 5.198  +00 3.16   -01
 7.066  +00 5.039  +00 3.13   -01
 7.130  +00 5.160  +00 3.21   -01
 7.194  +00 5.269  +00 3.24   -01
 7.259  +00 5.074  +00 3.24   -01
 7.329  +00 5.128  +00 3.31   -01
 7.399  +00 4.853  +00 3.31   -01
 7.469  +00 4.976  +00 3.34   -01
 7.539  +00 5.480  +00 3.37   -01
 7.609  +00 5.410  +00 3.27   -01
 7.679  +00 5.283  +00 3.28   -01
 7.755  +00 5.066  +00 3.34   -01
 7.831  +00 5.173  +00 3.32   -01
 7.907  +00 5.258  +00 3.33   -01
 7.983  +00 5.328  +00 3.32   -01
 8.059  +00 5.091  +00 3.27   -01
 8.136  +00 4.958  +00 3.31   -01
 8.219  +00 5.419  +00 3.33   -01
 8.302  +00 4.686  +00 3.33   -01
 8.385  +00 4.906  +00 3.36   -01
 8.468  +00 5.110  +00 3.36   -01
 8.551  +00 4.879  +00 3.44   -01
 8.635  +00 5.083  +00 3.40   -01
 8.726  +00 4.984  +00 3.46   -01
 8.817  +00 4.834  +00 3.56   -01
 8.908  +00 5.222  +00 3.55   -01
 8.999  +00 5.364  +00 3.60   -01
 9.090  +00 5.296  +00 3.63   -01
 9.181  +00 4.535  +00 3.70   -01
 9.281  +00 5.123  +00 3.75   -01
 9.381  +00 5.152  +00 3.75   -01
 9.482  +00 4.802  +00 3.74   -01
 9.582  +00 4.986  +00 3.78   -01
 9.682  +00 5.627  +00 3.82   -01
 9.783  +00 5.183  +00 4.02   -01
 9.895  +00 5.075  +00 3.86   -01
 1.000  +01 5.582  +00 4.01   -01
 1.011  +01 5.420  +00 3.95   -01
 1.022  +01 5.707  +00 4.03   -01
 1.033  +01 4.832  +00 4.06   -01
 1.044  +01 5.132  +00 4.09   -01
 1.056  +01 4.788  +00 4.13   -01
 1.068  +01 5.368  +00 4.16   -01
 1.081  +01 5.052  +00 4.32   -01
 1.093  +01 4.915  +00 4.27   -01
 1.105  +01 4.991  +00 4.35   -01
 1.117  +01 5.293  +00 4.35   -01
 1.131  +01 5.472  +00 4.34   -01
 1.145  +01 4.618  +00 4.50   -01
 1.158  +01 5.523  +00 4.49   -01
 1.172  +01 4.998  +00 4.62   -01
 1.185  +01 4.741  +00 4.70   -01
 1.199  +01 5.290  +00 4.72   -01
 1.214  +01 4.585  +00 4.69   -01
 1.229  +01 5.945  +00 4.92   -01
 1.245  +01 5.652  +00 4.76   -01
 1.260  +01 5.078  +00 4.80   -01
 1.275  +01 5.598  +00 4.83   -01
 1.290  +01 4.272  +00 4.99   -01
 1.307  +01 3.940  +00 5.18   -01
 1.324  +01 5.623  +00 5.11   -01
 1.341  +01 4.837  +00 5.15   -01
 1.358  +01 5.654  +00 5.26   -01
 1.375  +01 4.808  +00 5.13   -01
 1.392  +01 4.726  +00 5.17   -01
 1.412  +01 5.682  +00 5.52   -01
 1.431  +01 4.213  +00 5.23   -01
 1.450  +01 6.520  +00 5.38   -01
 1.469  +01 6.097  +00 5.34   -01
 1.488  +01 5.206  +00 5.57   -01
 1.507  +01 4.574  +00 5.49   -01
ENDDATA            549
ENDSUBENT          561
SUBENT        12159004     821012              20050926       0000
BIB                  2          3
REACTION   (74-W-184(N,TOT),,SIG)
SAMPLE     SAMPLE THICKNESS .1215B/ATOM. SEPARATED ISOTOPE.
            COMPACTED METAL.
ENDBIB               3
COMMON               1          3
EN-RSL
NSEC/M
 0.25
ENDCOMMON            3
DATA                 3        558
EN         DATA       DATA-ERR
MEV        B          B
 7.000  -01 6.760  +00 5.53   -01
 7.020  -01 7.704  +00 5.46   -01
 7.040  -01 7.195  +00 5.42   -01
 7.062  -01 7.376  +00 5.24   -01
 7.083  -01 6.963  +00 5.33   -01
 7.105  -01 7.800  +00 5.30   -01
 7.126  -01 7.853  +00 5.38   -01
 7.148  -01 6.673  +00 5.30   -01
 7.170  -01 7.438  +00 5.13   -01
 7.190  -01 6.308  +00 5.20   -01
 7.210  -01 7.474  +00 5.07   -01
 7.230  -01 6.553  +00 5.17   -01
 7.250  -01 7.404  +00 5.13   -01
 7.270  -01 7.600  +00 5.05   -01
 7.290  -01 7.774  +00 4.78   -01
 7.312  -01 7.797  +00 4.96   -01
 7.333  -01 6.842  +00 4.95   -01
 7.355  -01 6.870  +00 4.89   -01
 7.376  -01 6.742  +00 4.93   -01
 7.398  -01 6.618  +00 4.85   -01
 7.420  -01 7.727  +00 4.73   -01
 7.440  -01 7.122  +00 4.67   -01
 7.460  -01 8.022  +00 4.56   -01
 7.480  -01 7.671  +00 4.80   -01
 7.500  -01 7.738  +00 4.65   -01
 7.520  -01 7.121  +00 4.68   -01
 7.540  -01 7.426  +00 4.66   -01
 7.563  -01 6.560  +00 4.71   -01
 7.586  -01 7.172  +00 4.71   -01
 7.610  -01 7.966  +00 4.52   -01
 7.633  -01 7.576  +00 4.51   -01
 7.656  -01 7.960  +00 4.48   -01
 7.680  -01 6.887  +00 4.47   -01
 7.702  -01 6.525  +00 4.47   -01
 7.723  -01 7.320  +00 4.37   -01
 7.745  -01 6.509  +00 4.47   -01
 7.766  -01 7.345  +00 4.42   -01
 7.788  -01 7.030  +00 4.44   -01
 7.810  -01 7.765  +00 4.27   -01
 7.835  -01 8.090  +00 4.32   -01
 7.860  -01 7.848  +00 4.32   -01
 7.885  -01 7.330  +00 4.35   -01
 7.910  -01 7.751  +00 4.45   -01
 7.935  -01 6.906  +00 4.35   -01
 7.960  -01 7.188  +00 4.36   -01
 7.983  -01 8.277  +00 4.23   -01
 8.006  -01 6.899  +00 4.32   -01
 8.030  -01 7.694  +00 4.20   -01
 8.053  -01 6.762  +00 4.35   -01
 8.076  -01 7.516  +00 4.17   -01
 8.100  -01 8.245  +00 4.07   -01
 8.123  -01 7.349  +00 4.14   -01
 8.146  -01 7.247  +00 4.07   -01
 8.170  -01 7.596  +00 3.95   -01
 8.193  -01 7.662  +00 3.95   -01
 8.216  -01 6.850  +00 3.95   -01
 8.240  -01 6.972  +00 3.99   -01
 8.267  -01 6.803  +00 3.97   -01
 8.293  -01 7.173  +00 3.89   -01
 8.320  -01 7.322  +00 3.86   -01
 8.346  -01 6.930  +00 3.97   -01
 8.373  -01 7.586  +00 3.86   -01
 8.400  -01 7.991  +00 3.77   -01
 8.425  -01 6.202  +00 3.92   -01
 8.450  -01 7.494  +00 3.73   -01
 8.475  -01 8.269  +00 3.69   -01
 8.500  -01 6.790  +00 3.79   -01
 8.525  -01 7.596  +00 3.75   -01
 8.550  -01 6.850  +00 3.74   -01
 8.577  -01 7.632  +00 3.71   -01
 8.603  -01 6.981  +00 3.65   -01
 8.630  -01 7.300  +00 3.64   -01
 8.656  -01 7.198  +00 3.70   -01
 8.683  -01 6.573  +00 3.68   -01
 8.710  -01 7.668  +00 3.53   -01
 8.738  -01 7.528  +00 3.58   -01
 8.766  -01 7.259  +00 3.58   -01
 8.795  -01 7.992  +00 3.54   -01
 8.823  -01 6.916  +00 3.52   -01
 8.851  -01 7.342  +00 3.43   -01
 8.880  -01 7.449  +00 3.40   -01
 8.908  -01 7.384  +00 3.39   -01
 8.936  -01 7.097  +00 3.39   -01
 8.965  -01 7.063  +00 3.38   -01
 8.993  -01 7.296  +00 3.30   -01
 9.021  -01 7.495  +00 3.28   -01
 9.050  -01 7.178  +00 3.32   -01
 9.080  -01 7.142  +00 3.29   -01
 9.110  -01 7.204  +00 3.24   -01
 9.140  -01 7.176  +00 3.15   -01
 9.170  -01 7.300  +00 3.23   -01
 9.200  -01 7.297  +00 3.14   -01
 9.230  -01 7.404  +00 3.17   -01
 9.260  -01 6.635  +00 3.20   -01
 9.290  -01 7.078  +00 3.16   -01
 9.320  -01 7.849  +00 3.17   -01
 9.350  -01 7.184  +00 3.15   -01
 9.380  -01 7.926  +00 3.09   -01
 9.410  -01 7.161  +00 3.10   -01
 9.442  -01 7.500  +00 3.09   -01
 9.473  -01 6.686  +00 3.06   -01
 9.505  -01 6.868  +00 3.06   -01
 9.536  -01 7.624  +00 3.02   -01
 9.568  -01 7.327  +00 3.01   -01
 9.600  -01 7.041  +00 3.05   -01
 9.632  -01 7.510  +00 2.97   -01
 9.663  -01 7.257  +00 2.98   -01
 9.695  -01 6.971  +00 3.00   -01
 9.726  -01 7.532  +00 2.95   -01
 9.758  -01 7.106  +00 3.02   -01
 9.790  -01 7.394  +00 3.03   -01
 9.823  -01 7.137  +00 3.02   -01
 9.856  -01 7.485  +00 2.99   -01
 9.890  -01 7.523  +00 2.98   -01
 9.923  -01 7.828  +00 2.95   -01
 9.956  -01 7.223  +00 2.98   -01
 9.990  -01 7.036  +00 2.96   -01
 1.002  +00 7.273  +00 2.96   -01
 1.006  +00 7.070  +00 3.03   -01
 1.009  +00 6.961  +00 2.96   -01
 1.013  +00 7.216  +00 3.04   -01
 1.016  +00 7.305  +00 2.97   -01
 1.020  +00 7.316  +00 2.99   -01
 1.023  +00 7.714  +00 2.98   -01
 1.026  +00 7.843  +00 2.90   -01
 1.029  +00 7.098  +00 2.93   -01
 1.032  +00 7.222  +00 2.88   -01
 1.035  +00 6.957  +00 2.88   -01
 1.038  +00 7.275  +00 2.82   -01
 1.042  +00 7.526  +00 2.83   -01
 1.045  +00 7.428  +00 2.74   -01
 1.049  +00 7.209  +00 2.78   -01
 1.053  +00 7.198  +00 2.74   -01
 1.057  +00 7.383  +00 2.73   -01
 1.061  +00 7.296  +00 2.63   -01
 1.065  +00 7.192  +00 2.62   -01
 1.069  +00 7.509  +00 2.58   -01
 1.073  +00 7.296  +00 2.55   -01
 1.077  +00 7.231  +00 2.51   -01
 1.081  +00 6.983  +00 2.55   -01
 1.085  +00 7.305  +00 2.50   -01
 1.089  +00 7.594  +00 2.49   -01
 1.093  +00 6.982  +00 2.49   -01
 1.097  +00 7.164  +00 2.52   -01
 1.101  +00 7.138  +00 2.51   -01
 1.105  +00 7.147  +00 2.50   -01
 1.110  +00 7.395  +00 2.50   -01
 1.114  +00 7.232  +00 2.63   -01
 1.118  +00 7.555  +00 2.54   -01
 1.123  +00 6.919  +00 2.54   -01
 1.127  +00 7.044  +00 2.52   -01
 1.131  +00 7.211  +00 2.54   -01
 1.136  +00 7.591  +00 2.57   -01
 1.140  +00 7.343  +00 2.50   -01
 1.144  +00 7.015  +00 2.51   -01
 1.149  +00 7.114  +00 2.53   -01
 1.153  +00 7.119  +00 2.49   -01
 1.157  +00 7.735  +00 2.50   -01
 1.162  +00 7.197  +00 2.48   -01
 1.166  +00 7.647  +00 2.44   -01
 1.170  +00 7.569  +00 2.45   -01
 1.175  +00 7.305  +00 2.49   -01
 1.179  +00 7.432  +00 2.47   -01
 1.184  +00 6.934  +00 2.44   -01
 1.188  +00 6.857  +00 2.42   -01
 1.193  +00 6.898  +00 2.46   -01
 1.197  +00 7.205  +00 2.40   -01
 1.202  +00 7.663  +00 2.35   -01
 1.207  +00 7.336  +00 2.40   -01
 1.211  +00 7.240  +00 2.38   -01
 1.216  +00 7.154  +00 2.40   -01
 1.221  +00 7.190  +00 2.35   -01
 1.226  +00 7.104  +00 2.39   -01
 1.231  +00 7.095  +00 2.36   -01
 1.236  +00 7.065  +00 2.37   -01
 1.241  +00 7.189  +00 2.37   -01
 1.246  +00 7.401  +00 2.32   -01
 1.251  +00 7.685  +00 2.34   -01
 1.256  +00 7.074  +00 2.31   -01
 1.261  +00 7.205  +00 2.31   -01
 1.266  +00 7.303  +00 2.34   -01
 1.271  +00 7.081  +00 2.33   -01
 1.276  +00 7.402  +00 2.32   -01
 1.281  +00 7.266  +00 2.32   -01
 1.286  +00 7.047  +00 2.33   -01
 1.291  +00 7.392  +00 2.34   -01
 1.296  +00 7.148  +00 2.31   -01
 1.301  +00 6.836  +00 2.31   -01
 1.307  +00 7.320  +00 2.30   -01
 1.312  +00 7.468  +00 2.32   -01
 1.317  +00 7.413  +00 2.27   -01
 1.323  +00 7.077  +00 2.34   -01
 1.328  +00 6.912  +00 2.32   -01
 1.334  +00 6.936  +00 2.29   -01
 1.339  +00 7.144  +00 2.28   -01
 1.345  +00 7.200  +00 2.27   -01
 1.350  +00 7.258  +00 2.22   -01
 1.356  +00 7.087  +00 2.26   -01
 1.362  +00 6.934  +00 2.27   -01
 1.367  +00 7.413  +00 2.23   -01
 1.373  +00 6.753  +00 2.28   -01
 1.378  +00 6.787  +00 2.28   -01
 1.384  +00 7.123  +00 2.25   -01
 1.390  +00 7.345  +00 2.24   -01
 1.396  +00 6.972  +00 2.23   -01
 1.401  +00 7.034  +00 2.22   -01
 1.407  +00 7.059  +00 2.27   -01
 1.413  +00 7.480  +00 2.24   -01
 1.419  +00 7.069  +00 2.22   -01
 1.425  +00 7.235  +00 2.19   -01
 1.431  +00 7.551  +00 2.15   -01
 1.437  +00 7.543  +00 2.13   -01
 1.443  +00 7.050  +00 2.15   -01
 1.449  +00 7.012  +00 2.16   -01
 1.455  +00 7.125  +00 2.14   -01
 1.461  +00 7.244  +00 2.13   -01
 1.467  +00 7.530  +00 2.12   -01
 1.474  +00 6.935  +00 2.12   -01
 1.480  +00 7.357  +00 2.10   -01
 1.487  +00 7.379  +00 2.12   -01
 1.493  +00 6.984  +00 2.12   -01
 1.500  +00 7.165  +00 2.10   -01
 1.506  +00 7.572  +00 2.09   -01
 1.513  +00 7.172  +00 2.10   -01
 1.519  +00 7.367  +00 2.09   -01
 1.526  +00 7.140  +00 2.10   -01
 1.532  +00 7.019  +00 2.07   -01
 1.539  +00 7.274  +00 2.06   -01
 1.546  +00 7.496  +00 2.03   -01
 1.552  +00 7.223  +00 2.06   -01
 1.559  +00 6.929  +00 2.04   -01
 1.566  +00 7.464  +00 2.05   -01
 1.573  +00 7.220  +00 2.03   -01
 1.580  +00 7.395  +00 2.04   -01
 1.587  +00 7.068  +00 2.03   -01
 1.594  +00 7.270  +00 2.02   -01
 1.601  +00 7.538  +00 2.01   -01
 1.608  +00 7.127  +00 2.03   -01
 1.615  +00 6.863  +00 2.02   -01
 1.623  +00 7.348  +00 2.02   -01
 1.630  +00 7.601  +00 2.00   -01
 1.637  +00 6.940  +00 2.00   -01
 1.645  +00 7.409  +00 1.98   -01
 1.652  +00 7.113  +00 2.00   -01
 1.659  +00 7.421  +00 1.99   -01
 1.667  +00 7.304  +00 2.01   -01
 1.675  +00 7.025  +00 2.00   -01
 1.682  +00 7.245  +00 2.01   -01
 1.690  +00 7.337  +00 1.99   -01
 1.697  +00 7.124  +00 2.00   -01
 1.705  +00 6.829  +00 2.01   -01
 1.713  +00 7.209  +00 2.01   -01
 1.721  +00 7.327  +00 2.00   -01
 1.729  +00 7.333  +00 2.04   -01
 1.737  +00 7.361  +00 1.99   -01
 1.745  +00 7.175  +00 2.03   -01
 1.753  +00 7.379  +00 1.97   -01
 1.762  +00 6.862  +00 2.01   -01
 1.770  +00 7.855  +00 1.97   -01
 1.778  +00 7.391  +00 1.97   -01
 1.787  +00 7.469  +00 1.95   -01
 1.795  +00 7.194  +00 1.95   -01
 1.803  +00 7.128  +00 1.97   -01
 1.812  +00 7.292  +00 1.98   -01
 1.821  +00 7.061  +00 1.98   -01
 1.829  +00 7.241  +00 1.98   -01
 1.838  +00 6.947  +00 1.98   -01
 1.846  +00 7.287  +00 1.97   -01
 1.855  +00 7.278  +00 1.97   -01
 1.864  +00 7.416  +00 1.97   -01
 1.873  +00 7.315  +00 1.99   -01
 1.882  +00 7.683  +00 2.00   -01
 1.891  +00 7.055  +00 1.98   -01
 1.900  +00 7.421  +00 1.96   -01
 1.909  +00 7.231  +00 1.97   -01
 1.918  +00 7.267  +00 1.96   -01
 1.927  +00 7.299  +00 1.98   -01
 1.937  +00 7.496  +00 1.96   -01
 1.946  +00 7.237  +00 1.95   -01
 1.956  +00 7.320  +00 1.95   -01
 1.965  +00 7.459  +00 1.95   -01
 1.975  +00 7.419  +00 1.95   -01
 1.985  +00 7.393  +00 1.97   -01
 1.995  +00 6.962  +00 1.98   -01
 2.005  +00 7.567  +00 1.94   -01
 2.015  +00 7.247  +00 1.96   -01
 2.025  +00 7.054  +00 1.96   -01
 2.035  +00 7.214  +00 1.97   -01
 2.045  +00 7.337  +00 1.98   -01
 2.055  +00 7.401  +00 1.98   -01
 2.066  +00 7.229  +00 1.98   -01
 2.076  +00 7.127  +00 1.97   -01
 2.086  +00 7.185  +00 1.95   -01
 2.097  +00 7.296  +00 1.93   -01
 2.108  +00 7.631  +00 1.93   -01
 2.118  +00 7.393  +00 1.96   -01
 2.129  +00 7.681  +00 1.91   -01
 2.139  +00 7.340  +00 1.97   -01
 2.150  +00 7.073  +00 1.95   -01
 2.161  +00 7.414  +00 1.94   -01
 2.172  +00 7.602  +00 1.94   -01
 2.183  +00 7.274  +00 1.98   -01
 2.195  +00 7.273  +00 1.93   -01
 2.206  +00 7.365  +00 1.95   -01
 2.217  +00 7.093  +00 1.96   -01
 2.229  +00 7.087  +00 1.91   -01
 2.241  +00 6.978  +00 1.93   -01
 2.252  +00 7.269  +00 1.93   -01
 2.264  +00 7.076  +00 1.93   -01
 2.276  +00 7.005  +00 1.92   -01
 2.288  +00 7.613  +00 1.90   -01
 2.300  +00 7.237  +00 1.92   -01
 2.312  +00 7.285  +00 1.89   -01
 2.324  +00 7.266  +00 1.91   -01
 2.337  +00 7.159  +00 1.91   -01
 2.349  +00 6.973  +00 1.92   -01
 2.361  +00 7.010  +00 1.92   -01
 2.374  +00 7.154  +00 1.94   -01
 2.387  +00 7.215  +00 1.92   -01
 2.400  +00 7.104  +00 1.95   -01
 2.413  +00 7.404  +00 1.91   -01
 2.426  +00 7.231  +00 1.93   -01
 2.439  +00 7.382  +00 1.92   -01
 2.452  +00 7.104  +00 1.95   -01
 2.466  +00 6.866  +00 1.96   -01
 2.479  +00 7.320  +00 1.95   -01
 2.493  +00 6.950  +00 1.95   -01
 2.506  +00 7.140  +00 1.95   -01
 2.520  +00 7.236  +00 1.98   -01
 2.534  +00 7.429  +00 1.97   -01
 2.548  +00 7.158  +00 1.97   -01
 2.562  +00 6.930  +00 2.00   -01
 2.577  +00 7.217  +00 1.96   -01
 2.591  +00 6.867  +00 1.99   -01
 2.605  +00 7.549  +00 1.99   -01
 2.620  +00 6.950  +00 2.02   -01
 2.635  +00 7.071  +00 1.97   -01
 2.650  +00 7.070  +00 2.00   -01
 2.665  +00 7.139  +00 1.99   -01
 2.680  +00 6.608  +00 2.02   -01
 2.695  +00 7.073  +00 2.02   -01
 2.710  +00 7.067  +00 2.03   -01
 2.726  +00 7.287  +00 2.00   -01
 2.741  +00 7.012  +00 2.03   -01
 2.757  +00 7.299  +00 2.03   -01
 2.772  +00 6.988  +00 2.02   -01
 2.788  +00 7.171  +00 2.00   -01
 2.804  +00 6.964  +00 2.02   -01
 2.821  +00 7.227  +00 2.01   -01
 2.837  +00 6.841  +00 2.04   -01
 2.854  +00 6.669  +00 2.02   -01
 2.871  +00 6.976  +00 2.04   -01
 2.888  +00 6.922  +00 2.03   -01
 2.905  +00 6.996  +00 2.05   -01
 2.922  +00 6.692  +00 2.06   -01
 2.940  +00 6.917  +00 2.02   -01
 2.957  +00 6.953  +00 2.02   -01
 2.975  +00 7.263  +00 2.00   -01
 2.992  +00 7.186  +00 2.02   -01
 3.010  +00 6.755  +00 2.02   -01
 3.028  +00 6.979  +00 2.03   -01
 3.046  +00 6.653  +00 2.03   -01
 3.065  +00 6.795  +00 2.05   -01
 3.083  +00 6.836  +00 2.04   -01
 3.101  +00 7.143  +00 2.03   -01
 3.120  +00 6.731  +00 2.04   -01
 3.139  +00 7.140  +00 2.04   -01
 3.159  +00 6.690  +00 2.05   -01
 3.178  +00 7.075  +00 2.04   -01
 3.198  +00 6.318  +00 2.06   -01
 3.217  +00 6.868  +00 2.01   -01
 3.237  +00 6.800  +00 2.03   -01
 3.257  +00 7.047  +00 2.04   -01
 3.278  +00 6.701  +00 2.03   -01
 3.298  +00 6.809  +00 2.05   -01
 3.319  +00 6.922  +00 2.06   -01
 3.339  +00 6.915  +00 2.05   -01
 3.360  +00 6.802  +00 2.04   -01
 3.382  +00 6.515  +00 2.03   -01
 3.403  +00 6.313  +00 2.05   -01
 3.425  +00 6.756  +00 2.06   -01
 3.446  +00 6.671  +00 2.09   -01
 3.468  +00 6.832  +00 2.06   -01
 3.490  +00 6.862  +00 2.07   -01
 3.513  +00 6.627  +00 2.03   -01
 3.535  +00 6.582  +00 2.08   -01
 3.558  +00 6.585  +00 2.06   -01
 3.581  +00 6.553  +00 2.06   -01
 3.604  +00 6.788  +00 2.04   -01
 3.627  +00 6.468  +00 2.02   -01
 3.651  +00 6.371  +00 2.05   -01
 3.675  +00 6.750  +00 2.02   -01
 3.700  +00 6.251  +00 2.05   -01
 3.724  +00 6.651  +00 2.07   -01
 3.748  +00 6.575  +00 2.03   -01
 3.773  +00 6.609  +00 2.03   -01
 3.799  +00 6.550  +00 2.01   -01
 3.824  +00 6.408  +00 2.01   -01
 3.850  +00 6.489  +00 2.01   -01
 3.876  +00 6.310  +00 1.99   -01
 3.902  +00 6.695  +00 2.00   -01
 3.928  +00 6.579  +00 1.98   -01
 3.955  +00 6.568  +00 1.97   -01
 3.983  +00 6.718  +00 1.96   -01
 4.010  +00 6.256  +00 1.94   -01
 4.038  +00 6.334  +00 1.92   -01
 4.065  +00 6.191  +00 1.94   -01
 4.093  +00 6.532  +00 1.94   -01
 4.122  +00 6.050  +00 1.92   -01
 4.151  +00 6.414  +00 1.92   -01
 4.180  +00 6.315  +00 1.89   -01
 4.209  +00 6.318  +00 1.90   -01
 4.238  +00 6.222  +00 1.90   -01
 4.268  +00 6.217  +00 1.87   -01
 4.299  +00 6.325  +00 1.86   -01
 4.330  +00 6.074  +00 1.86   -01
 4.361  +00 6.496  +00 1.85   -01
 4.392  +00 6.157  +00 1.84   -01
 4.423  +00 6.363  +00 1.82   -01
 4.455  +00 6.012  +00 1.83   -01
 4.490  +00 6.160  +00 1.83   -01
 4.524  +00 6.237  +00 1.83   -01
 4.559  +00 6.430  +00 1.81   -01
 4.593  +00 6.372  +00 1.79   -01
 4.628  +00 6.009  +00 1.78   -01
 4.663  +00 6.098  +00 1.79   -01
 4.702  +00 5.781  +00 1.80   -01
 4.741  +00 6.022  +00 1.78   -01
 4.780  +00 5.963  +00 1.78   -01
 4.819  +00 5.951  +00 1.78   -01
 4.858  +00 6.196  +00 1.78   -01
 4.897  +00 5.624  +00 1.80   -01
 4.931  +00 5.692  +00 1.76   -01
 4.966  +00 5.387  +00 1.78   -01
 5.000  +00 5.654  +00 1.78   -01
 5.035  +00 5.856  +00 1.78   -01
 5.069  +00 5.856  +00 1.80   -01
 5.104  +00 5.753  +00 1.79   -01
 5.143  +00 5.816  +00 1.77   -01
 5.182  +00 5.823  +00 1.78   -01
 5.221  +00 5.703  +00 1.76   -01
 5.260  +00 5.709  +00 1.78   -01
 5.299  +00 5.989  +00 1.75   -01
 5.339  +00 5.505  +00 1.76   -01
 5.383  +00 5.907  +00 1.73   -01
 5.426  +00 5.573  +00 1.75   -01
 5.470  +00 5.961  +00 1.71   -01
 5.514  +00 5.815  +00 1.73   -01
 5.558  +00 5.640  +00 1.73   -01
 5.602  +00 5.819  +00 1.72   -01
 5.649  +00 5.958  +00 1.69   -01
 5.696  +00 5.613  +00 1.68   -01
 5.743  +00 5.352  +00 1.68   -01
 5.790  +00 5.609  +00 1.67   -01
 5.837  +00 5.658  +00 1.66   -01
 5.884  +00 5.647  +00 1.64   -01
 5.935  +00 5.335  +00 1.65   -01
 5.985  +00 5.318  +00 1.65   -01
 6.036  +00 5.100  +00 1.63   -01
 6.087  +00 5.425  +00 1.63   -01
 6.138  +00 5.310  +00 1.64   -01
 6.189  +00 5.659  +00 1.64   -01
 6.244  +00 5.228  +00 1.62   -01
 6.298  +00 5.231  +00 1.62   -01
 6.353  +00 5.563  +00 1.61   -01
 6.408  +00 5.166  +00 1.62   -01
 6.463  +00 5.564  +00 1.60   -01
 6.518  +00 5.338  +00 1.60   -01
 6.577  +00 5.251  +00 1.61   -01
 6.636  +00 5.356  +00 1.61   -01
 6.695  +00 5.208  +00 1.61   -01
 6.754  +00 5.193  +00 1.61   -01
 6.813  +00 4.931  +00 1.61   -01
 6.873  +00 5.267  +00 1.61   -01
 6.937  +00 5.255  +00 1.59   -01
 7.001  +00 4.887  +00 1.60   -01
 7.018  +00 5.181  +00 2.33   -01
 7.077  +00 5.286  +00 2.34   -01
 7.137  +00 4.882  +00 2.35   -01
 7.200  +00 4.917  +00 2.33   -01
 7.263  +00 4.609  +00 2.37   -01
 7.327  +00 4.798  +00 2.35   -01
 7.390  +00 5.269  +00 2.33   -01
 7.453  +00 5.100  +00 2.36   -01
 7.517  +00 5.003  +00 2.42   -01
 7.585  +00 5.011  +00 2.43   -01
 7.652  +00 5.427  +00 2.42   -01
 7.720  +00 5.434  +00 2.45   -01
 7.787  +00 4.996  +00 2.45   -01
 7.855  +00 4.858  +00 2.49   -01
 7.923  +00 4.636  +00 2.50   -01
 7.995  +00 4.383  +00 2.52   -01
 8.067  +00 5.084  +00 2.53   -01
 8.139  +00 5.161  +00 2.50   -01
 8.211  +00 4.893  +00 2.58   -01
 8.283  +00 5.008  +00 2.52   -01
 8.355  +00 5.190  +00 2.50   -01
 8.432  +00 5.242  +00 2.50   -01
 8.508  +00 5.161  +00 2.53   -01
 8.585  +00 4.901  +00 2.52   -01
 8.661  +00 4.965  +00 2.53   -01
 8.738  +00 5.087  +00 2.55   -01
 8.815  +00 4.829  +00 2.57   -01
 8.896  +00 5.022  +00 2.53   -01
 8.976  +00 5.127  +00 2.59   -01
 9.057  +00 5.111  +00 2.62   -01
 9.138  +00 5.171  +00 2.66   -01
 9.219  +00 5.326  +00 2.67   -01
 9.300  +00 5.090  +00 2.73   -01
 9.386  +00 4.999  +00 2.76   -01
 9.472  +00 5.127  +00 2.73   -01
 9.558  +00 4.825  +00 2.87   -01
 9.644  +00 4.745  +00 2.88   -01
 9.730  +00 4.716  +00 2.85   -01
 9.817  +00 4.846  +00 2.89   -01
 9.912  +00 5.042  +00 2.87   -01
 1.000  +01 5.361  +00 2.87   -01
 1.009  +01 5.210  +00 2.88   -01
 1.018  +01 4.610  +00 3.01   -01
 1.027  +01 5.228  +00 2.91   -01
 1.036  +01 5.357  +00 2.97   -01
 1.046  +01 5.301  +00 3.00   -01
 1.056  +01 4.908  +00 3.11   -01
 1.066  +01 5.037  +00 3.08   -01
 1.076  +01 4.677  +00 3.15   -01
 1.085  +01 5.434  +00 3.10   -01
 1.095  +01 4.827  +00 3.22   -01
 1.106  +01 4.704  +00 3.20   -01
 1.116  +01 5.032  +00 3.22   -01
 1.127  +01 4.807  +00 3.25   -01
 1.137  +01 5.297  +00 3.17   -01
 1.148  +01 5.058  +00 3.22   -01
 1.159  +01 4.508  +00 3.35   -01
 1.170  +01 4.822  +00 3.33   -01
 1.182  +01 5.211  +00 3.31   -01
 1.193  +01 5.449  +00 3.34   -01
 1.205  +01 4.585  +00 3.44   -01
 1.216  +01 5.342  +00 3.38   -01
 1.228  +01 4.746  +00 3.51   -01
 1.241  +01 5.406  +00 3.46   -01
 1.254  +01 5.520  +00 3.55   -01
 1.266  +01 5.684  +00 3.48   -01
 1.279  +01 5.631  +00 3.53   -01
 1.292  +01 5.104  +00 3.53   -01
 1.304  +01 5.625  +00 3.56   -01
 1.319  +01 4.734  +00 3.66   -01
 1.333  +01 5.105  +00 3.71   -01
 1.347  +01 5.003  +00 3.65   -01
 1.361  +01 5.299  +00 3.74   -01
 1.375  +01 4.987  +00 3.74   -01
 1.389  +01 5.585  +00 3.71   -01
 1.405  +01 5.464  +00 3.72   -01
 1.421  +01 5.185  +00 3.76   -01
 1.437  +01 5.373  +00 3.76   -01
 1.454  +01 4.815  +00 3.95   -01
 1.470  +01 5.611  +00 3.87   -01
 1.486  +01 5.273  +00 4.00   -01
 1.504  +01 5.394  +00 3.95   -01
ENDDATA            560
ENDSUBENT          572
SUBENT        12159005     821012              20050926       0000
BIB                  2          3
REACTION   (74-W-186(N,TOT),,SIG)
SAMPLE     SAMPLE THICKNESS .1187B/ATOM. SEPARATED ISOTOPE.
            COMPACTED METAL.
ENDBIB               3
COMMON               1          3
EN-RSL
NSEC/M
 0.25
ENDCOMMON            3
DATA                 3        547
EN         DATA       DATA-ERR
MEV        B          B
 7.000  -01 5.909  +00 5.72   -01
 7.020  -01 7.033  +00 5.76   -01
 7.040  -01 6.704  +00 5.65   -01
 7.062  -01 7.329  +00 5.67   -01
 7.083  -01 6.472  +00 5.66   -01
 7.105  -01 7.545  +00 5.72   -01
 7.126  -01 7.459  +00 5.65   -01
 7.148  -01 6.333  +00 5.53   -01
 7.170  -01 6.272  +00 5.46   -01
 7.190  -01 7.170  +00 5.50   -01
 7.210  -01 7.712  +00 5.52   -01
 7.230  -01 6.933  +00 5.50   -01
 7.250  -01 7.024  +00 5.23   -01
 7.270  -01 7.438  +00 5.36   -01
 7.290  -01 7.335  +00 5.33   -01
 7.312  -01 7.234  +00 5.30   -01
 7.333  -01 7.147  +00 5.27   -01
 7.355  -01 7.653  +00 5.38   -01
 7.376  -01 7.085  +00 5.11   -01
 7.398  -01 6.651  +00 5.22   -01
 7.420  -01 7.407  +00 5.00   -01
 7.440  -01 6.645  +00 5.19   -01
 7.460  -01 7.485  +00 4.98   -01
 7.480  -01 7.435  +00 5.11   -01
 7.500  -01 6.919  +00 4.89   -01
 7.520  -01 8.395  +00 4.96   -01
 7.540  -01 7.126  +00 5.04   -01
 7.563  -01 7.164  +00 5.05   -01
 7.586  -01 7.304  +00 5.00   -01
 7.610  -01 6.589  +00 5.02   -01
 7.633  -01 7.462  +00 4.89   -01
 7.656  -01 7.233  +00 4.96   -01
 7.680  -01 7.779  +00 4.94   -01
 7.702  -01 6.755  +00 4.76   -01
 7.723  -01 7.130  +00 4.75   -01
 7.745  -01 7.426  +00 4.75   -01
 7.766  -01 7.223  +00 4.72   -01
 7.788  -01 7.323  +00 4.74   -01
 7.810  -01 7.023  +00 4.70   -01
 7.835  -01 6.621  +00 4.73   -01
 7.860  -01 6.938  +00 4.81   -01
 7.885  -01 6.992  +00 4.76   -01
 7.910  -01 7.196  +00 4.72   -01
 7.935  -01 5.857  +00 4.89   -01
 7.960  -01 7.287  +00 4.72   -01
 7.983  -01 6.881  +00 4.57   -01
 8.006  -01 6.309  +00 4.80   -01
 8.030  -01 7.225  +00 4.51   -01
 8.053  -01 6.858  +00 4.64   -01
 8.076  -01 7.543  +00 4.46   -01
 8.100  -01 6.703  +00 4.44   -01
 8.123  -01 7.118  +00 4.28   -01
 8.146  -01 7.483  +00 4.31   -01
 8.170  -01 7.325  +00 4.31   -01
 8.193  -01 7.422  +00 4.24   -01
 8.216  -01 6.054  +00 4.36   -01
 8.240  -01 7.370  +00 4.23   -01
 8.267  -01 6.396  +00 4.23   -01
 8.293  -01 6.997  +00 4.20   -01
 8.320  -01 6.998  +00 4.20   -01
 8.346  -01 7.467  +00 4.15   -01
 8.373  -01 7.397  +00 4.17   -01
 8.400  -01 7.492  +00 4.16   -01
 8.425  -01 6.799  +00 4.08   -01
 8.450  -01 6.906  +00 4.16   -01
 8.475  -01 7.062  +00 4.05   -01
 8.500  -01 6.706  +00 4.13   -01
 8.525  -01 7.579  +00 3.96   -01
 8.550  -01 6.782  +00 4.18   -01
 8.577  -01 7.058  +00 3.94   -01
 8.603  -01 6.885  +00 4.08   -01
 8.630  -01 6.655  +00 4.03   -01
 8.656  -01 6.837  +00 4.02   -01
 8.683  -01 6.599  +00 3.93   -01
 8.710  -01 6.770  +00 3.87   -01
 8.738  -01 6.808  +00 3.89   -01
 8.766  -01 6.588  +00 3.76   -01
 8.795  -01 6.275  +00 3.74   -01
 8.823  -01 6.945  +00 3.79   -01
 8.851  -01 7.680  +00 3.70   -01
 8.880  -01 7.010  +00 3.66   -01
 8.908  -01 7.909  +00 3.66   -01
 8.936  -01 7.852  +00 3.53   -01
 8.965  -01 7.104  +00 3.54   -01
 8.993  -01 7.326  +00 3.56   -01
 9.021  -01 7.327  +00 3.54   -01
 9.050  -01 6.723  +00 3.54   -01
 9.080  -01 7.114  +00 3.48   -01
 9.110  -01 6.730  +00 3.53   -01
 9.140  -01 6.758  +00 3.45   -01
 9.170  -01 6.948  +00 3.43   -01
 9.200  -01 7.037  +00 3.38   -01
 9.230  -01 7.004  +00 3.37   -01
 9.260  -01 6.732  +00 3.37   -01
 9.290  -01 7.552  +00 3.36   -01
 9.320  -01 6.977  +00 3.48   -01
 9.350  -01 7.204  +00 3.40   -01
 9.380  -01 6.838  +00 3.41   -01
 9.410  -01 6.973  +00 3.32   -01
 9.442  -01 6.823  +00 3.28   -01
 9.473  -01 6.441  +00 3.39   -01
 9.505  -01 7.759  +00 3.27   -01
 9.536  -01 6.890  +00 3.26   -01
 9.568  -01 6.575  +00 3.31   -01
 9.600  -01 6.639  +00 3.34   -01
 9.632  -01 7.248  +00 3.22   -01
 9.663  -01 7.101  +00 3.24   -01
 9.695  -01 6.789  +00 3.33   -01
 9.726  -01 7.052  +00 3.32   -01
 9.758  -01 6.785  +00 3.24   -01
 9.790  -01 7.721  +00 3.30   -01
 9.823  -01 6.765  +00 3.30   -01
 9.856  -01 6.410  +00 3.27   -01
 9.890  -01 7.285  +00 3.21   -01
 9.923  -01 6.486  +00 3.19   -01
 9.956  -01 7.433  +00 3.15   -01
 9.990  -01 7.707  +00 3.13   -01
 1.002  +00 7.278  +00 3.17   -01
 1.006  +00 7.319  +00 3.24   -01
 1.009  +00 7.329  +00 3.20   -01
 1.013  +00 7.130  +00 3.21   -01
 1.016  +00 7.369  +00 3.20   -01
 1.020  +00 7.061  +00 3.22   -01
 1.023  +00 7.253  +00 3.20   -01
 1.026  +00 7.395  +00 3.19   -01
 1.029  +00 6.562  +00 3.20   -01
 1.032  +00 7.242  +00 3.11   -01
 1.035  +00 7.041  +00 3.09   -01
 1.038  +00 7.049  +00 3.08   -01
 1.042  +00 7.096  +00 3.07   -01
 1.045  +00 6.785  +00 3.09   -01
 1.049  +00 6.951  +00 2.99   -01
 1.053  +00 7.249  +00 2.98   -01
 1.057  +00 7.541  +00 2.96   -01
 1.061  +00 7.165  +00 2.87   -01
 1.065  +00 7.135  +00 2.80   -01
 1.069  +00 7.130  +00 2.81   -01
 1.073  +00 7.079  +00 2.76   -01
 1.077  +00 6.743  +00 2.72   -01
 1.081  +00 7.498  +00 2.72   -01
 1.085  +00 7.164  +00 2.72   -01
 1.089  +00 7.606  +00 2.66   -01
 1.093  +00 6.902  +00 2.72   -01
 1.097  +00 7.764  +00 2.68   -01
 1.101  +00 6.950  +00 2.70   -01
 1.105  +00 6.773  +00 2.70   -01
 1.110  +00 7.147  +00 2.76   -01
 1.114  +00 6.782  +00 2.77   -01
 1.118  +00 7.824  +00 2.70   -01
 1.123  +00 7.167  +00 2.68   -01
 1.127  +00 6.777  +00 2.69   -01
 1.131  +00 7.488  +00 2.65   -01
 1.136  +00 7.559  +00 2.63   -01
 1.140  +00 6.911  +00 2.69   -01
 1.144  +00 7.096  +00 2.68   -01
 1.149  +00 7.597  +00 2.66   -01
 1.153  +00 6.964  +00 2.64   -01
 1.157  +00 7.259  +00 2.63   -01
 1.162  +00 7.257  +00 2.64   -01
 1.166  +00 7.241  +00 2.59   -01
 1.170  +00 7.160  +00 2.58   -01
 1.175  +00 7.258  +00 2.58   -01
 1.179  +00 7.076  +00 2.55   -01
 1.184  +00 7.421  +00 2.58   -01
 1.188  +00 7.162  +00 2.58   -01
 1.193  +00 7.526  +00 2.53   -01
 1.197  +00 6.948  +00 2.56   -01
 1.202  +00 7.475  +00 2.49   -01
 1.207  +00 6.867  +00 2.51   -01
 1.211  +00 7.257  +00 2.55   -01
 1.216  +00 7.367  +00 2.53   -01
 1.221  +00 6.969  +00 2.54   -01
 1.226  +00 7.130  +00 2.48   -01
 1.231  +00 7.163  +00 2.52   -01
 1.236  +00 6.786  +00 2.54   -01
 1.241  +00 7.223  +00 2.55   -01
 1.246  +00 7.658  +00 2.52   -01
 1.251  +00 6.980  +00 2.52   -01
 1.256  +00 7.062  +00 2.57   -01
 1.261  +00 6.817  +00 2.51   -01
 1.266  +00 7.084  +00 2.54   -01
 1.271  +00 7.395  +00 2.52   -01
 1.276  +00 7.449  +00 2.53   -01
 1.281  +00 7.263  +00 2.60   -01
 1.286  +00 6.962  +00 2.55   -01
 1.291  +00 7.227  +00 2.58   -01
 1.296  +00 7.435  +00 2.58   -01
 1.301  +00 7.300  +00 2.54   -01
 1.307  +00 7.397  +00 2.52   -01
 1.312  +00 7.248  +00 2.54   -01
 1.317  +00 6.864  +00 2.52   -01
 1.323  +00 7.074  +00 2.57   -01
 1.328  +00 7.700  +00 2.52   -01
 1.334  +00 7.430  +00 2.51   -01
 1.339  +00 7.332  +00 2.45   -01
 1.345  +00 6.829  +00 2.46   -01
 1.350  +00 7.272  +00 2.44   -01
 1.356  +00 6.826  +00 2.46   -01
 1.362  +00 7.281  +00 2.43   -01
 1.367  +00 7.146  +00 2.45   -01
 1.373  +00 7.055  +00 2.44   -01
 1.378  +00 6.993  +00 2.41   -01
 1.384  +00 7.524  +00 2.40   -01
 1.390  +00 7.014  +00 2.39   -01
 1.396  +00 7.871  +00 2.34   -01
 1.401  +00 7.126  +00 2.36   -01
 1.407  +00 7.119  +00 2.37   -01
 1.413  +00 6.818  +00 2.40   -01
 1.419  +00 7.463  +00 2.35   -01
 1.425  +00 7.399  +00 2.34   -01
 1.431  +00 7.033  +00 2.32   -01
 1.437  +00 7.499  +00 2.30   -01
 1.443  +00 7.363  +00 2.28   -01
 1.449  +00 7.178  +00 2.28   -01
 1.455  +00 6.777  +00 2.30   -01
 1.461  +00 7.505  +00 2.25   -01
 1.467  +00 7.011  +00 2.27   -01
 1.474  +00 7.015  +00 2.23   -01
 1.480  +00 7.114  +00 2.24   -01
 1.487  +00 7.499  +00 2.23   -01
 1.493  +00 7.016  +00 2.28   -01
 1.500  +00 6.841  +00 2.25   -01
 1.506  +00 7.155  +00 2.24   -01
 1.513  +00 7.458  +00 2.31   -01
 1.519  +00 7.102  +00 2.25   -01
 1.526  +00 7.429  +00 2.21   -01
 1.532  +00 7.608  +00 2.23   -01
 1.539  +00 6.992  +00 2.26   -01
 1.546  +00 7.130  +00 2.22   -01
 1.552  +00 7.578  +00 2.21   -01
 1.559  +00 7.362  +00 2.22   -01
 1.566  +00 7.527  +00 2.26   -01
 1.573  +00 7.359  +00 2.27   -01
 1.580  +00 7.267  +00 2.26   -01
 1.587  +00 7.177  +00 2.25   -01
 1.594  +00 7.163  +00 2.21   -01
 1.601  +00 6.994  +00 2.21   -01
 1.608  +00 7.781  +00 2.16   -01
 1.615  +00 7.407  +00 2.18   -01
 1.623  +00 7.620  +00 2.21   -01
 1.630  +00 7.373  +00 2.19   -01
 1.637  +00 7.054  +00 2.19   -01
 1.645  +00 6.927  +00 2.18   -01
 1.652  +00 7.036  +00 2.16   -01
 1.659  +00 7.598  +00 2.16   -01
 1.667  +00 7.014  +00 2.16   -01
 1.675  +00 7.293  +00 2.17   -01
 1.682  +00 7.251  +00 2.20   -01
 1.690  +00 7.269  +00 2.19   -01
 1.697  +00 7.220  +00 2.18   -01
 1.705  +00 7.368  +00 2.18   -01
 1.713  +00 7.356  +00 2.20   -01
 1.721  +00 7.220  +00 2.22   -01
 1.729  +00 7.008  +00 2.25   -01
 1.737  +00 7.539  +00 2.20   -01
 1.745  +00 7.236  +00 2.21   -01
 1.753  +00 7.224  +00 2.22   -01
 1.762  +00 7.246  +00 2.21   -01
 1.770  +00 7.029  +00 2.21   -01
 1.778  +00 7.464  +00 2.17   -01
 1.787  +00 7.392  +00 2.16   -01
 1.795  +00 7.409  +00 2.13   -01
 1.803  +00 7.042  +00 2.19   -01
 1.812  +00 7.294  +00 2.16   -01
 1.821  +00 7.705  +00 2.14   -01
 1.829  +00 6.921  +00 2.15   -01
 1.838  +00 7.719  +00 2.14   -01
 1.846  +00 7.543  +00 2.15   -01
 1.855  +00 7.484  +00 2.12   -01
 1.864  +00 7.137  +00 2.18   -01
 1.873  +00 7.366  +00 2.18   -01
 1.882  +00 7.248  +00 2.21   -01
 1.891  +00 7.444  +00 2.18   -01
 1.900  +00 7.149  +00 2.20   -01
 1.909  +00 7.175  +00 2.18   -01
 1.918  +00 7.130  +00 2.19   -01
 1.927  +00 7.314  +00 2.16   -01
 1.937  +00 7.111  +00 2.16   -01
 1.946  +00 7.199  +00 2.11   -01
 1.956  +00 7.458  +00 2.13   -01
 1.965  +00 7.261  +00 2.15   -01
 1.975  +00 7.086  +00 2.19   -01
 1.985  +00 7.475  +00 2.14   -01
 1.995  +00 7.242  +00 2.15   -01
 2.005  +00 7.904  +00 2.11   -01
 2.015  +00 7.111  +00 2.14   -01
 2.025  +00 7.233  +00 2.17   -01
 2.035  +00 7.028  +00 2.22   -01
 2.045  +00 7.363  +00 2.24   -01
 2.055  +00 7.663  +00 2.17   -01
 2.066  +00 7.521  +00 2.17   -01
 2.076  +00 7.505  +00 2.14   -01
 2.086  +00 7.137  +00 2.13   -01
 2.097  +00 7.124  +00 2.14   -01
 2.108  +00 7.401  +00 2.12   -01
 2.118  +00 7.235  +00 2.11   -01
 2.129  +00 7.239  +00 2.15   -01
 2.139  +00 7.531  +00 2.14   -01
 2.150  +00 7.621  +00 2.13   -01
 2.161  +00 7.496  +00 2.14   -01
 2.172  +00 7.012  +00 2.15   -01
 2.183  +00 7.586  +00 2.09   -01
 2.195  +00 7.232  +00 2.11   -01
 2.206  +00 7.311  +00 2.14   -01
 2.217  +00 7.251  +00 2.12   -01
 2.229  +00 7.172  +00 2.11   -01
 2.241  +00 7.065  +00 2.11   -01
 2.252  +00 7.265  +00 2.12   -01
 2.264  +00 7.253  +00 2.11   -01
 2.276  +00 7.258  +00 2.09   -01
 2.288  +00 7.230  +00 2.09   -01
 2.300  +00 7.719  +00 2.11   -01
 2.312  +00 7.032  +00 2.10   -01
 2.324  +00 7.234  +00 2.11   -01
 2.337  +00 7.340  +00 2.07   -01
 2.349  +00 6.958  +00 2.10   -01
 2.361  +00 7.357  +00 2.11   -01
 2.374  +00 6.983  +00 2.17   -01
 2.387  +00 7.311  +00 2.15   -01
 2.400  +00 7.504  +00 2.18   -01
 2.413  +00 7.208  +00 2.14   -01
 2.426  +00 7.430  +00 2.14   -01
 2.439  +00 7.173  +00 2.17   -01
 2.452  +00 7.508  +00 2.24   -01
 2.466  +00 7.201  +00 2.23   -01
 2.479  +00 7.124  +00 2.24   -01
 2.493  +00 7.122  +00 2.22   -01
 2.506  +00 5.604  +00 2.34   -01
 2.520  +00 7.172  +00 2.23   -01
 2.534  +00 7.054  +00 2.28   -01
 2.548  +00 7.603  +00 2.23   -01
 2.562  +00 6.996  +00 2.25   -01
 2.577  +00 7.159  +00 2.21   -01
 2.591  +00 7.276  +00 2.22   -01
 2.605  +00 7.332  +00 2.22   -01
 2.620  +00 7.437  +00 2.25   -01
 2.635  +00 7.060  +00 2.20   -01
 2.650  +00 7.204  +00 2.19   -01
 2.665  +00 6.945  +00 2.19   -01
 2.680  +00 7.168  +00 2.23   -01
 2.695  +00 7.201  +00 2.21   -01
 2.710  +00 6.990  +00 2.23   -01
 2.726  +00 7.040  +00 2.23   -01
 2.741  +00 6.922  +00 2.26   -01
 2.757  +00 6.953  +00 2.25   -01
 2.772  +00 7.047  +00 2.27   -01
 2.788  +00 7.339  +00 2.23   -01
 2.804  +00 7.395  +00 2.26   -01
 2.821  +00 6.971  +00 2.27   -01
 2.837  +00 7.405  +00 2.26   -01
 2.854  +00 7.483  +00 2.31   -01
 2.871  +00 7.308  +00 2.33   -01
 2.888  +00 7.275  +00 2.33   -01
 2.905  +00 6.899  +00 2.33   -01
 2.922  +00 7.421  +00 2.30   -01
 2.940  +00 7.234  +00 2.27   -01
 2.957  +00 7.240  +00 2.23   -01
 2.975  +00 7.420  +00 2.24   -01
 2.992  +00 6.646  +00 2.24   -01
 3.010  +00 7.292  +00 2.22   -01
 3.028  +00 7.076  +00 2.22   -01
 3.046  +00 7.103  +00 2.22   -01
 3.065  +00 7.547  +00 2.22   -01
 3.083  +00 6.825  +00 2.23   -01
 3.101  +00 7.047  +00 2.23   -01
 3.120  +00 7.032  +00 2.24   -01
 3.139  +00 7.683  +00 2.27   -01
 3.159  +00 7.270  +00 2.28   -01
 3.178  +00 7.016  +00 2.28   -01
 3.198  +00 6.704  +00 2.28   -01
 3.217  +00 7.156  +00 2.26   -01
 3.237  +00 7.037  +00 2.28   -01
 3.257  +00 6.809  +00 2.29   -01
 3.278  +00 6.644  +00 2.31   -01
 3.298  +00 7.014  +00 2.29   -01
 3.319  +00 7.099  +00 2.28   -01
 3.339  +00 6.789  +00 2.27   -01
 3.360  +00 6.969  +00 2.29   -01
 3.382  +00 7.095  +00 2.26   -01
 3.403  +00 6.775  +00 2.29   -01
 3.425  +00 6.886  +00 2.29   -01
 3.446  +00 6.902  +00 2.31   -01
 3.468  +00 7.035  +00 2.29   -01
 3.490  +00 6.897  +00 2.33   -01
 3.513  +00 6.904  +00 2.29   -01
 3.535  +00 6.776  +00 2.30   -01
 3.558  +00 6.891  +00 2.27   -01
 3.581  +00 6.838  +00 2.29   -01
 3.604  +00 6.796  +00 2.28   -01
 3.627  +00 6.801  +00 2.27   -01
 3.651  +00 6.801  +00 2.27   -01
 3.675  +00 6.469  +00 2.26   -01
 3.700  +00 6.871  +00 2.25   -01
 3.724  +00 6.608  +00 2.26   -01
 3.748  +00 6.820  +00 2.22   -01
 3.773  +00 6.862  +00 2.23   -01
 3.799  +00 6.715  +00 2.22   -01
 3.824  +00 6.364  +00 2.20   -01
 3.850  +00 6.843  +00 2.17   -01
 3.876  +00 6.852  +00 2.18   -01
 3.902  +00 6.909  +00 2.18   -01
 3.928  +00 6.561  +00 2.20   -01
 3.955  +00 6.510  +00 2.14   -01
 3.983  +00 6.593  +00 2.11   -01
 4.010  +00 6.682  +00 2.09   -01
 4.038  +00 6.814  +00 2.07   -01
 4.065  +00 6.830  +00 2.09   -01
 4.093  +00 6.170  +00 2.11   -01
 4.122  +00 6.418  +00 2.09   -01
 4.151  +00 6.451  +00 2.05   -01
 4.180  +00 6.384  +00 2.04   -01
 4.209  +00 6.062  +00 2.07   -01
 4.238  +00 6.485  +00 2.04   -01
 4.268  +00 6.721  +00 2.04   -01
 4.299  +00 6.205  +00 2.03   -01
 4.330  +00 6.391  +00 2.03   -01
 4.361  +00 6.099  +00 2.00   -01
 4.392  +00 6.184  +00 2.01   -01
 4.423  +00 6.024  +00 2.02   -01
 4.455  +00 6.518  +00 2.03   -01
 4.490  +00 5.921  +00 2.01   -01
 4.524  +00 6.397  +00 2.02   -01
 4.559  +00 6.225  +00 2.01   -01
 4.593  +00 6.104  +00 1.99   -01
 4.628  +00 6.069  +00 1.97   -01
 4.663  +00 6.382  +00 1.98   -01
 4.702  +00 6.207  +00 1.97   -01
 4.741  +00 6.123  +00 1.95   -01
 4.780  +00 6.302  +00 1.98   -01
 4.819  +00 6.031  +00 1.98   -01
 4.858  +00 6.122  +00 1.96   -01
 4.897  +00 5.916  +00 1.94   -01
 4.931  +00 6.175  +00 1.93   -01
 4.966  +00 6.154  +00 1.97   -01
 5.000  +00 5.948  +00 1.98   -01
 5.035  +00 5.989  +00 1.99   -01
 5.069  +00 6.178  +00 1.98   -01
 5.104  +00 6.037  +00 1.96   -01
 5.143  +00 5.779  +00 1.97   -01
 5.182  +00 5.859  +00 1.96   -01
 5.221  +00 5.748  +00 1.94   -01
 5.260  +00 6.458  +00 1.95   -01
 5.299  +00 6.153  +00 1.94   -01
 5.339  +00 5.780  +00 1.91   -01
 5.383  +00 5.513  +00 1.88   -01
 5.426  +00 5.668  +00 1.89   -01
 5.470  +00 5.582  +00 1.88   -01
 5.514  +00 5.562  +00 1.91   -01
 5.558  +00 5.712  +00 1.90   -01
 5.602  +00 5.529  +00 1.86   -01
 5.649  +00 5.646  +00 1.85   -01
 5.696  +00 5.803  +00 1.84   -01
 5.743  +00 5.786  +00 1.83   -01
 5.790  +00 5.950  +00 1.83   -01
 5.837  +00 5.504  +00 1.81   -01
 5.884  +00 5.439  +00 1.82   -01
 5.935  +00 5.589  +00 1.78   -01
 5.985  +00 4.920  +00 1.78   -01
 6.036  +00 5.537  +00 1.79   -01
 6.087  +00 5.308  +00 1.81   -01
 6.138  +00 5.306  +00 1.79   -01
 6.189  +00 5.305  +00 1.81   -01
 6.244  +00 5.724  +00 1.80   -01
 6.298  +00 5.530  +00 1.81   -01
 6.353  +00 5.245  +00 1.81   -01
 6.408  +00 5.557  +00 1.80   -01
 6.463  +00 5.353  +00 1.77   -01
 6.518  +00 5.347  +00 1.77   -01
 6.577  +00 5.432  +00 1.79   -01
 6.636  +00 5.553  +00 1.76   -01
 6.695  +00 5.522  +00 1.77   -01
 6.754  +00 4.915  +00 1.74   -01
 6.813  +00 5.227  +00 1.76   -01
 6.873  +00 5.640  +00 1.76   -01
 6.937  +00 4.758  +00 1.78   -01
 7.001  +00 4.715  +00 2.46   -01
 7.001  +00 4.989  +00 1.79   -01
 7.066  +00 5.033  +00 2.43   -01
 7.130  +00 5.339  +00 2.48   -01
 7.194  +00 4.985  +00 2.46   -01
 7.259  +00 5.131  +00 2.51   -01
 7.329  +00 4.820  +00 2.50   -01
 7.399  +00 5.130  +00 2.51   -01
 7.469  +00 5.256  +00 2.51   -01
 7.539  +00 4.490  +00 2.56   -01
 7.609  +00 4.736  +00 2.53   -01
 7.679  +00 5.178  +00 2.51   -01
 7.755  +00 5.088  +00 2.49   -01
 7.831  +00 5.252  +00 2.50   -01
 7.907  +00 5.132  +00 2.49   -01
 7.983  +00 5.210  +00 2.52   -01
 8.059  +00 5.091  +00 2.54   -01
 8.136  +00 5.054  +00 2.54   -01
 8.219  +00 4.992  +00 2.55   -01
 8.302  +00 4.631  +00 2.58   -01
 8.385  +00 5.068  +00 2.64   -01
 8.468  +00 5.475  +00 2.67   -01
 8.551  +00 4.448  +00 2.69   -01
 8.635  +00 4.919  +00 2.65   -01
 8.726  +00 4.915  +00 2.74   -01
 8.817  +00 4.649  +00 2.76   -01
 8.908  +00 5.007  +00 2.81   -01
 8.999  +00 4.813  +00 2.88   -01
 9.090  +00 4.750  +00 2.82   -01
 9.181  +00 5.067  +00 2.88   -01
 9.281  +00 5.295  +00 2.88   -01
 9.381  +00 4.780  +00 2.94   -01
 9.482  +00 4.404  +00 2.94   -01
 9.582  +00 4.969  +00 2.96   -01
 9.682  +00 4.830  +00 2.97   -01
 9.783  +00 4.459  +00 3.10   -01
 9.895  +00 5.387  +00 3.03   -01
 1.000  +01 4.728  +00 3.17   -01
 1.011  +01 4.732  +00 3.20   -01
 1.022  +01 4.408  +00 3.14   -01
 1.033  +01 4.355  +00 3.18   -01
 1.044  +01 4.572  +00 3.29   -01
 1.056  +01 4.971  +00 3.35   -01
 1.068  +01 4.798  +00 3.37   -01
 1.081  +01 5.280  +00 3.38   -01
 1.093  +01 4.709  +00 3.39   -01
 1.105  +01 5.224  +00 3.38   -01
 1.117  +01 5.231  +00 3.54   -01
 1.131  +01 4.306  +00 3.52   -01
 1.145  +01 5.158  +00 3.61   -01
 1.158  +01 4.759  +00 3.62   -01
 1.172  +01 5.920  +00 3.66   -01
 1.185  +01 4.806  +00 3.74   -01
 1.199  +01 5.241  +00 3.84   -01
 1.214  +01 5.484  +00 3.76   -01
 1.229  +01 5.474  +00 3.91   -01
 1.245  +01 5.050  +00 3.82   -01
 1.260  +01 5.295  +00 3.95   -01
 1.275  +01 5.032  +00 3.97   -01
 1.290  +01 4.959  +00 4.07   -01
 1.307  +01 5.430  +00 4.10   -01
 1.324  +01 4.918  +00 4.06   -01
 1.341  +01 5.490  +00 4.13   -01
 1.358  +01 5.398  +00 4.22   -01
 1.375  +01 5.211  +00 4.23   -01
 1.392  +01 5.593  +00 4.31   -01
 1.412  +01 5.560  +00 4.37   -01
 1.431  +01 5.487  +00 4.45   -01
 1.450  +01 5.772  +00 4.37   -01
 1.469  +01 4.162  +00 4.61   -01
 1.488  +01 5.363  +00 4.62   -01
 1.507  +01 5.342  +00 4.77   -01
ENDDATA            549
ENDSUBENT          561
ENDENTRY             5
