ENTRY            K2003   20231113   20240306   20240306       K022
SUBENT        K2003001   20231113   20240306   20240306       K022
BIB                 13         30
TITLE      Photodisintegration of 9Be with laser-induced Compton
           backscattered gamma rays
AUTHOR     (H.Utsunomiya, Y.Yonezawa, H.Akimune, T.Yamagata,
            M.Ohta, M.Fujishiro, H.Toyokawa, H.Ohgaki)
INSTITUTE  (2JPNKON,2JPNETL)
           (2JPNJPN) Osaka Prefecture University, Sakai
REFERENCE  (J,PR/C,63,018801,2001)
           Main reference. See also TITLE and AUTHOR.
           (W,UTSUNOMIYA,20070113)
           H.Utsunomiya, Source of uncertainty in resonance
           parameters
PART-DET   (N)
INC-SOURCE (LCS) lambda=1053 nm (1.2 eV) laser photons used
SAMPLE     - Chemical-form of target is element.
           - Physical-form of target is solid.
           - Target-thickness: 4 cm
FACILITY   (SRING,2JPNETL) To store electron beam at 316 to 587
                           MeV at Electron storage ring TERAS
DETECTOR   (BF3) To measure neutrons
           (BGO) To detect LC photons
CORRECTION Flux correction near neutron threshold of 8Be+n is not
           included.
COMMENT    Decay channel was assumed to be n+8Be.
STATUS     (APRVD) Proofread by Hiroaki Utsunomiya (2007.01.13)
HISTORY    (20070109R) On. Received by e-mail from A.Makinaga
           (20070112C) On
           (20190114A) Tada. 003: REACTION changed. ERR-1 is
                       corrected.
           (20231109A) MA: modified REFERENCE and SAMPLE in 001,
                       Heading in 002-003
ENDBIB              30
NOCOMMON             0          0
ENDSUBENT           33
SUBENT        K2003002   20231113   20240306   20240306       K022
BIB                  6         19
REACTION   (4-BE-9(G,X)0-NN-1,,SIG)
ERR-ANALYS (ERR-1,9.,12.) Uncertainty due to asymmetric
                          photoneutron emission (9-12%)
           (ERR-S) Statistical uncertainty
COMMENT    Polarized LCS photons used
           EN: Peak energy of spectrum
REL-REF    (N,K2004001,K.Sumiyoshi+,J,NP/A,709,467,2002)
           Complemental data points by authors' later measurement
           (A,M0438002,M.Fujishiro+,J,CJP,60,1672,1982)
           Radioactive isotope measurement
           (A,F0343002,M.Fujishiro+,J,CJP,61,1579,1983)
           Radioactive isotope measurement
STATUS     (TABLE) Data (Fig.2, p018801-2 in Phys. Rev. C
                   63(2001)018801) received by e-mail from
                   A.Makinaga (2007.01.09)
           (SPSDD,K2004003) Same experimental data with flux
                            correction
HISTORY    (20190114A) Tada. SF3-SF4: N)4-BE-8 -> X)0-NN-1
           (20231109A) MA: Heading: +/-EN-RSL-HW -> +/-EN-RSL
ENDBIB              19
NOCOMMON             0          0
DATA                 5          8
EN         +EN-RSL    -EN-RSL    DATA       ERR-S
MEV        MEV        MEV        MB         MB
       1.79 0.01       0.05             0.67       0.03
       1.81 0.01       0.04             0.62       0.02
       1.84 0.01       0.07             0.48       0.02
       1.89 0.01       0.06             0.48       0.03
       1.90 0.01       0.08             0.50       0.02
       1.95 0.01       0.06             0.40       0.02
       1.99 0.02       0.11             0.36       0.02
       2.19 0.01       0.08             0.20       0.02
ENDDATA             10
ENDSUBENT           34
SUBENT        K2003003   20231113   20240306   20240306       K022
BIB                  7         18
REACTION   (4-BE-9(G,X)0-NN-1,,SIG)
ERR-ANALYS (ERR-1,9.,12.) Uncertainty due to asymmetric
                          photoneutron emission (9-12%)
           (ERR-S) Statistical uncertainty
COMMENT    EN: Peak energy of spectrum
FLAG       (1.) Polarized LCS photons used
           (2.) Unpolarized LCS photons used
REL-REF    (N,K2004001,K.Sumiyoshi+,J,NP/A,709,467,2002)
           Complemental data points by authors' later measurement
           (A,M0438002,M.Fujishiro+,J,CJP,60,1672,1982)
           Radioactive isotope measurement
           (A,F0343002,M.Fujishiro+,J,CJP,61,1579,1983)
           Radioactive isotope measurement
STATUS     (TABLE) Data (Fig.2, p018801-2 in Phys. Rev. C
                   63(2001)018801) received by e-mail from
                   A.Makinaga (2007.01.09)
HISTORY    (20190114A) Tada. SF3-SF4: N)4-BE-8 -> X)0-NN-1
           (20231109A) MA: Heading: +/-EN-RSL-HW -> +/-EN-RSL
ENDBIB              18
NOCOMMON             0          0
DATA                 6         59
EN         +EN-RSL    -EN-RSL    DATA       ERR-S      FLAG
MEV        MEV        MEV        MB         MB         NO-DIM
       2.11 0.01       0.07             0.20       0.02         1.
       2.20 0.01       0.07             0.20       0.01         1.
       2.25 0.01       0.09             0.23       0.02         1.
       2.28 0.02       0.08             0.19       0.01         1.
       2.30 0.01       0.07             0.17       0.02         1.
       2.33 0.01       0.08             0.15       0.01         1.
       2.38 0.02       0.08             0.16       0.01         1.
       2.39 0.01       0.09             0.19       0.02         1.
       2.42 0.02       0.07             0.66       0.04         1.
       2.43 0.01       0.05             0.92       0.06         1.
       2.44 0.02       0.10             0.42       0.04         1.
       2.46 0.01       0.08             0.48       0.03         1.
       2.48 0.01       0.11             0.44       0.03         1.
       2.48 0.01       0.07             0.52       0.05         1.
       2.51 0.02       0.08             0.43       0.05         1.
       2.51 0.02       0.12             0.37       0.03         1.
       2.55 0.01       0.09             0.37       0.03         1.
       2.59 0.01       0.11             0.35       0.03         1.
       2.59 0.01       0.08             0.37       0.04         1.
       2.64 0.02       0.06             0.33       0.04         1.
       2.69 0.02       0.07             0.39       0.04         1.
       2.73 0.02       0.08             0.38       0.03         2.
       2.74 0.02       0.08             0.40       0.04         1.
       2.79 0.01       0.08             0.44       0.06         1.
       2.84 0.03       0.09             0.52       0.06         1.
       2.88 0.02       0.07             0.61       0.06         1.
       2.94 0.02       0.09             0.78       0.08         1.
       2.98 0.02       0.07             0.83       0.08         1.
       3.05 0.01       0.09             0.82       0.07         1.
       3.08 0.02       0.09             0.91       0.11         1.
       3.14 0.03       0.08             0.92       0.09         1.
       3.19 0.02       0.14             0.76       0.09         1.
       3.28 0.02       0.12             0.67       0.02         2.
       3.30 0.01       0.12             0.65       0.09         1.
       3.39 0.02       0.11             0.64       0.09         1.
       3.48 0.02       0.10             0.46       0.07         1.
       3.58 0.03       0.07             0.43       0.07         1.
       3.58 0.02       0.07             0.44       0.12         1.
       3.75 0.04       0.09             0.41       0.06         1.
       3.87 0.02       0.10             0.40       0.02         2.
       4.01 0.02       0.14             0.43       0.02         2.
       4.07 0.02       0.14             0.46       0.02         2.
       4.19 0.02       0.11             0.49       0.03         2.
       4.33 0.02       0.14             0.54       0.02         2.
       4.37 0.02       0.13             0.52       0.03         2.
       4.49 0.02       0.14             0.59       0.03         2.
       4.56 0.02       0.15             0.60       0.03         2.
       4.56 0.02       0.13             0.64       0.03         2.
       4.70 0.02       0.13             0.66       0.03         2.
       4.91 0.02       0.15             0.77       0.01         2.
       5.09 0.03       0.15             0.89       0.03         2.
       5.20 0.03       0.20             0.78       0.03         2.
       5.29 0.02       0.19             0.77       0.04         2.
       5.42 0.02       0.17             0.85       0.04         2.
       5.57 0.02       0.13             0.98       0.04         2.
       5.71 0.02       0.15             1.02       0.05         2.
       5.83 0.04       0.14             0.97       0.05         2.
       5.95 0.02       0.13             1.04       0.05         2.
       6.11 0.02       0.15             1.03       0.04         2.
ENDDATA             61
ENDSUBENT           84
SUBENT        K2003004   20190114   20190222   20190222       K018
BIB                  6         16
REACTION  1(4-BE-9(G,0),,EN)
          2(4-BE-9(G,EL),,WID)
          3(4-BE-9(G,N),,WID)
ANALYSIS   Er and Gamma(n) were deduced from least squares fit,
           while Gamma(gamma) was deduced from energy-integrated
           cross section.
ERR-ANALYS (DATA-ERR) Uncertainty based on error matrix in least
                      squares fit
ADD-RES    B(E1) = 0.107+-0.007 (e**2 fm**2) and 0.039+-0.002
            (e**2 fm**2) for 1/2+ and 5/2+ states.
REL-REF    (N,,H.-G.Clerc+,J,NP/A,120,441,1968)
           Compared with the present result
           (N,,G.Kuechler+,J,ZP/A,326,447,1987)
           Compared with the present result
STATUS     (TABLE) Taken from Table I, p018801-3 in Phys. Rev. C
                   63(2001)018801
ENDBIB              16
NOCOMMON             0          0
DATA                 8          3
SPIN J     PARITY     DATA      1DATA-ERR  1DATA      2DATA-ERR  2
DATA      3DATA-ERR  3
NO-DIM     NO-DIM     MEV        MEV        MEV        MEV
MEV        MEV
        0.5        +1.      1.748       0.01
       283.        42.
        2.5        -1.       2.43                 0.049      0.012

        2.5        +1.      3.082      0.012
       533.        19.
ENDDATA             10
ENDSUBENT           31
ENDENTRY             4
