ENTRY            14791   20220819   20230600   20230528       1504
SUBENT        14791001   20220819   20230600   20230528       1504
BIB                 11         34
TITLE      Measurement of neutron-capture cross sections of 70,
           72Ge using the DANCE facility
AUTHOR     (A.Laminack,J.C.Blackmon,A.Couture,J.P.Greene,
           M.Krticka,K.T.Macon,S.Mosby,C.Prokop,J.L.Ullmann,
           S.Valenta)
INSTITUTE  (1USALSU,1USAORL,1USALAS,1USAANL,3CZRCHU,1USANOT)
REFERENCE  (J,PR/C,106,025802,2022)
FACILITY   (LINAC,1USALAS) Measurements were conducted using 800
           MeV proton beam at the Los Alamos Neutron Science
           Center at Los Alamos National Laboratory.
DETECTOR   (BAF2) Sample surrounded the array DANCE, consisting
           of 160 BaF2 detectors covering almost 4Pi solid
           angle. All detectors, firing within the 10-ns
           coincidence window were considered to have detected
           gamma rays from a single neutron capture event.
METHOD     (TOF) Time of flight was used for determination of
           neutron energy. Proton beam was bunched into pulses
           using a proton storage ring before being delivered to
           a tungsten target where neutrons were produced by
           high-energy spallation reactions. The neutrons were
           moderated by a water moderator before impinging on a
           sample located at a flight path length of 20.3 m
MONITOR    (3-LI-6(N,T)2-HE-4,,SIG)  for En <= 5 keV
           (92-U-235(N,F),,SIG)      for En => 5 keV
           (79-AU-179(N,2N)79-AU-178,,SIG)
            for general flux normalization
INC-SOURCE (SPALL) Neutrons were produced by spallation of high
           energy protons on tungsten target.
ERR-ANALYS (ERR-1) Systematic uncertainty in number of 197Au atoms
           (ERR-2) Systematic uncertainty from fitting procedure
           (ERR-3) Syst. uncertainty in 197Au cross section
           (ERR-4) Syst. uncertainty in neutron fluence
           (ERR-5) Syst. uncertainty in number of Ge atoms
HISTORY    (20220819C) Comppiled by S.H.
ENDBIB              34
COMMON               5          3
ERR-1      ERR-2      ERR-3      ERR-4      ERR-5
PER-CENT   PER-CENT   PER-CENT   PER-CENT   PER-CENT
  4.0        4.4        2.7        5.9        0.2
ENDCOMMON            3
ENDSUBENT           41
SUBENT        14791002   20220819   20230600   20230528       1504
BIB                  4         14
REACTION   (32-GE-70(N,G)32-GE-71,,SIG)
SAMPLE     Mass of the sample was 97.6 mg in form of metallic
           powder, pressed into cylinder with a diameter of
           approximately 5 mm
           (32-GE-70,ENR=0.9585)
           (32-GE-72,ENR=0.0409)
           (32-GE-73,ENR=0.0004)
           (32-GE-74,ENR=0.0002)
ERR-ANALYS (ERR-S) Statistical uncertainty
           (ERR-SYS) Systematic uncertainty
           (ERR-6) Syst. uncertainty in 70Ge efficiency
           (ERR-7) Total syst. uncertainty in 70Ge measurement
STATUS     (TABLE) Data shown in fig 5a of the reference
                   sent by author A.L.
ENDBIB              14
COMMON               2          3
ERR-6      ERR-7
PER-CENT   PER-CENT
  7.9        9.9
ENDCOMMON            3
DATA                 4        597
EN         DATA       ERR-S      ERR-SYS
EV         B          B          B
    10.0009   0.180175 0.00959853  0.0178373
    10.1401   0.188296 0.00990419  0.0186413
    10.2811    0.16575 0.00928337  0.0164092
    10.4241   0.168155 0.00895642  0.0166474
    10.5692   0.168235 0.00915768  0.0166552
    10.7162   0.173781 0.00931804  0.0172043
    10.8653   0.168949 0.00943738  0.0167259
    11.0164   0.183443 0.00967429  0.0181608
    11.1697   0.173076 0.00984208  0.0171345
    11.3251   0.174207 0.00935212  0.0172465
    11.4826   0.167113 0.00918362  0.0165442
    11.6423   0.161919 0.00906796    0.01603
    11.8043   0.167007 0.00936041  0.0165337
    11.9685   0.158279  0.0092729  0.0156696
     12.135   0.168458 0.00952451  0.0166773
    12.3038   0.152762 0.00898063  0.0151235
     12.475   0.151228 0.00900636  0.0149716
    12.6485   0.159086 0.00890254  0.0157495
    12.8245   0.157761 0.00915856  0.0156183
    13.0029   0.152182 0.00929855   0.015066
    13.1838   0.155675 0.00916177  0.0154119
    13.3672    0.13945 0.00904396  0.0138055
    13.5532   0.146411 0.00907763  0.0144947
    13.7417   0.152762 0.00918737  0.0151234
    13.9329   0.154335 0.00915601  0.0152792
    14.1267   0.140543 0.00856491  0.0139137
    14.3232    0.14456 0.00922041  0.0143114
    14.5225   0.127073 0.00879676  0.0125802
    14.7245   0.149441 0.00908019  0.0147947
    14.9293    0.14568 0.00936129  0.0144223
     15.137   0.131407 0.00910817  0.0130093
    15.3476   0.130962 0.00826098  0.0129653
    15.5611   0.138374 0.00886743   0.013699
    15.7776   0.126052 0.00865707  0.0124791
    15.9971   0.125436 0.00873943  0.0124182
    16.2196   0.125124 0.00877122  0.0123873
    16.4452   0.129717 0.00835896   0.012842
     16.674   0.137652  0.0090817  0.0136276
     16.906   0.127874 0.00912969  0.0126596
    17.1412   0.125339 0.00829422  0.0124086
    17.3796   0.109946 0.00843036  0.0108846
    17.6214   0.124395 0.00847858  0.0123151
    17.8665   0.108252 0.00831156   0.010717
    18.1151   0.118313 0.00863421  0.0117129
    18.3671   0.121408 0.00872517  0.0120194
    18.6226    0.12751 0.00876778  0.0126235
    18.8817   0.108628 0.00805661  0.0107541
    19.1443   0.106064 0.00817198  0.0105003
    19.4107   0.106418 0.00830166  0.0105354
    19.6807   0.117029 0.00859746  0.0115859
    19.9545   0.119042 0.00877552  0.0117852
    20.2321    0.11234 0.00857207  0.0111216
    20.5135   0.121339 0.00859803  0.0120125
    20.7989   0.107532 0.00835181  0.0106457
    21.0882  0.0973996 0.00802342 0.00964256
    21.3816   0.108023 0.00826543  0.0106943
    21.6791   0.107736 0.00868427  0.0106659
    21.9806   0.109865 0.00821273  0.0108766
    22.2864   0.110711 0.00867481  0.0109604
    22.5965  0.0975292 0.00809437 0.00965539
    22.9108    0.10463 0.00828823  0.0103584
    23.2295   0.084981 0.00787511 0.00841312
    23.5527   0.099728 0.00827005 0.00987307
    23.8803   0.101426  0.0088905  0.0100412
    24.2125  0.0865472 0.00893433 0.00856817
    24.5494  0.0928234 0.00929057 0.00918952
    24.8909  0.0816614 0.00838534 0.00808448
    25.2372  0.0770616 0.00852032  0.0076291
    25.5882  0.0877967  0.0085525 0.00869187
    25.9442  0.0897229 0.00882096 0.00888257
    26.3051  0.0846212 0.00861763 0.00837749
    26.6711  0.0859401 0.00870248 0.00850807
    27.0421  0.0812191 0.00822993  0.0080407
    27.4183  0.0725402 0.00848291 0.00718148
    27.7997    0.07893 0.00814214 0.00781407
    28.1864  0.0750664 0.00854279 0.00743157
    28.5786  0.0636808 0.00828427  0.0063044
    28.9761  0.0892992 0.00857932 0.00884062
    29.3792  0.0689314 0.00849995 0.00682421
    29.7879  0.0674489 0.00827274 0.00667744
    30.2023  0.0748375 0.00827176 0.00740891
    30.6225  0.0666192 0.00806458  0.0065953
    31.0485  0.0628119 0.00807102 0.00621838
    31.4804  0.0749908 0.00839241 0.00742409
    31.9183  0.0671034 0.00840206 0.00664323
    32.3624  0.0615734 0.00805728 0.00609576
    32.8126  0.0590571 0.00758546 0.00584665
     33.269  0.0695429 0.00827847 0.00688475
    33.7319  0.0674964 0.00813013 0.00668214
    34.2011  0.0683306 0.00781548 0.00676473
    34.6769  0.0760032 0.00838754 0.00752432
    35.1593  0.0727763 0.00792045 0.00720485
    35.6484   0.061511 0.00778192 0.00608959
    36.1443   0.070036     0.0079 0.00693356
    36.6472  0.0607587 0.00802088 0.00601511
     37.157  0.0679727 0.00793919  0.0067293
    37.6739  0.0608529 0.00783663 0.00602444
     38.198  0.0724754 0.00762874 0.00717507
    38.7294  0.0525227 0.00758133 0.00519974
    39.2681  0.0600097 0.00801011 0.00594096
    39.8144  0.0583333  0.0077224   0.005775
    40.3683  0.0502813 0.00755103 0.00497785
    40.9299  0.0520465 0.00751892 0.00515261
    41.4993  0.0491192 0.00725284  0.0048628
    42.0766  0.0560451 0.00758955 0.00554847
    42.6619  0.0632961 0.00782019 0.00626632
    43.2554  0.0498064 0.00757431 0.00493083
    43.8571  0.0423953 0.00732095 0.00419713
    44.4673  0.0579753 0.00796729 0.00573955
    45.0859  0.0548337 0.00777526 0.00542854
    45.7131  0.0346119 0.00732256 0.00342658
     46.349   0.052863 0.00744578 0.00523344
    46.9938  0.0448193 0.00778258 0.00443711
    47.6475  0.0362893 0.00746308 0.00359264
    48.3104  0.0464715 0.00804981 0.00460068
    48.9824  0.0382331 0.00807326 0.00378508
    49.6638  0.0472609 0.00730953 0.00467883
    50.3547  0.0488473  0.0073279 0.00483588
    51.0552  0.0443616 0.00803516  0.0043918
    51.7655  0.0443616 0.00730303  0.0043918
    52.4856  0.0487276 0.00761389 0.00482403
    53.2158  0.0382773 0.00752869 0.00378945
    53.9561  0.0582663 0.00768485 0.00576836
    54.7067  0.0541125 0.00728313 0.00535713
    55.4677  0.0454359 0.00715632 0.00449816
    56.2394   0.037404 0.00743253 0.00370299
    57.0217  0.0372062 0.00779682 0.00368341
     57.815  0.0415293 0.00722552  0.0041114
    58.6193  0.0486032 0.00750123 0.00481171
    59.4347  0.0430699 0.00793866 0.00426392
    60.2616  0.0387914 0.00723822 0.00384035
    61.0999  0.0416545 0.00791812  0.0041238
    61.9499  0.0477299 0.00771213 0.00472526
    62.8117  0.0458591 0.00769344 0.00454005
    63.6855  0.0327674 0.00702569 0.00324397
    64.5714  0.0374716 0.00700692 0.00370969
    65.4697  0.0333673 0.00716864 0.00330337
    66.3805  0.0306813 0.00712885 0.00303744
    67.3039   0.033474 0.00740411 0.00331392
    68.2402  0.0334599 0.00716889 0.00331253
    69.1895  0.0412523  0.0071531 0.00408398
     70.152  0.0354546 0.00700614    0.00351
     71.128   0.020513 0.00692129 0.00203078
    72.1174  0.0319913 0.00743479 0.00316714
    73.1207  0.0352846 0.00697936 0.00349318
    74.1379  0.0355446 0.00733546 0.00351892
    75.1693  0.0319291   0.007531 0.00316098
     76.215  0.0404772 0.00713579 0.00400724
    77.2752  0.0286538 0.00729319 0.00283673
    78.3502  0.0355738 0.00753491 0.00352181
    79.4402  0.0312481 0.00784127 0.00309357
    80.5453  0.0263691 0.00750662 0.00261054
    81.6658  0.0314502 0.00810521 0.00311357
    82.8019  0.0257022 0.00809983 0.00254452
    83.9538   0.026608 0.00798254 0.00263419
    85.1217   0.020086 0.00794017 0.00198851
    86.3059  0.0334419 0.00778876 0.00331075
    87.5065  0.0224915 0.00827918 0.00222666
    88.7238  0.0231592 0.00788403 0.00229276
    89.9581  0.0187936 0.00753238 0.00186056
    91.2096  0.0151253 0.00792467 0.00149741
    92.4784  0.0115687 0.00766208  0.0011453
    93.7649    0.01318  0.0081113 0.00130482
    95.0693  0.0120243 0.00797957 0.00119041
    96.3919 0.00484118  0.00792520.000479277
    97.7328  0.0182442 0.00880428 0.00180618
    99.0924  0.0167647 0.00926513  0.0016597
    100.471 0.00852951  0.01064080.000844422
    101.869  0.0166965  0.0151855 0.00165296
    103.286  0.0257045  0.0204106 0.00254475
    104.723  0.0372965  0.0129294 0.00369235
    106.179  0.0228573  0.0103383 0.00226287
    107.657  0.0193095 0.00875377 0.00191164
    109.154  0.0169139 0.00929963 0.00167448
    110.673  0.0200901 0.00865876 0.00198892
    112.212  0.0268633 0.00849866 0.00265947
    113.773  0.0117575  0.0085681 0.00116399
    115.356  0.0171614 0.00889909 0.00169897
    116.961  0.0267176 0.00803904 0.00264504
    118.588  0.0155612  0.0082051 0.00154056
    120.238  0.0168746  0.0075923 0.00167059
     121.91  0.0215084 0.00841154 0.00212933
    123.606  0.0321681 0.00884982 0.00318464
    125.326  0.0330165 0.00896091 0.00326863
    127.069  0.0197666 0.00804718 0.00195689
    128.837  0.0145081  0.0078669  0.0014363
    130.629   0.016394 0.00800597 0.00162301
    132.446  0.0102758 0.00829214 0.00101731
    134.289 0.00979652 0.008221210.000969856
    136.157  0.0499285  0.0100221 0.00494292
    138.051  0.0297881 0.00845616 0.00294902
    139.972  0.0146282 0.00822177 0.00144819
    141.919  0.0204992  0.0078887 0.00202942
    143.893   0.019754 0.00747514 0.00195565
    145.895  0.0197729 0.00781084 0.00195752
    147.925  0.0421315  0.0101011 0.00417102
    149.982  0.0950473  0.0115292 0.00940968
    152.069   0.668573  0.0414611  0.0661888
    154.184   0.295934  0.0225814  0.0292974
    156.329  0.0202093  0.0079437 0.00200072
    158.504  0.0137759 0.00724986 0.00136381
    160.709 0.00785069 0.007729650.000777218
    162.945  0.0110133  0.0073661 0.00109032
    165.212  0.0125398 0.00729225 0.00124144
     167.51  0.0146936 0.00737333 0.00145467
     169.84  0.0129164 0.00781917 0.00127872
    172.203  0.0106944 0.00729711 0.00105875
    174.598  0.0168289 0.00683736 0.00166606
    177.027   0.013357 0.00818509 0.00132234
     179.49  0.0183436  0.0073947 0.00181601
    181.987  0.0173806  0.0074016 0.00172068
    184.519  0.0107221  0.0074315 0.00106149
    187.086  0.0112763 0.00771028 0.00111635
    189.688  0.0064555 0.007484360.000639094
    192.327  0.0100423 0.007319840.000994192
    195.003 0.00263392 0.007793150.000260758
    197.715  0.0139196 0.00696526 0.00137804
    200.466 0.00845419 0.007699010.000836965
    203.255  0.0110445 0.00993582  0.0010934
    206.082 0.00792357  0.01005260.000784434
    208.949  0.0123249 0.00733065 0.00122017
    211.856  0.0123186 0.00778907 0.00121954
    214.803 0.00710567  0.00696710.000703462
    217.791 0.00794581 0.007380790.000786635
    220.821  0.0177528 0.00861099 0.00175753
    223.893  0.0124063  0.0106868 0.00122822
    227.008 0.00620645  0.01007070.000614439
    230.166 0.00313095 0.007910940.000309964
    233.367 0.00582576 0.00774416 0.00057675
    236.614 0.00677313  0.0075921 0.00067054
    239.906 0.00719895 0.007234180.000712696
    243.243 0.00604734 0.007590740.000598687
    246.627 0.00563603 0.008187510.000557967
    250.058 0.00238971  0.01008510.000236582
    253.536 0.00346488 0.007944910.000343023
    257.063 0.00333599  0.00710380.000330263
     260.64 0.00943572 0.007737020.000934136
    264.265 0.00515195 0.007744250.000510043
    267.942  0.0104793 0.00760634 0.00103746
    271.669 0.00486384 0.00748943 0.00048152
    275.448 0.00707384 0.00787395 0.00070031
     279.28  0.0155947 0.00925682 0.00154387
    283.166 0.00562044 0.007049480.000556424
    287.105 0.00306639 0.007925730.000303573
    291.099 0.00248694 0.007586960.000246207
    295.148 0.00786285 0.007575790.000778422
    299.254 0.00597497 0.007398010.000591522
    303.417 0.00432272 0.00675216 0.00042795
    307.638 0.00748111 0.00761716 0.00074063
    311.918 0.00545842 0.007194220.000540384
    316.257  0.0059645  0.00787860.000590485
    320.657 0.00342759 0.009910820.000339332
    325.118 0.00508454  0.01044620.000503369
     329.64 0.00680303  0.0122311  0.0006735
    334.226 0.00935032  0.01600340.000925682
    338.876 0.00460231  0.01494440.000455628
     343.59 0.00543157  0.01293130.000537726
     348.37 0.00317382  0.01134750.000314208
    353.216 0.00109486  0.01102490.000108391
     358.13 0.00447139 0.009223960.000442668
    363.112 0.00353723  0.00862390.000350186
    368.163 0.00335465 0.009818070.000332111
    373.285  0.0020097 0.008067690.000198961
    378.4780.000894591 0.008280878.85645e-05
    383.7430.000989503 0.007810899.79608e-05
    389.081 0.00289804 0.007651370.000286906
    394.494 0.00372078 0.007062780.000368357
    399.982  0.0049628 0.007580540.000491318
    405.546 0.00405597 0.008455720.000401541
    411.188  0.0090786 0.009231920.000898782
    416.908 0.00674351 0.008067090.000667607
    422.708 0.00407054 0.007768030.000402983
    428.588 0.00357572 0.007416910.000353997
    434.551 0.00568724 0.007829810.000563037
    440.596 0.00512832  0.00855010.000507703
    446.725 0.00679544 0.007896130.000672749
     452.94 0.00603575 0.00720312 0.00059754
    459.241 0.00539096 0.007498940.000533705
    465.6290.000732831 0.007146467.25502e-05
    472.107 0.00101842 0.007260140.000100823
    478.675 0.00233783 0.007239450.000231445
    485.334 0.00528302  0.00775840.000523019
    492.085 0.00464929 0.00983136 0.00046028
    498.931 0.00700153 0.007912080.000693151
    505.872 0.00209937 0.007585350.000207838
    512.909 0.00307193 0.009032820.000304121
    520.044 0.00893667  0.0080496 0.00088473
    527.279 0.00254827 0.007960810.000252278
    534.614 0.00565454 0.007921710.000559799
    542.051 0.00640134 0.007612090.000633733
    549.592 0.00526109 0.007811170.000520848
    557.238 0.00349107  0.00812740.000345616
    564.989 0.00384218 0.007539260.000380376
    572.849 0.00278987 0.008701030.000276197
    580.8180.000722015 0.008181217.14795e-05
    588.898 0.00426176 0.008029590.000421915
    597.091 0.00470204 0.008446770.000465502
    605.397 0.00383941  0.00836190.000380102
    613.819 0.00531325 0.007818120.000526012
    622.358 0.00444175  0.00795180.000439734
    631.016 0.00380549 0.007540660.000376743
    639.794 0.00489259 0.008069270.000484366
    648.695 0.00385355  0.00858150.000381502
    657.719 0.00363818 0.00766998 0.00036018
    666.869 0.00473369 0.007727560.000468635
    676.146 0.00466267 0.007911460.000461604
    685.552 0.00382987  0.00778530.000379157
    695.089 0.00290021 0.007445250.000287121
    704.759 0.00643352 0.007999160.000636919
    714.563 0.00652224 0.008491760.000645702
    724.503 0.00573153 0.008323370.000567421
    734.582 0.00323706  0.01250820.000320469
    744.801         0.  0.0102406         0.
    755.162 0.00322787 0.008292480.000319559
    765.668 0.00976529   0.0079130.000966764
    776.319 0.00422211 0.009133980.000417989
    787.119 0.00422142 0.007360620.000417921
    798.069  0.0067149 0.008042570.000664775
    809.171  0.0126331 0.00941577 0.00125067
    820.428 0.00906653 0.009975190.000897586
    831.841  0.0255741  0.0106239 0.00253184
    843.413   0.139493  0.0207612  0.0138098
    855.146   0.350421  0.0357661  0.0346917
    867.042 0.00895577 0.009129290.000886622
    879.104  0.0121351  0.0093098 0.00120138
    891.334 0.00799943 0.009051060.000791944
    903.733 0.00497407  0.01024360.000492433
    916.306  0.0100679 0.008742270.000996726
    929.053  0.0156952 0.00978405 0.00155382
    941.977  0.0126386  0.0107616 0.00125122
    955.081  0.0179389  0.0115423 0.00177595
    968.368  0.0250835  0.0111617 0.00248327
    981.839  0.0332487  0.0129077 0.00329162
    995.498  0.0277723  0.0126615 0.00274946
    1009.35  0.0429228  0.0132357 0.00424935
    1023.39  0.0509445  0.0127247 0.00504351
    1037.62   0.081166  0.0175913 0.00803543
    1052.06     0.1646  0.0254622  0.0162954
     1066.7   0.358659  0.0440667  0.0355072
    1081.53   0.851204  0.0844388  0.0842692
    1096.58    2.39679    0.23275   0.237283
    1111.84    10.4439   0.990888    1.03395
     1127.3    9.67887   0.914087   0.958209
    1142.98    1.53425   0.153735   0.151891
    1158.89   0.534493  0.0576296  0.0529148
    1175.01   0.321966   0.037806  0.0318746
    1191.35   0.154219   0.022151  0.0152677
    1207.93  0.0841922  0.0149655 0.00833503
    1224.73  0.0455426  0.0123305 0.00450872
    1241.77   0.031375  0.0106979 0.00310612
    1259.04  0.0207295  0.0129997 0.00205222
    1276.56  0.0300658  0.0101095 0.00297651
    1294.32   0.029237  0.0109346 0.00289446
    1312.32   0.024008  0.0106248 0.00237679
    1330.58  0.0183897  0.0103433 0.00182058
    1349.09  0.0172266  0.0115011 0.00170543
    1367.86  0.0260796  0.0101503 0.00258188
    1386.88  0.0695008   0.016243 0.00688058
    1406.18   0.167073  0.0248777  0.0165402
    1425.74   0.507144  0.0558746  0.0502073
    1445.57    1.35993   0.134203   0.134633
    1465.68    6.84391   0.638838   0.677547
    1486.07    7.25564   0.674665   0.718309
    1506.75    2.11665   0.199045   0.209548
    1527.71    1.25775   0.119446   0.124517
    1548.96   0.081354  0.0163467 0.00805404
    1570.51  0.0366766  0.0123443 0.00363098
    1592.36  0.0227551   0.011488 0.00225275
    1614.51  0.0220942  0.0132567 0.00218733
    1636.97  0.0189935  0.0108502 0.00188035
    1659.74   0.015633  0.0112265 0.00154766
    1682.83  0.0106626  0.0105227  0.0010556
    1706.24  0.0214762  0.0103908 0.00212614
    1729.98  0.0149297  0.0119864 0.00147804
    1754.04  0.0129814  0.0112379 0.00128516
    1778.44  0.0178455  0.0106552 0.00176671
    1803.19  0.0123315  0.0101073 0.00122082
    1828.27  0.0112367  0.0106475 0.00111244
     1853.7   0.028273  0.0115458 0.00279903
    1879.49  0.0752647  0.0178694 0.00745121
    1905.64     0.1864  0.0274105  0.0184536
    1932.15    0.79905  0.0910903   0.079106
    1959.03    2.10639   0.217208   0.208533
    1986.28  0.0605429  0.0167669 0.00599375
    2013.91  0.0106615 0.00810138 0.00105549
    2041.93 0.00461784  0.00780630.000457166
    2070.33 0.00586441 0.008549890.000580577
    2099.13 0.00355167 0.008291920.000351615
    2128.34 0.00125252 0.007679610.000123999
    2157.94 0.00469011  0.0094848 0.00046432
    2187.960.000885135  0.01789198.76283e-05
     2218.4 0.00175967  0.01031320.000174207
    2249.26 0.00686742 0.008462430.000679874
    2280.55  0.0116569 0.00967893 0.00115403
    2312.28  0.0339978  0.0127093 0.00336578
    2344.45   0.210261  0.0335006  0.0208159
    2377.06   0.164443  0.0298997  0.0162799
    2410.13 0.00472984  0.01085250.000468254
    2443.66 0.00631832 0.009767760.000625514
    2477.65 0.00627664 0.008020260.000621387
    2512.12 0.00616341  0.01193750.000610178
    2547.07 0.00702701  0.01128230.000695674
     2582.5   0.030621  0.0145829 0.00303148
    2618.43   0.124647  0.0358118    0.01234
    2654.85   0.277586  0.0431481  0.0274811
    2691.78  0.0293416  0.0146166 0.00290482
    2729.23  0.0129099  0.0214988 0.00127808
     2767.2 0.00917352  0.03199570.000908178
    2805.69 0.00234086  0.01054160.000231746
    2844.73 0.00275692 0.008910610.000272935
     2884.3 0.00355305 0.009813540.000351752
    2924.42 0.00512722  0.01045940.000507595
    2965.11 0.00554072  0.01030690.000548531
    3006.36  0.0107275  0.0109025 0.00106203
    3048.18  0.0308081  0.0140882    0.00305
    3090.58   0.094165  0.0211257 0.00932234
    3133.58   0.347631  0.0525271  0.0344154
    3177.17   0.865918   0.112799  0.0857258
    3221.37   0.533608  0.0682897  0.0528272
    3266.18  0.0909652  0.0226785 0.00900555
    3311.62 0.00353357  0.01131290.000349824
    3357.69 0.00507733  0.01043710.000502656
     3404.4 0.00711798  0.0140125 0.00070468
    3451.76 0.00547363  0.01156580.000541889
    3499.78 0.00238083  0.01035420.000235702
    3548.46 0.00719092  0.01221750.000711901
    3597.83 0.00826061  0.0147033  0.0008178
    3647.88 0.00855584  0.02125990.000847028
    3698.63  0.0109981  0.0154751 0.00108882
    3750.08  0.0217268   0.014286 0.00215095
    3802.25   0.122877  0.0319896  0.0121648
    3855.14   0.213833  0.0381257  0.0211695
    3908.77  0.0187087  0.0185648 0.00185217
    3963.15 0.00732894  0.01517440.000725565
    4018.28 0.00572185  0.01133930.000566463
    4074.18  0.0126727  0.0115888  0.0012546
    4130.86  0.0318691  0.0150963 0.00315504
    4188.32   0.116482  0.0269115  0.0115317
    4246.59   0.412197  0.0579263  0.0408075
    4305.67   0.692515    0.08784   0.068559
    4365.56   0.973407    0.13735  0.0963673
     4426.3   0.756514   0.109867  0.0748948
    4487.87   0.040119  0.0202695 0.00397178
     4550.3  0.0286829  0.0180951  0.0028396
     4613.6  0.0104777  0.0174573 0.00103729
    4677.79  0.0073139  0.01546070.000724076
    4742.86 0.00738213   0.0136350.000730831
    4808.84 0.00567366  0.01701630.000561693
    4875.74 0.00925859  0.0165889  0.0009166
    4943.57  0.0224466  0.0174129 0.00222221
    5012.34  0.0161113 0.00793649 0.00159502
    5082.07  0.0177725 0.00887082 0.00175947
    5152.77  0.0293049 0.00893334 0.00290119
    5224.45  0.0197065 0.00963451 0.00195095
    5297.13  0.0315561   0.010424 0.00312406
    5370.82  0.0989264  0.0147245 0.00979371
    5445.53   0.270944   0.024962  0.0268235
    5521.29   0.716213  0.0504838  0.0709051
     5598.1    1.22814  0.0913102   0.121586
    5675.97   0.371415  0.0365552  0.0367701
    5754.93   0.065079    0.01427 0.00644282
    5834.99  0.0131253  0.0179103 0.00129941
    5916.17   0.045841  0.0247626 0.00453826
    5998.47   0.215388  0.0234673  0.0213234
    6081.92   0.124443  0.0188958  0.0123198
    6166.52  0.0113382  0.0128967 0.00112248
    6252.31 0.00649472  0.01090860.000642977
    6339.29  0.0109572 0.00949023 0.00108476
    6427.47  0.0320476  0.0108208 0.00317271
    6516.89   0.105292  0.0171823  0.0104239
    6607.55   0.171988  0.0204881  0.0170268
    6699.47   0.356503  0.0319554  0.0352938
    6792.67   0.692889  0.0550966  0.0685961
    6887.16   0.156149  0.0171538  0.0154588
    6982.97  0.0291094 0.00938922 0.00288183
    7080.12  0.0780267  0.0141472 0.00772464
    7178.61   0.268506  0.0255088  0.0265821
    7278.47   0.325813  0.0298609  0.0322555
    7379.73  0.0814894  0.0141238 0.00806745
    7482.39    0.13826  0.0197086  0.0136878
    7586.48   0.297216  0.0364056  0.0294244
    7692.02   0.130635  0.0198254  0.0129329
    7799.03  0.0126319  0.0114936 0.00125056
    7907.52  0.0115704  0.0113229 0.00114547
    8017.53  0.0311466  0.0132084 0.00308352
    8129.06   0.141547   0.022205  0.0140132
    8242.15    0.35087  0.0385794  0.0347361
    8356.81   0.193137  0.0252959  0.0191206
    8473.06   0.108827  0.0188459  0.0107738
    8590.93     0.3097  0.0311504  0.0306603
    8710.45   0.443569  0.0401747  0.0439134
    8831.62   0.114374  0.0200113  0.0113231
    8954.48   0.017614  0.0134984 0.00174379
    9079.05  0.0294106  0.0137996 0.00291165
    9205.35  0.0965956  0.0168497 0.00956297
    9333.41   0.249908  0.0272882  0.0247409
    9463.25   0.144422  0.0209937  0.0142978
     9594.9  0.0548855  0.0173176 0.00543366
    9728.38   0.116189  0.0218271  0.0115027
    9863.71   0.290695   0.032427  0.0287788
    10000.9   0.356465  0.0367871    0.03529
    10140.1   0.289973  0.0326046  0.0287073
    10281.1   0.368396  0.0381299  0.0364712
    10424.1   0.551361  0.0543206  0.0545848
    10569.2   0.232627  0.0253497  0.0230301
    10716.2  0.0354193  0.0121067 0.00350651
    10865.3 0.00916066  0.01063950.000906905
    11016.4  0.0038605 0.00935025 0.00038219
    11169.7  0.0124128  0.0113876 0.00122887
    11325.1  0.0259462  0.0127381 0.00256867
    11482.6  0.0711841  0.0162768 0.00704722
    11642.3   0.191133  0.0253742  0.0189222
    11804.3   0.236192  0.0266653   0.023383
    11968.5   0.125752  0.0193264  0.0124494
     12135.   0.136467  0.0219044  0.0135103
    12303.8   0.302942  0.0372777  0.0299912
     12475.   0.215343  0.0274196  0.0213189
    12648.5   0.133779  0.0207664  0.0132441
    12824.5    0.05798  0.0179481 0.00574002
    13002.9   0.108643  0.0179592  0.0107556
    13183.8   0.239063  0.0292048  0.0236672
    13367.2   0.206244  0.0274551  0.0204181
    13553.2   0.106405  0.0172846  0.0105341
    13741.7   0.155589  0.0222891  0.0154033
    13932.9   0.125133  0.0196117  0.0123882
    14126.7  0.0834051  0.0191004  0.0082571
    14323.2  0.0757147  0.0178912 0.00749576
    14522.5   0.065847  0.0159792 0.00651886
    14724.5  0.0824274  0.0147585 0.00816032
    14929.3  0.0489318  0.0153043 0.00484424
     15137.  0.0409128  0.0130431 0.00405037
    15347.6  0.0654069  0.0163511 0.00647528
    15561.1   0.169116   0.023717  0.0167425
    15777.6    0.22868  0.0271972  0.0226393
    15997.1   0.258599  0.0323664  0.0256013
    16219.6   0.228316  0.0273587  0.0226032
    16445.2   0.169083  0.0217021  0.0167392
     16674.   0.168852  0.0235601  0.0167163
     16906.   0.194959  0.0252863  0.0193009
    17141.2   0.158466  0.0229597  0.0156881
    17379.6   0.101968  0.0185136  0.0100948
    17621.4  0.0606255  0.0151192 0.00600193
    17866.5  0.0404545  0.0131675   0.004005
    18115.1   0.040994  0.0127456  0.0040584
    18367.1  0.0951867  0.0185343 0.00942348
    18622.6   0.153253  0.0241345  0.0151721
    18881.7   0.185345  0.0261034  0.0183491
    19144.3   0.209782  0.0272294  0.0207684
    19410.7   0.188354  0.0272509   0.018647
    19680.7   0.168836  0.0247916  0.0167148
    20109.6   0.124016 0.00866893  0.0122776
    21847.6  0.0779461 0.00711895 0.00771666
    23735.7   0.115805 0.00866667  0.0114647
    25787.1  0.0902682 0.00725928 0.00893656
    28015.8    0.10157 0.00722805  0.0100554
    30437.1  0.0797419 0.00491226 0.00789445
    33067.6  0.0795161    0.02266  0.0078721
    35925.5  0.0985694  0.0915413 0.00975837
    39030.4  0.0860109  0.0173477 0.00851508
    42403.6  0.0690012  0.0108186 0.00683112
    46068.4   0.069278 0.00916684 0.00685852
    50049.9  0.0674456 0.00893804 0.00667712
    54375.5  0.0743335 0.00880968 0.00735902
    59074.9  0.0621269 0.00761907 0.00615056
    64180.5  0.0642783 0.00681945 0.00636356
    69727.3  0.0545844 0.00512497 0.00540385
    75753.5  0.0580545  0.0058838  0.0057474
    82300.6  0.0710201  0.0248459 0.00703099
    89413.5  0.0639964  0.0401558 0.00633564
    97141.1  0.0513764  0.0119224 0.00508626
    105537.  0.0497971 0.00742931 0.00492992
    114658.  0.0519832 0.00811233 0.00514634
    124567.  0.0425529 0.00451206 0.00421274
    135333.  0.0583449  0.0094983 0.00577614
    147029.  0.0630527  0.0220445 0.00624222
    159736.  0.0444223  0.0122794 0.00439781
    173541.  0.0452306 0.00702662 0.00447783
    188540.  0.0431569 0.00768717 0.00427253
    204834.  0.0452743  0.0103401 0.00448216
    222537.  0.0426082 0.00659118 0.00421822
    241770.  0.0412715 0.00510452 0.00408588
    262665.  0.0399812 0.00540273 0.00395813
    285366.  0.0392669 0.00583736 0.00388743
    310029.  0.0390822 0.00481149 0.00386914
    336824.  0.0383125 0.00458277 0.00379293
    365934.  0.0400622  0.0060713 0.00396616
    397560.  0.0387827 0.00732744 0.00383949
    431920.  0.0395067 0.00784163 0.00391116
    469249.  0.0423923 0.00647559 0.00419684
    509804.  0.0397935 0.00563093 0.00393955
    553864.  0.0389228 0.00533398 0.00385336
    601732.  0.0356255 0.00482891 0.00352692
    653737.  0.0377983 0.00420272 0.00374204
    710236.   0.037722 0.00424304 0.00373448
    771619.  0.0408853 0.00439304 0.00404764
    838307.  0.0423587 0.00454823 0.00419352
    910758.  0.0383071 0.00460742  0.0037924
ENDDATA            599
ENDSUBENT          622
SUBENT        14791003   20220819   20230600   20230528       1504
BIB                  4         15
REACTION   (32-GE-72(N,G)32-GE-73,,SIG)
SAMPLE     Mass of the sample was 108.4 mg in form of metallic
           powder, pressed into cylinder with a diameter of
           approximately 5 mm
           (32-GE-70,ENR=0.0029)
           (32-GE-72,ENR=0.982)
           (32-GE-73,ENR=0.0029)
           (32-GE-74,ENR=0.0104)
           (32-GE-75,ENR=0.0018)
ERR-ANALYS (ERR-S) Statistical uncertainty
           (ERR-SYS) Systematic uncertainty
           (ERR-8) Syst. uncertainty in 72Ge efficiency
           (ERR-9) Total syst. uncertainty in 72Ge measurement
STATUS     (TABLE) Data shown in fig 5b of the reference
                   sent by author A.L.
ENDBIB              15
COMMON               2          3
ERR-8      ERR-9
PER-CENT   PER-CENT
  6.1        8.5
ENDCOMMON            3
DATA                 4        611
EN         DATA       ERR-S      ERR-SYS
EV         B          B          B
    10.0009  0.0481235 0.00168614  0.0040905
    10.1401  0.0410482  0.0016537  0.0034891
    10.2811  0.0538439 0.00172457 0.00457673
    10.4241  0.0562425 0.00179635 0.00478061
    10.5692  0.0412782 0.00160315 0.00350865
    10.7162  0.0369926 0.00158517 0.00314437
    10.8653  0.0375969 0.00159342 0.00319574
    11.0164  0.0389164 0.00161699 0.00330789
    11.1697  0.0427345 0.00163573 0.00363244
    11.3251  0.0396645 0.00152765 0.00337148
    11.4826  0.0384522 0.00157888 0.00326844
    11.6423   0.040509 0.00161828 0.00344326
    11.8043  0.0352217 0.00155874 0.00299384
    11.9685  0.0391563 0.00161198 0.00332829
     12.135  0.0387671 0.00160817 0.00329521
    12.3038  0.0381166 0.00157162 0.00323991
     12.475  0.0348943 0.00154624 0.00296602
    12.6485   0.032734 0.00154504 0.00278239
    12.8245   0.036387 0.00159702 0.00309289
    13.0029  0.0303013 0.00151088 0.00257561
    13.1838   0.032786 0.00157318 0.00278681
    13.3672  0.0306922 0.00157543 0.00260884
    13.5532  0.0340396 0.00158882 0.00289337
    13.7417    0.03435 0.00149428 0.00291975
    13.9329  0.0376388 0.00155788  0.0031993
    14.1267  0.0355991 0.00156676 0.00302592
    14.3232  0.0338029 0.00156631 0.00287325
    14.5225  0.0314713 0.00161958 0.00267506
    14.7245  0.0321027 0.00161638 0.00272873
    14.9293  0.0305409 0.00160028 0.00259597
     15.137  0.0355841 0.00163394 0.00302465
    15.3476  0.0559651 0.00186732 0.00475704
    15.5611  0.0503229  0.0017873 0.00427745
    15.7776  0.0294381 0.00153795 0.00250224
    15.9971  0.0282126  0.0015387 0.00239807
    16.2196  0.0273251 0.00156426 0.00232263
    16.4452  0.0293135 0.00161841 0.00249165
     16.674  0.0318832  0.0015929 0.00271007
     16.906  0.0306466 0.00165091 0.00260496
    17.1412  0.0296073 0.00151036 0.00251662
    17.3796  0.0267205 0.00155646 0.00227124
    17.6214  0.0355556 0.00157148 0.00302223
    17.8665  0.0274175  0.0015553 0.00233049
    18.1151  0.0277227  0.0015528 0.00235643
    18.3671  0.0274338 0.00158056 0.00233187
    18.6226  0.0264617 0.00158227 0.00224925
    18.8817  0.0264688 0.00155523 0.00224985
    19.1443  0.0228887 0.00153276 0.00194554
    19.4107  0.0245439 0.00151191 0.00208623
    19.6807  0.0273182 0.00152029 0.00232205
    19.9545  0.0276675 0.00157117 0.00235173
    20.2321  0.0267254 0.00157459 0.00227166
    20.5135  0.0325177 0.00171557 0.00276401
    20.7989     0.0286 0.00162664   0.002431
    22.2864  0.0222836 0.00155962  0.0018941
    22.5965  0.0209304 0.00151897 0.00177908
    22.9108  0.0224501 0.00153769 0.00190825
    23.2295  0.0214188 0.00151806  0.0018206
    23.5527  0.0203099 0.00163244 0.00172634
    23.8803  0.0235663 0.00167012 0.00200314
    24.2125  0.0228309 0.00175741 0.00194062
    24.5494   0.018479 0.00174258 0.00157072
    24.8909   0.017104 0.00165174 0.00145384
    25.2372  0.0155207 0.00168043 0.00131926
    25.5882   0.014613 0.00166326 0.00124211
    25.9442  0.0161766 0.00160869 0.00137501
    26.3051     0.0148  0.0016513   0.001258
    26.6711  0.0161705 0.00172337 0.00137449
    27.0421  0.0156476 0.00162552 0.00133005
    27.4183  0.0157875 0.00158964 0.00134194
    27.7997  0.0128534 0.00155518 0.00109254
    28.1864  0.0156867  0.0016177 0.00133337
    28.5786  0.0127509 0.00160479 0.00108383
    28.9761  0.0167927 0.00161579 0.00142738
    29.3792  0.0169679 0.00160173 0.00144227
    29.7879  0.0212798 0.00170067 0.00180878
    30.2023  0.0143321 0.00161999 0.00121823
    30.6225  0.0138005 0.00159438 0.00117305
    31.0485  0.0154561  0.0016189 0.00131377
    31.4804  0.0187601 0.00163593 0.00159461
    31.9183  0.0148911 0.00164094 0.00126575
    32.3624  0.0165425 0.00165774 0.00140611
    32.8126  0.0241667 0.00178341 0.00205417
    34.2011  0.0171935  0.0016366 0.00146144
    34.6769  0.0154455 0.00161298 0.00131287
    35.1593  0.0179821 0.00165553 0.00152848
    35.6484  0.0172528 0.00168297 0.00146649
    36.1443  0.0222682 0.00174927  0.0018928
    36.6472  0.0123679 0.00160964 0.00105127
     37.157  0.0154302 0.00160981 0.00131156
    37.6739   0.014929 0.00164092 0.00126897
     38.198  0.0139339 0.00156302 0.00118438
    38.7294  0.0159384 0.00160158 0.00135477
    39.2681  0.0228854 0.00175065 0.00194526
    39.8144  0.0132241 0.00170815 0.00112405
    40.3683  0.0114066 0.0016065 0.000969562
    40.9299  0.0131006 0.00158786 0.00111355
    41.4993  0.0105255 0.001470230.000894669
    42.0766  0.0107527 0.001493710.000913978
    42.6619  0.0138759 0.00152459 0.00117946
    43.2554  0.0120233 0.00152685 0.00102198
    43.8571   0.010253 0.001645790.000871502
    44.4673   0.012312 0.00172376 0.00104652
    45.0859  0.0104211 0.001713730.000885796
    45.7131  0.0116787 0.001634860.000992685
     46.349  0.0143579 0.00165709 0.00122042
    46.9938  0.0218736 0.00193859 0.00185926
    47.6475  0.0184661 0.00184143 0.00156962
    48.3104  0.0112782 0.001578990.000958647
    48.9824  0.0102697 0.001632570.000872922
    49.6638  0.0112475 0.001566080.000956036
    50.3547  0.0112339 0.00161646 0.00095488
    51.0552  0.0121577 0.00157717 0.00103341
    51.7655  0.0102784 0.001639250.000873663
    52.4856 0.00924909   0.0016130.000786172
    53.2158 0.00895486 0.001602350.000761163
    53.9561  0.0117343 0.001563180.000997419
    54.7067  0.0114864 0.001540380.000976345
    55.4677   0.010815 0.001530710.000919275
    56.2394 0.00908128 0.001556070.000771909
    57.0217 0.00816797 0.001595330.000694277
     57.815 0.00999142   0.0016660.000849271
    58.6193  0.0118987 0.00161828 0.00101139
    59.4347 0.00939032 0.001578720.000798178
    60.2616 0.00913476 0.001634950.000776455
    61.0999 0.00993975 0.001615820.000844879
    61.9499  0.0108814 0.001634060.000924917
    62.8117  0.0105042 0.001680160.000892853
    63.6855 0.00966547 0.001597840.000821565
    64.5714  0.0110072 0.001693140.000935616
    65.4697 0.00990324  0.00162060.000841776
    66.3805  0.0101329 0.001625940.000861293
    67.3039 0.00904085 0.001545950.000768472
    68.2402 0.00829772 0.001588780.000705306
    69.1895 0.00791838 0.001507430.000673062
     70.152 0.00706488 0.001552990.000600515
     71.128  0.0067863 0.001626080.000576835
    72.1174 0.00684352 0.001566650.000581699
    73.1207 0.00663821 0.001567390.000564248
    74.1379  0.0106965 0.001664540.000909201
    75.1693   0.008944 0.00168627 0.00076024
     76.215 0.00945113 0.001635550.000803346
    77.2752 0.00793794 0.001604210.000674725
    78.3502 0.00921458  0.00176220.000783239
    79.4402  0.0144368  0.0019777 0.00122713
    80.5453  0.0317157 0.00244445 0.00269583
    81.6658 0.00898613 0.001833230.000763821
    82.8019 0.00719603 0.001900020.000611662
    83.9538 0.00650966 0.001869610.000553321
    85.1217 0.00635386 0.001947880.000540078
    86.3059 0.00721491 0.001905510.000613267
    87.5065  0.0063981 0.002049170.000543838
    88.7238 0.00565301 0.002009290.000480506
    89.9581 0.00780583 0.002156290.000663496
    91.2096 0.00623229 0.002160820.000529744
    92.4784  0.0186668 0.00261346 0.00158668
    93.7649  0.0336535 0.00312789 0.00286055
    99.0924  0.0042859 0.007122410.000364302
    100.471 0.00118094  0.0124129 0.00010038
    101.869         0.  0.0286683         0.
    103.286 0.00527037  0.04756930.000447981
    104.723 0.00177029  0.01871590.000150475
    106.179 0.00621231 0.008399340.000528046
    107.657  0.0076489 0.004974050.000650156
    109.154 0.00457474 0.003601460.000388853
    110.673  0.0154697 0.00327588 0.00131493
    112.212 0.00974695 0.002776970.000828491
    113.773 0.00507335 0.002512810.000431235
    115.356 0.00573504 0.002328980.000487479
    116.961 0.00444708   0.0020470.000378001
    118.588 0.00354461 0.001879360.000301292
    120.238 0.00430995 0.001953610.000366346
     121.91 0.00545871 0.00196665 0.00046399
    123.606 0.00484198 0.001958560.000411568
    125.326  0.0046953 0.001972320.000399101
    127.069 0.00589222 0.001957510.000500839
    128.837 0.00598194 0.001956660.000508465
    130.629 0.00527102 0.002123520.000448037
    132.446 0.00377068 0.002201130.000320508
    134.289 0.00226827 0.001927360.000192803
    136.157 0.00506671 0.00191357 0.00043067
    138.051 0.00566811  0.00190050.000481789
    139.972 0.00247423 0.00175521 0.00021031
    141.919 0.00449725 0.001726810.000382266
    143.893 0.00626418 0.001719780.000532455
    145.895 0.00228682 0.001683820.000194379
    147.925 0.00292536 0.001912660.000248655
    149.982 0.00943747 0.001853590.000802185
    152.069 0.00672681 0.001957960.000571779
    154.184 0.00327034 0.001674230.000277979
    156.329 0.00390584 0.001701650.000331997
    158.504 0.00793988  0.0019888 0.00067489
    160.709 0.00928843 0.002213960.000789517
    162.945 0.00305268 0.001814660.000259478
    165.212 0.00443633 0.001740070.000377088
     167.51 0.00328152 0.00168068 0.00027893
     169.84 0.00207652 0.001631660.000176504
    172.203 0.00440166  0.00190310.000374141
    174.598 0.00257723 0.001814230.000219065
    177.027 0.00366706 0.00183625  0.0003117
     179.49 0.00615099 0.001851470.000522834
    181.987 0.00575999 0.001822680.000489599
    184.519  0.0031944 0.001694170.000271524
    187.086 0.00156366 0.001674140.000132911
    189.688 0.00424142 0.00183444 0.00036052
    192.327 0.00295812 0.00182695 0.00025144
    195.003 0.00104537 0.001971128.88563e-05
    197.715 0.00629597 0.002621130.000535157
    200.466 0.00398829 0.003127220.000339004
    203.255 0.00149844  0.01044420.000127368
    206.082         0.  0.0119767         0.
    208.949 0.00429103 0.002334650.000364737
    211.856 0.00304614 0.002304390.000258922
    214.803 0.00296371 0.002093190.000251916
    217.791 0.00421255 0.002550380.000358067
    220.821 0.00309265 0.003630330.000262875
    223.893  0.0110715  0.01181730.000941076
    227.008 0.00693931  0.01206910.000589841
    230.1660.000485998 0.002422954.13098e-05
    233.367 0.00426343 0.002201060.000362391
    236.614  0.0067972 0.002182410.000577762
    239.906  0.0141894 0.00233464  0.0012061
    243.243  0.0544662 0.00334873 0.00462963
    246.627   0.145188  0.0057786   0.012341
    250.058    1.29941  0.0350878    0.11045
    253.536   0.285718 0.00924021   0.024286
    257.063  0.0158806  0.0024103 0.00134985
     260.64  0.0137468 0.00238641 0.00116848
    264.265  0.0074185 0.002201760.000630572
    267.942  0.0058949 0.002048750.000501067
    271.669 0.00519516 0.002108280.000441589
    275.448  0.0083158 0.002240440.000706843
    299.254 0.00459206 0.002129770.000390325
    303.417 0.00386136 0.002050570.000328216
    307.638 0.00245463 0.002145880.000208643
    311.918 0.00268055 0.002256730.000227847
    316.257 0.00534421 0.003278130.000454258
    320.657 0.00030108 0.008883622.55918e-05
    325.118 0.00177318 0.00531667 0.00015072
     329.64 0.00342395 0.007047020.000291035
    334.226  0.0182024  0.0151654 0.00154721
    338.876 0.00204145 0.005364780.000173523
     343.59 0.00167295 0.003736410.000142201
     348.37 0.00133611 0.003271220.000113569
    353.216 0.00138564 0.002919570.000117779
     358.13 0.00152217 0.003127240.000129384
    363.112 0.00245101 0.003814590.000208336
    368.163         0.  0.0114955         0.
    373.285   0.011296 0.004182670.000960157
    378.478  0.0400016 0.00362409 0.00340014
    383.743 0.00396329 0.00231943 0.00033688
    389.081 0.00234706 0.00212752  0.0001995
    394.494 0.00313932 0.002101290.000266842
    399.9820.000822384 0.002177266.99026e-05
    405.546 0.00263082 0.00309502 0.00022362
    411.188 0.00118436 0.00645601 0.00010067
    416.908 0.00146641 0.002161290.000124645
    422.708 0.00105169  0.00192868.93933e-05
    428.588 0.00137746 0.002022070.000117084
    434.551 0.00169099 0.001964920.000143734
    440.596 0.00208562 0.002051150.000177278
    446.725  0.0115618 0.002418840.000982752
     452.94 0.00378514 0.002022490.000321737
    459.241 0.00297311 0.002008740.000252715
    465.6290.000592908 0.001901135.03972e-05
    472.107 0.00193442 0.002058150.000164426
    478.675 0.00095562 0.002247438.12277e-05
    485.3340.000864222 0.002928257.34588e-05
    492.085 0.00400413 0.006587360.000340351
    498.931 0.00202921 0.003005540.000172483
    505.872         0. 0.00205881         0.
    512.909  0.0012999 0.002290960.000110492
    520.044 0.00118047 0.00276053 0.00010034
    527.2790.000688666 0.001968685.85366e-05
    534.6140.000585891  0.00209774.98008e-05
    542.0510.000170733 0.002419441.45123e-05
    549.592  0.0156032  0.0052554 0.00132628
    557.238  0.0188831 0.00612517 0.00160507
    564.9890.000667649 0.003094485.67502e-05
    572.8490.000463446 0.001971493.93929e-05
    580.8180.000267729 0.002347812.27569e-05
    588.8980.000697946  0.00189235.93254e-05
    597.091 0.00199989 0.002016790.000169991
    605.3970.000111519 0.001809539.47916e-06
    613.8190.000278686 0.001968692.36883e-05
    622.358 0.00116186 0.001853059.87578e-05
    631.0160.000194609  0.00183031.65418e-05
    639.7940.000327224   0.001856 2.7814e-05
    648.6950.000623288 0.001915315.29794e-05
    657.719 0.00126227  0.00189080.000107293
    666.869 0.00191921 0.001962750.000163133
    676.1460.000455154 0.001935023.86881e-05
    685.552 0.00205916 0.001911350.000175028
    695.089 0.00536639 0.002225970.000456143
    704.759  0.0364771 0.00325111 0.00310055
    714.563  0.0606044 0.00424801 0.00515137
    724.503   0.141128 0.00690777  0.0119958
    734.582    0.93645  0.0338011  0.0795982
    744.801    0.98947  0.0359437   0.084105
    755.162  0.0124428 0.00267076 0.00105763
    765.668  0.0142767 0.00269854 0.00121352
    776.319 0.00583459 0.00230423 0.00049594
    787.119 0.00109534 0.001948169.31041e-05
    798.0690.000650339 0.001858075.52788e-05
    809.1710.000658914 0.001973785.60077e-05
    820.428 0.00107086  0.00209999.10233e-05
    831.8410.000586913 0.002124044.98876e-05
    843.413         0. 0.00236187         0.
    855.146 0.00218731 0.003379420.000185921
    867.042 0.00163882 0.001927440.000139299
    879.1040.000647375 0.001923215.50269e-05
    891.3340.000315333 0.001910422.68033e-05
    903.7330.000752676 0.002225936.39775e-05
    916.306  0.0010073 0.002323738.56201e-05
    929.053 0.00196886 0.002490940.000167353
    941.977 0.00104354 0.001887858.87009e-05
    955.0810.000557182 0.001915744.73605e-05
    968.368  0.0011854 0.001918960.000100759
    981.839 0.00118008 0.002015170.000100307
    995.4980.000293571 0.002053012.49536e-05
    1009.350.000870365  0.0013267 7.3981e-05
    1023.390.000143282 0.00162855 1.2179e-05
    1037.620.000997591 0.001974438.47952e-05
    1052.065.80418e-05 0.001940124.93355e-06
     1066.77.29888e-05 0.002224166.20405e-06
    1081.530.000282645 0.001737362.40248e-05
    1096.580.000463744 0.002329013.94182e-05
    1111.840.000785466 0.004021476.67646e-05
     1127.3 0.00195457 0.003635980.000166139
    1142.98         0. 0.00247203         0.
    1158.89         0. 0.00272794         0.
    1175.01  0.0023806 0.002110490.000202351
    1191.35 0.00139565 0.00179566 0.00011863
    1207.93 0.00552599 0.002157260.000469709
    1224.73  0.0146591 0.00324795 0.00124602
    1241.77  0.0821509 0.00516619 0.00698283
    1259.04   0.355835  0.0155564   0.030246
    1276.56 0.00646825 0.002367180.000549802
    1294.32  0.0036946 0.002029960.000314041
    1312.32 0.00109885 0.00254623 9.3402e-05
    1330.580.000354127 0.002282033.01008e-05
    1349.090.000577631 0.002037414.90986e-05
    1367.86 0.00023085 0.002219691.96223e-05
    1386.880.000725492 0.001889196.16669e-05
    1406.180.000742446 0.001995776.31079e-05
    1425.74  0.0012076 0.001853750.000102646
    1445.570.000122926 0.002070141.04487e-05
    1465.68         0. 0.00278819         0.
    1486.07         0. 0.00295125         0.
    1506.75         0. 0.00237589         0.
    1527.71 0.00715335  0.00315420.000608035
    1548.960.000713321 0.002493536.06323e-05
    1570.510.000293308 0.002009342.49312e-05
    1592.36 0.00140181 0.002050460.000119154
    1614.510.000740363 0.002112626.29308e-05
    1636.970.000709839 0.002430756.03363e-05
    1659.740.000932544 0.002546097.92662e-05
    1682.830.000113274  0.00221549.62829e-06
    1706.24         0. 0.00221276         0.
    1729.980.000839216 0.002261497.13334e-05
    1754.040.000639525  0.00232165.43596e-05
    1778.44 0.00062637 0.002104155.32414e-05
    1803.19 0.00113057 0.002591979.60985e-05
    1828.27 0.00094694 0.002501428.04899e-05
     1853.70.000811886 0.002234096.90103e-05
    1879.496.95228e-05 0.002436675.90944e-06
    1905.640.000716144 0.002431026.08723e-05
    1932.15 0.00169293 0.002723850.000143899
    1959.030.000251634 0.002980912.13889e-05
    1986.28 0.00127071 0.00285118 0.00010801
    2013.91 0.00159531  0.00213080.000135601
    2041.93 0.00151331 0.002279480.000128631
    2070.33 0.00664584 0.002116050.000564896
    2099.13  0.0272095 0.00336013 0.00231281
    2128.34  0.0863253 0.00619468 0.00733765
    2157.94   0.245573  0.0132503  0.0208737
    2187.96    1.53534  0.0753511   0.130504
     2218.4   0.347234  0.0186244  0.0295148
    2249.26  0.0108432 0.003122540.000921673
    2280.55 0.00827576 0.00340739 0.00070344
    2312.28  0.0036518 0.002694090.000310403
    2344.45 0.00331498 0.002663860.000281774
    2377.06  0.0125193 0.00295761 0.00106414
    2410.13  0.0718273 0.00628459 0.00610532
    2443.66  0.0916737 0.00757812 0.00779227
    2477.65  0.0162483 0.00365803 0.00138111
    2512.12  0.0584244 0.00540221 0.00496607
    2547.07   0.168548  0.0110383  0.0143266
     2582.5   0.576578  0.0317558  0.0490092
    2618.43    2.26579    0.11408   0.192592
    2654.85    0.66022  0.0376977  0.0561187
    2691.78   0.468823  0.0268176  0.0398499
    2729.23    1.79503  0.0900191   0.152577
     2767.2     3.6518   0.188182   0.310403
    2805.69   0.112129  0.0124514 0.00953094
    2844.73  0.0539388 0.00643127  0.0045848
     2884.3  0.0367589 0.00567771 0.00312451
    2924.42  0.0190169 0.00505865 0.00161644
    2965.11 0.00893224 0.00768365 0.00075924
    3006.36         0. 0.00383088         0.
    3048.18  0.0481403 0.00617099 0.00409192
    3090.58  0.0134394  0.0033864 0.00114235
    3133.58 0.00172261 0.002616080.000146422
    3177.17 0.00217501 0.002911920.000184876
    3221.37 0.00221269 0.002454510.000188079
    3266.18 0.00261185 0.003131880.000222007
    3311.62 0.00309439 0.002974980.000263023
    3357.69 0.00229841 0.003127040.000195365
     3404.4 0.00548609 0.003134610.000466318
    3451.76 0.00810779 0.003300820.000689162
    3499.78   0.027876 0.00411908 0.00236946
    3548.46   0.104206 0.00861521 0.00885749
    3597.83   0.316689  0.0190315  0.0269186
    3647.88    1.35619  0.0739597   0.115276
    3698.63   0.495491  0.0293492  0.0421168
    3750.08  0.0130716 0.00452306 0.00111109
    3802.25 0.00274693  0.00373030.000233489
    3855.14 0.00374861 0.003252070.000318632
    3908.770.000972388 0.00328687 8.2653e-05
    3963.15 0.00178457 0.003877510.000151688
    4018.280.000317627 0.003215182.69983e-05
    4074.18         0. 0.00326692         0.
    4130.86         0. 0.00322266         0.
    4188.32 0.00451424 0.00401705 0.00038371
    4246.59 0.00826377 0.00395205 0.00070242
    4305.67   0.023501 0.00548769 0.00199758
    4365.56   0.106195  0.0103076  0.0090266
     4426.3     0.1697  0.0138617  0.0144245
    4487.87   0.229767  0.0168482  0.0195302
     4550.3   0.820351  0.0522453  0.0697298
     4613.6   0.603837  0.0391938  0.0513261
    4677.79  0.0747924 0.00835458 0.00635735
    4742.86  0.0390652 0.00665887 0.00332054
    4808.84  0.0688162   0.008376 0.00584937
    4875.74   0.205094  0.0174634   0.017433
    4943.57   0.575645  0.0373395  0.0489299
    5012.34   0.298087 0.00970853  0.0253374
    5082.07  0.0454192 0.00284015 0.00386063
    5152.77  0.0174991 0.00224054 0.00148742
    5224.45 0.00977745  0.00219240.000831083
    5297.13 0.00499586 0.001621450.000424648
    5370.82 0.00354079 0.001661940.000300967
    5445.53 0.00403341 0.00167495 0.00034284
    5521.29  0.0181526 0.00221396 0.00154297
     5598.1 0.00503468  0.00299020.000427948
    5675.970.000229753 0.00202939 1.9529e-05
    5754.93  0.0073467  0.0023759 0.00062447
    5834.99 0.00613277 0.004392680.000521285
    5916.17  0.0529929 0.00652648  0.0045044
    5998.47    0.12923 0.00612008  0.0109846
    6081.92   0.479713   0.016939  0.0407756
    6166.52    1.08184  0.0352318  0.0919564
    6252.31   0.290566  0.0106965  0.0246981
    6339.29 0.00908847 0.00201515 0.00077252
    6427.47  0.0110958  0.00214870.000943146
    6516.89 0.00373164 0.002000950.000317189
    6607.55  0.0025744 0.001880410.000218824
    6699.47 0.00159636 0.001831420.000135691
    6792.67 0.00122993 0.002569580.000104544
    6887.16         0. 0.00176126         0.
    6982.97         0. 0.00178293         0.
    7080.120.000668548 0.002083685.68266e-05
    7178.610.000162678 0.002216971.38276e-05
    7278.47 0.00932138 0.002425860.000792317
    7379.73  0.0386563 0.00283022 0.00328579
    7482.39   0.153419 0.00675608  0.0130406
    7586.48   0.319738  0.0120276  0.0271777
    7692.02   0.170204 0.00769313  0.0144673
    7799.03   0.155583 0.00701963  0.0132245
    7907.52  0.0804531 0.00484538 0.00683851
    8017.53  0.0223049 0.00326264 0.00189592
    8129.06  0.0610215 0.00441847 0.00518683
    8242.15   0.212441  0.0101195  0.0180575
    8356.81   0.272213  0.0122567  0.0231381
    8473.06  0.0552771 0.00402425 0.00469855
    8590.93  0.0367013 0.00350073 0.00311961
    8710.45  0.0816729 0.00508706  0.0069422
    8831.62   0.141462 0.00696863  0.0120243
    8954.48    0.31334  0.0123339  0.0266339
    9079.05   0.236019 0.00913075  0.0200616
    9205.35  0.0615264 0.00373162 0.00522974
    9333.41  0.0603832 0.00395305 0.00513257
    9463.25   0.155907 0.00671441  0.0132521
     9594.9   0.417752  0.0151746  0.0355089
    9728.38   0.368945   0.013119  0.0313603
    9863.71   0.300344  0.0107727  0.0255292
    10000.9   0.249757  0.0102966  0.0212293
    10140.1   0.036171 0.00341216 0.00307453
    10281.1  0.0244526 0.00358327 0.00207847
    10424.1  0.0298989 0.00394251 0.00254141
    10569.2  0.0108778 0.002738810.000924612
    10716.2  0.0178894  0.0027818  0.0015206
    10865.3  0.0467376 0.00395673 0.00397269
    11016.4  0.0987117 0.00554561  0.0083905
    11169.7   0.161397 0.00720234  0.0137187
    11325.1   0.133708 0.00630103  0.0113652
    11482.6  0.0962457 0.00522239 0.00818088
    11642.3  0.0603112   0.004779 0.00512645
    11804.3  0.0737468 0.00471845 0.00626848
    11968.5   0.202606 0.00887533  0.0172215
     12135.   0.185252 0.00832423  0.0157464
    12303.8    0.10087 0.00559695 0.00857391
     12475.   0.186883 0.00844628   0.015885
    12648.5   0.170663 0.00752745  0.0145064
    12824.5  0.0664882 0.00465709  0.0056515
    13002.9  0.0756702 0.00465596 0.00643196
    13183.8  0.0681991 0.00467519 0.00579692
    13367.2 0.00725295 0.002865710.000616501
    13553.2 0.00533887 0.002735660.000453804
    13741.7  0.0384676 0.00375144 0.00326975
    13932.9   0.133866 0.00679013  0.0113786
    14126.7   0.251953  0.0104353   0.021416
    14323.2     0.1839 0.00849874  0.0156315
    14522.5  0.0564034   0.004241 0.00479429
    14724.5  0.0196321 0.00300366 0.00166873
    14929.3  0.0091457 0.002979650.000777384
     15137.  0.0140585 0.00295874 0.00119497
    15347.6  0.0430794 0.00404593 0.00366175
    15561.1   0.093288 0.00574531 0.00792948
    15777.6   0.115422 0.00647635 0.00981084
    15997.1   0.114723 0.00645674 0.00975143
    16219.6   0.122705 0.00680399  0.0104299
    16445.2  0.0787777 0.00553853  0.0066961
     16674.  0.0220447 0.00376192  0.0018738
     16906.  0.0258429 0.00356572 0.00219665
    17141.2  0.0490532 0.00498895 0.00416952
    17379.6  0.0654728 0.00534952 0.00556519
    17621.4  0.0587266 0.00494604 0.00499176
    17866.5  0.0446598 0.00422305 0.00379608
    18115.1   0.027099 0.00390952 0.00230341
    18367.1  0.0503101 0.00472734 0.00427636
    18622.6  0.0968788 0.00612003  0.0082347
    18881.7   0.109865 0.00689208 0.00933855
    19144.3   0.107338 0.00650355 0.00912373
    19410.7   0.143862 0.00812522  0.0122283
    19680.7   0.181425 0.00945378  0.0154211
    19954.5   0.135512  0.0079573  0.0115186
    20232.1   0.060612 0.00518402 0.00515202
    20513.5   0.038291  0.0048041 0.00325474
    20798.9  0.0553956 0.00520877 0.00470863
    21088.2  0.0969341 0.00690358  0.0082394
    21381.6   0.109391 0.00619074 0.00929827
    21679.1   0.102467 0.00589074 0.00870973
    21980.6  0.0570687 0.00443219 0.00485084
    22286.4  0.0224729 0.00348382 0.00191019
    22596.5   0.019168 0.00351248 0.00162928
    22910.8  0.0271963 0.00363102 0.00231169
    23229.5  0.0496406 0.00418961 0.00421945
    23552.7  0.0900003 0.00592771 0.00765003
    23880.3    0.11088 0.00723543 0.00942482
    24212.5  0.0936495 0.00617852 0.00796021
    24549.4  0.0748831 0.00519675 0.00636506
    24890.9  0.0569255 0.00482444 0.00483867
    25237.2  0.0514902 0.00440251 0.00437667
    25588.2  0.0517925 0.00412656 0.00440236
    25944.2  0.0486987 0.00403196 0.00413939
    26305.1  0.0337343 0.00412247 0.00286742
    26671.1   0.020414 0.00361171 0.00173519
    27042.1  0.0248023 0.00399863  0.0021082
    27418.3  0.0184983 0.00314442 0.00157235
    27799.7  0.0195976  0.0030608  0.0016658
    28186.4  0.0238142 0.00292806 0.00202421
    28578.6  0.0324383 0.00280786 0.00275725
    28976.1  0.0425261  0.0030162 0.00361472
    29379.2   0.043077 0.00305093 0.00366154
    29787.9  0.0508413 0.00312062 0.00432151
    30202.3  0.0568367 0.00299796 0.00483112
    30622.5  0.0775107 0.00397954 0.00658841
    31048.5  0.0826492 0.00457763 0.00702519
    31480.4  0.0769528 0.00494766 0.00654099
    33067.6  0.0663839 0.00616786 0.00564263
    35925.5  0.0552295  0.0212306 0.00469451
    39030.4  0.0671856 0.00458438 0.00571078
    42403.6  0.0424889  0.0029509 0.00361156
    46068.4  0.0443483 0.00242228  0.0037696
    50049.9  0.0373411 0.00223079 0.00317399
    54375.5  0.0527139 0.00232263 0.00448068
    59074.9  0.0404351 0.00199916 0.00343698
    64180.5  0.0338816 0.00163939 0.00287994
    69727.3  0.0323041 0.00126794 0.00274585
    75753.5  0.0418542 0.00155771 0.00355761
    82300.6   0.046829 0.00610694 0.00398047
    89413.5    0.03611 0.00884212 0.00306935
    97141.1  0.0336275 0.00277617 0.00285834
    105537.  0.0327455 0.00172604 0.00278337
    114658.  0.0350449 0.00209125 0.00297881
    124567.  0.0296903 0.00110858 0.00252368
    135333.  0.0361147 0.00238936 0.00306975
    147029.  0.0338347 0.00470358 0.00287595
    159736.  0.0275757 0.00283563 0.00234393
    173541.  0.0287076 0.00169387 0.00244014
    188540.  0.0313294 0.00200815   0.002663
    204834.  0.0318618 0.00230256 0.00270825
    222537.  0.0293037  0.0017788 0.00249081
    241770.  0.0273085 0.00128576 0.00232123
    262665.  0.0265992 0.00131741 0.00226093
    285366.  0.0258912 0.00151157 0.00220075
    310029.      0.025 0.00113137   0.002125
    336824.   0.026023  0.0011556 0.00221196
    365934.    0.02684 0.00145637  0.0022814
    397560.   0.027322 0.00182075 0.00232237
    431920.  0.0270166  0.0018344 0.00229641
    469249.  0.0262641 0.00164807 0.00223245
    509804.  0.0279419 0.00154069 0.00237506
    553864.  0.0265193 0.00142842 0.00225414
    601732.  0.0256937  0.0012469 0.00218396
    653737.  0.0269553 0.00124455  0.0022912
    710236.  0.0257017 0.00111666 0.00218465
    771619.  0.0228389 0.00108382  0.0019413
    838307.  0.0189632 0.00107101 0.00161187
    910758.   0.014888 0.00101707 0.00126548
ENDDATA            613
ENDSUBENT          637
SUBENT        14791004   20220819   20230600   20230528       1504
BIB                  4          7
REACTION   (32-GE-72(N,G)32-GE-73,,SIG,,MXW)
METHOD     Full neutron energy range needed to calculate the
           Maxwellian spectrum averaged cross sections was
           measured in this work.
ERR-ANALYS (DATA-ERR) No information on sources of unvertainties
STATUS     (TABLE) Data taken from tab.5 of the reference
           (DEP,14791003)
ENDBIB               7
NOCOMMON             0          0
DATA                 3         11
KT         DATA       DATA-ERR
KEV        MB         MB
       5.       141.        10.
      10.       102.         8.
      20.        71.         6.
      30.        58.         5.
      40.        51.         5.
      50.        46.         4.
      60.        43.         4.
      70.        41.         4.
      80.        39.         4.
      90.        38.         4.
     100.        37.         3.
ENDDATA             13
ENDSUBENT           25
ENDENTRY             4
