ENTRY            C1115   20050121   20051109                  C075
SUBENT        C1115001   20050121   20051109                  C075
BIB                  8         10
INSTITUTE  (1USATAM)
REFERENCE  (J,PR/C,63,031301,2001)
AUTHOR     (H.L.Clark,Y.W.Lui,D.H.Youngblood)
TITLE      Isoscalar giant dipole resonance in 90Zr, 116Sn,
            and 208Pb
FACILITY   (CYCLO,1USATAM)
INC-SPECT  240 MeV alpha particle beam
DETECTOR   Multipole-dipole-multipole spectrometer
HISTORY    (20050121C) DR
           (20050825C) DR Reference corrected
ENDBIB              10
COMMON               1          3
EN
MEV
240.
ENDCOMMON            3
ENDSUBENT           17
SUBENT        C1115002   20050121
BIB                  3          5
REACTION   (40-ZR-90(A,INL)40-ZR-90,PAR,DA)
ERR-ANALYS (DATA-ERR) Cumulative uncertainties in target
            thickness, solid angle, etc, result in about 10 %
            uncertainty in absolute cross section
STATUS     (CURVE) Data taken from Fig. 2 of the journal article
ENDBIB               5
NOCOMMON             0          0
DATA                 5         30
E-EXC-MIN  E-EXC-MAX  ANG-CM     DATA-CM    DATA-ERR
MEV        MEV        ADEG       MB/SR      MB/SR
11.5       15.5         1.067E+00  2.316E+02  3.550E+00
11.5       15.5         1.235E+00  2.179E+02  5.325E+00
11.5       15.5         1.477E+00  2.024E+02  3.550E+00
11.5       15.5         1.740E+00  1.899E+02  5.916E+00
11.5       15.5         2.056E+00  1.721E+02  4.733E+00
11.5       15.5         2.689E+00  1.612E+02
11.5       15.5         3.070E+00  1.634E+02
11.5       15.5         3.376E+00  1.704E+02
11.5       15.5         3.768E+00  1.798E+02
11.5       15.5         4.137E+00  1.690E+02
11.5       15.5         4.506E+00  1.559E+02
11.5       15.5         4.885E+00  1.350E+02
11.5       15.5         5.231E+00  8.939E+01
11.5       15.5         5.619E+00  4.666E+01
11.5       15.5         5.977E+00  2.820E+01
21.5       25.5         1.081E+00  6.056E+01  3.703E+00
21.5       25.5         1.254E+00  5.793E+01  4.258E+00
21.5       25.5         1.480E+00  5.901E+01  4.073E+00
21.5       25.5         1.757E+00  6.211E+01  4.073E+00
21.5       25.5         2.063E+00  5.891E+01  4.073E+00
21.5       25.5         2.739E+00  5.787E+01  3.888E+00
21.5       25.5         3.095E+00  5.300E+01  3.518E+00
21.5       25.5         3.442E+00  5.035E+01  4.258E+00
21.5       25.5         3.790E+00  4.992E+01  3.333E+00
21.5       25.5         4.158E+00  4.671E+01  2.962E+00
21.5       25.5         4.537E+00  4.720E+01  2.592E+00
21.5       25.5         4.884E+00  4.585E+01  2.962E+00
21.5       25.5         5.250E+00  3.930E+01  3.518E+00
21.5       25.5         5.607E+00  3.591E+01  2.407E+00
21.5       25.5         5.972E+00  2.529E+01  2.592E+00
ENDDATA             32
ENDSUBENT           42
ENDENTRY             2
