ENTRY            T0049   20000530   20010330
SUBENT        T0049001   20000530   20010330
BIB                 10         11
INSTITUTE  (1USAINU)
REFERENCE  (J,PR/C,40,1603,1989)
AUTHOR     (M.C.RADHAKRISHNA,N.G.PUTTASWAMMY,H.NANN,D.W.MILLER,
           P.P.SINGH,W.W.JACOBS,W.P.JONES,E.J.STEPHENSON)
TITLE      Neutron pickup strength in 87Sr(p(pol),d) reaction
FACILITY   (CYCLO,1USAINU)
INC-SOURCE (POLIS)
METHOD     Particle spectra analyzed using computer code ALLFIT.
ERR-ANALYS (ERR-S) Statistical uncertainty given.
STATUS     No reply from E.J. Stephenson to author proof.
HISTORY    (20000418C) VM
ENDBIB              11
NOCOMMON             0          0
ENDSUBENT           14
SUBENT        T0049002   20000421   20010330
BIB                  6         11
REACTION   (38-SR-87(P,EL)38-SR-87,,DA)
SAMPLE     Targets isotopic composition 87Sr (84.88%), 88Sr
            (13.84%). Areal density of targets 5.0 and 10 mg/cm2.
DETECTOR   (MAGSP,PROPC,SCIN) QDDM magnetic spectrometer.
            Position-sensitive helical proportional counters in
            focal plane, followed by 2 plastic scintillators for
            particle identification.
MONITOR    (40-ZR-90(P,EL)40-ZR-90,,DA)
CORRECTION Corrected for 88Sr content of targets.
STATUS     Tabulated data from thesis, Radhakrishna, received
            from E. Stephenson, 21 April 2000.
ENDBIB              11
COMMON               1          3
EN
MEV
 94.2
ENDCOMMON            3
DATA                 3         48
ANG-CM     DATA-CM    ERR-S
ADEG       MB/SR      MB/SR
  7.68     9284.0       11.0
  8.71     3812.2        6.0
  9.73     1262.2        3.3
 10.76      366.4        2.6
 11.78      357.8        2.5
 12.80      538.6        3.5
 13.83      650.7        3.7
 14.34      604.5        2.9
 15.88      394.4        1.5
 16.90      196.6        1.2
 17.92       57.65       0.53
 18.95       10.56       0.15
 19.97       25.91       0.28
 20.99       73.36       0.34
 22.01      106.0        0.4
 23.04      116.7        0.3
 24.06       99.88       0.46
 25.08       74.07       0.65
 27.13       28.71       0.25
 28.15       21.47       0.23
 29.17       23.14       0.21
 30.19       30.10       0.27
 31.21       35.39       0.38
 32.74       39.03       0.37
 33.25       38.10       0.36
 34.28       34.02       0.19
 36.32       20.94       0.14
 38.35       13.24       0.09
 40.39       11.85       0.08
 42.43       11.22       0.09
 44.47        9.163      0.075
 46.50        6.270      0.067
 48.54        4.286      0.026
 51.58        3.125      0.041
 54.63        2.438      0.034
 57.67        1.515      0.017
 60.71        0.7820     0.0146
 63.75        0.6171     0.0085
 66.78        0.4233     0.0051
 69.81        0.2482     0.0034
 73.84        0.1518     0.0020
 77.86        0.0915     0.0017
 81.88        0.0467     0.0010
 86.90        0.0270     0.0007
 91.90        0.0136     0.0007
100.88        0.0068     0.0003
110.82        0.0012     0.0002
120.72        0.0005     0.0002
ENDDATA             50
ENDSUBENT           70
SUBENT        T0049003   20000421   20010330
BIB                  5         10
REACTION   (38-SR-87(P,EL)38-SR-87,,POL/DA,,ANA)
SAMPLE     Targets isotopic composition 87Sr (84.88%), 88Sr
            (13.84%). Areal density of targets 5.0 and 10 mg/cm2.
DETECTOR   (MAGSP,PROPC,SCIN) QDDM magnetic spectrometer.
            Position-sensitive helical proportional counters in
            focal plane, followed by 2 plastic scintillators for
            particle identification.
CORRECTION Corrected for 88Sr content of targets.
STATUS     Tabulated data from thesis, Radhakrishna, received
            from E. Stephenson, 21 April 2000.
ENDBIB              10
COMMON               1          3
EN
MEV
 94.2
ENDCOMMON            3
DATA                 3         48
ANG-CM     DATA       ERR-S
ADEG       NO-DIM     NO-DIM
  7.68       -0.058      0.001
  8.71       -0.080      0.002
  9.73       -0.085      0.003
 10.76       -0.130      0.007
 11.78       -0.038      0.007
 12.80       -0.017      0.007
 13.83       -0.049      0.006
 14.34       -0.066      0.005
 15.88       -0.101      0.004
 16.90       -0.130      0.007
 17.92       -0.184      0.010
 18.95       -0.002      0.015
 19.97        0.103      0.001
 20.99       -0.047      0.005
 22.01       -0.128      0.004
 23.04       -0.178      0.003
 24.06       -0.241      0.004
 25.08       -0.313      0.008
 27.13       -0.398      0.008
 28.15       -0.204      0.011
 29.17        0.103      0.010
 30.19        0.197      0.010
 31.21        0.181      0.012
 32.74        0.088      0.010
 33.25        0.026      0.010
 34.28       -0.020      0.006
 36.32       -0.035      0.007
 38.35        0.199      0.007
 40.39        0.411      0.007
 42.43        0.424      0.008
 44.47        0.334      0.009
 46.50        0.339      0.012
 48.54        0.448      0.007
 51.58        0.677      0.014
 54.63        0.646      0.016
 57.67        0.632      0.016
 60.71        0.818      0.018
 63.75        0.828      0.014
 66.78        0.835      0.013
 69.81        0.836      0.013
 73.84        0.919      0.013
 77.86        0.911      0.016
 81.88        0.916      0.019
 86.90        0.962      0.021
 91.90        0.958      0.028
100.88        0.995      0.016
110.82        0.955      0.044
120.72        0.977      0.049
ENDDATA             50
ENDSUBENT           69
SUBENT        T0049004   20000421   20010330
BIB                  5          9
REACTION   (38-SR-86(D,EL)38-SR-86,,DA)
SAMPLE     Target enriched to 84.88% 87Sr.  Areal density 5.0 and
            10 mg/cm2.
DETECTOR   (MAGSP,PROPC,SCIN) QDDM magnetic spectrometer. Position
            sensitive helical proportional counters in focal plane
            followed by 2 plastic scintillators for particle
            identification.
MONITOR    (40-ZR-90(D,EL)40-ZR-90,,DA)
STATUS     Data taken from thesis, Radhakrishna.
ENDBIB               9
COMMON               1          3
EN
MEV
 88.0
ENDCOMMON            3
DATA                 3         60
ANG-CM     DATA-CM    ERR-S
ADEG       MB/SR      MB/SR
  9.06     9643.6       13.9
 10.08     7429.2       11.0
 11.09     5426.5        9.4
 12.10     3781.6        7.9
 13.11     2375.6        3.4
 14.13     1435.6        1.9
 15.14      731.66       1.08
 16.15      346.88       0.72
 16.25      284.28       0.72
 17.16      112.06       0.39
 17.26      100.80       0.53
 18.18       50.07       0.30
 18.28       46.26       0.36
 19.19       61.10       0.27
 20.20      106.90       0.20
 21.21      163.51       0.41
 22.22      200.00       0.52
 23.24      213.55       0.50
 24.25      210.85       0.12
 25.26      185.19       0.24
 26.27      152.59       0.13
 27.28      118.31       0.34
 28.29       86.27       0.26
 29.30       59.14       0.18
 30.31       37.09       0.12
 31.33       23.43       0.08
 32.34       15.51       0.06
 33.35       12.26       0.06
 34.36       12.32       0.05
 35.37       13.58       0.05
 36.38       15.62       0.06
 37.39       16.61       0.06
 38.40       16.33       0.03
 39.41       16.09       0.06
 40.42       15.34       0.03
 42.44       11.24       0.05
 44.46        6.797      0.031
 46.47        3.594      0.018
 48.49        2.745      0.016
 50.51        2.627      0.008
 52.52        2.777      0.014
 54.54        2.313      0.012
 56.55        1.820      0.010
 58.57        1.103      0.008
 60.58        0.6594     0.0043
 62.59        0.4562     0.0046
 64.61        0.4173     0.0027
 66.62        0.4140     0.0040
 68.63        0.4113     0.0023
 70.64        0.3402     0.0029
 72.64        0.2401     0.0017
 74.65        0.1607     0.0015
 76.66        0.0811     0.0009
 78.66        0.0534     0.0006
 80.67        0.0430     0.0007
 82.67        0.0467     0.0006
 84.68        0.0509     0.0007
 86.68        0.0506     0.0006
 88.68        0.0393     0.0006
 90.68        0.0334     0.0005
ENDDATA             62
ENDSUBENT           80
SUBENT        T0049005   20000421   20010330
BIB                  4          8
REACTION   (38-SR-86(D,EL)38-SR-86,,POL/DA,,ANA)
SAMPLE     Target enriched to 96.89% 86Sr.  Areal density 4.2 and
            11.7 mg/cm2.
DETECTOR   (MAGSP,PROPC,SCIN) QDDM magnetic spectrometer. Position
            sensitive helical proportional counters in focal plane
            followed by 2 plastic scintillators for particle
            identification.
STATUS     Data taken from thesis, Radhakrishna.
ENDBIB               8
COMMON               1          3
EN
MEV
 88.0
ENDCOMMON            3
DATA                 3         60
ANG-CM     DATA       ERR-S
ADEG       NO-DIM     NO-DIM
  9.06        0.151      0.002
 10.08        0.143      0.002
 11.09        0.107      0.002
 12.10        0.077      0.003
 13.11        0.033      0.002
 14.13       -0.032      0.002
 15.14       -0.092      0.002
 16.15       -0.211      0.003
 16.25       -0.266      0.003
 17.16       -0.340      0.004
 17.26       -0.359      0.006
 18.18        0.021      0.007
 18.28        0.083      0.010
 19.19        0.753      0.005
 20.20        0.746      0.002
 21.21        0.629      0.003
 22.22        0.555      0.003
 23.24        0.506      0.003
 24.25        0.450      0.001
 25.26        0.417      0.001
 26.27        0.392      0.001
 27.28        0.366      0.003
 28.29        0.345      0.004
 29.30        0.324      0.004
 30.31        0.310      0.004
 31.33        0.355      0.004
 32.34        0.476      0.005
 33.35        0.688      0.005
 34.36        0.822      0.004
 35.37        0.865      0.004
 36.38        0.852      0.004
 37.39        0.822      0.004
 38.40        0.781      0.002
 39.41        0.760      0.004
 40.42        0.740      0.002
 42.44        0.702      0.005
 44.46        0.669      0.005
 46.47        0.655      0.005
 48.49        0.735      0.006
 50.51        0.769      0.003
 52.52        0.802      0.005
 54.54        0.839      0.005
 56.55        0.853      0.005
 58.57        0.905      0.007
 60.58        0.886      0.006
 62.59        0.860      0.009
 64.61        0.729      0.006
 66.62        0.694      0.010
 68.63        0.715      0.006
 70.64        0.720      0.009
 72.64        0.772      0.007
 74.65        0.821      0.009
 76.66        0.925      0.009
 78.66        0.957      0.009
 80.67        0.880      0.015
 82.67        0.808      0.012
 84.68        0.743      0.014
 86.68        0.720      0.013
 88.68        0.761      0.014
 90.68        0.746      0.014
ENDDATA             62
ENDSUBENT           79
SUBENT        T0049006   20000421   20010330
BIB                  4          9
REACTION   (38-SR-87(P,D)38-SR-86,PAR,DA)
SAMPLE     Target enriched to 84.88% 87Sr.  Areal density 5.0 and
            10 mg/cm2.
DETECTOR   (MAGSP,PROPC,SCIN) QDDM magnetic spectrometer used at
            94.2 Mev; K600 magnetic spectrometer used at 91.8 MeV.
            Position-sensitive helical proportional counters in
            focal plane, followed by 2 plastic scintillators for
            particle identification.
STATUS     (UNOBT) Data given in Figs. 4-9 of reference.
ENDBIB               9
NOCOMMON             0          0
NODATA               0          0
ENDSUBENT           13
ENDENTRY             6
