ENTRY            12558     860602
SUBENT        12558001     860602
BIB                  8         14
INSTITUTE  (1USALAS)
REFERENCE  (J,NP/A,96,605,6704)
           (C,66PARIS,2,219(42),6610)
           (R,LA-3586,6612)
AUTHOR     (P.A.SEEGER,A.HEMMENDINGER,B.C.DIVEN)
TITLE      FISSION CROSS SECTIONS OF 241-AM AND 242M-AM.
INC-SOURCE (EXPLO) NUCLEAR EXPLOSION
MONITOR    (3-LI-6(N,T)2-HE-4,,SIG) BELOW 10 KEV.
           (92-U-235(N,F),,SIG) ABOVE 10 KEV.
STATUS     (SCSRS)
            DATA RECEIVED IN PRIVATE COMM., HEMMENDINGER, 66/8.
HISTORY    (760804T) TRANSLATED FROM SCISRS
           (841004A) CONVERTED TO REACTION FORMALISM
           (860602A) BIB UPDATES.
ENDBIB              14
NOCOMMON             0          0
ENDSUBENT           17
SUBENT        12558002     841004
BIB                  2          2
REACTION   (95-AM-241(N,F),,SIG)
METHOD     (TOF)      TIME-OF-FLIGHT
ENDBIB               2
NOCOMMON             0          0
DATA                 3       2342
EN         DATA       DATA-ERR
MEV        B          PER-CENT
 2.000  -05 0.     +00
 2.002  -05 0.     +00
 2.005  -05 0.     +00
 2.008  -05 0.     +00
 2.010  -05 0.     +00
 2.013  -05 0.     +00
 2.016  -05 0.     +00
 2.019  -05 0.     +00
 2.021  -05 0.     +00
 2.024  -05 2.539  -02  999.
 2.027  -05 0.     +00
 2.030  -05 0.     +00
 2.032  -05 0.     +00
 2.035  -05 0.     +00
 2.038  -05 0.     +00
 2.041  -05 1.734  -01  999.
 2.043  -05 6.180  -01  244.
 2.046  -05 1.297  -01  999.
 2.049  -05 0.     +00
 2.052  -05 0.     +00
 2.054  -05 2.744  -02  999.
 2.057  -05 1.899  -01  907.
 2.060  -05 0.     +00
 2.063  -05 0.     +00
 2.065  -05 0.     +00
 2.066  -05 0.     +00
 2.068  -05 0.     +00
 2.071  -05 0.     +00
 2.074  -05 9.830  -01  173.
 2.077  -05 7.245  -01  215.
 2.080  -05 2.027  +00   54.
 2.083  -05 1.507  +00  122.
 2.085  -05 1.608  +00   83.
 2.088  -05 1.853  +00   72.
 2.091  -05 1.290  +00   92.
 2.094  -05 8.208  -01  189.
 2.097  -05 6.700  -01  167.
 2.100  -05 1.722  +00   68.
 2.103  -05 6.949  -01  174.
 2.105  -05 7.192  -01  183.
 2.108  -05 1.841  -01  789.
 2.111  -05 2.885  -01  350.
 2.114  -05 6.287  -01  175.
 2.117  -05 3.937  -01  270.
 2.120  -05 4.814  -01  292.
 2.123  -05 4.083  -01  347.
 2.126  -05 8.977  -02  999.
 2.129  -05 0.     +00
 2.132  -05 0.     +00
 2.135  -05 0.     +00
 2.138  -05 1.594  -01  720.
 2.141  -05 0.     +00
 2.144  -05 0.     +00
 2.147  -05 0.     +00
 2.150  -05 0.     +00
 2.153  -05 0.     +00
 2.156  -05 3.282  -01  377.
 2.159  -05 7.891  -01  153.
 2.162  -05 0.     +00
 2.165  -05 8.699  -01  157.
 2.168  -05 1.155  +00  115.
 2.171  -05 8.798  -01  124.
 2.174  -05 1.172  +00  117.
 2.177  -05 5.764  -01  164.
 2.180  -05 7.042  -01  137.
 2.183  -05 1.187  +00   91.
 2.186  -05 3.813  -01  269.
 2.189  -05 0.     +00
 2.192  -05 0.     +00
 2.252  -05 3.337  -01  220.
 2.255  -05 2.122  -01  568.
 2.258  -05 1.886  -01  503.
 2.261  -05 2.671  -01  338.
 2.264  -05 5.715  -01  152.
 2.268  -05 4.240  -02  999.
 2.271  -05 1.271  +00   88.
 2.274  -05 5.887  -01  120.
 2.277  -05 1.958  -01  405.
 2.281  -05 5.934  -01  154.
 2.284  -05 0.     +00
 2.287  -05 7.275  -01  149.
 2.290  -05 8.956  -01  118.
 2.294  -05 1.605  +00   62.
 2.297  -05 2.489  +00   29.
 2.300  -05 2.560  +00   44.
 2.304  -05 3.119  +00   28.
 2.307  -05 3.084  +00   26.
 2.310  -05 2.454  +00   30.
 2.314  -05 1.829  +00   45.
 2.317  -05 2.244  +00   39.
 2.320  -05 2.241  +00   36.
 2.324  -05 1.976  +00   37.
 2.327  -05 2.511  +00   36.
 2.330  -05 1.953  +00   36.
 2.334  -05 1.747  +00   41.
 2.337  -05 1.907  +00   48.
 2.340  -05 1.371  +00   64.
 2.344  -05 8.289  -01   67.
 2.347  -05 0.     +00
 2.351  -05 6.735  -02  644.
 2.354  -05 2.301  -01  230.
 2.357  -05 0.     +00
 2.361  -05 0.     +00
 2.364  -05 0.     +00
 2.368  -05 0.     +00
 2.371  -05 1.851  -01  410.
 2.375  -05 0.     +00
 2.378  -05 0.     +00
 2.382  -05 4.683  -01  165.
 2.385  -05 7.089  -02  655.
 2.392  -05 0.     +00
 2.396  -05 3.485  -01  157.
 2.399  -05 8.612  -01   73.
 2.403  -05 1.597  +00   41.
 2.406  -05 2.897  +00   22.
 2.410  -05 4.717  +00   17.
 2.413  -05 5.253  +00   19.
 2.417  -05 5.404  +00   13.
 2.420  -05 5.345  +00   17.
 2.424  -05 3.740  +00   24.
 2.428  -05 1.765  +00   33.
 2.431  -05 9.445  -01   59.
 2.435  -05 4.036  -01  164.
 2.438  -05 0.     +00
 2.442  -05 0.     +00
 2.446  -05 5.914  -02  285.
 2.449  -05 0.     +00
 2.453  -05 0.     +00
 2.456  -05 0.     +00
 2.460  -05 0.     +00
 2.464  -05 0.     +00
 2.467  -05 0.     +00
 2.471  -05 0.     +00
 2.475  -05 1.912  -02  378.
 2.479  -05 0.     +00
 2.482  -05 0.     +00
 2.486  -05 0.     +00
 2.490  -05 0.     +00
 2.493  -05 7.432  -02  236.
 2.497  -05 6.330  -02  851.
 2.501  -05 2.426  -01  122.
 2.505  -05 8.328  -02  299.
 2.508  -05 0.     +00
 2.512  -05 0.     +00
 2.516  -05 0.     +00
 2.520  -05 0.     +00
 2.523  -05 5.166  -02  993.
 2.527  -05 4.150  -02  999.
 2.531  -05 1.905  -01  154.
 2.535  -05 6.395  -02  591.
 2.539  -05 1.009  +00   40.
 2.543  -05 1.552  +00   35.
 2.546  -05 3.651  +00   18.
 2.550  -05 5.079  +00   14.
 2.554  -05 6.518  +00   12.
 2.558  -05 7.700  +00    9.9
 2.562  -05 7.779  +00   12.
 2.566  -05 6.725  +00    9.6
 2.570  -05 4.329  +00   16.
 2.574  -05 2.704  +00   23.
 2.577  -05 7.110  -01   56.
 2.581  -05 4.649  -02  732.
 2.585  -05 3.424  -01  104.
 2.589  -05 1.068  -01  322.
 2.593  -05 0.     +00
 2.597  -05 0.     +00
 2.601  -05 0.     +00
 2.605  -05 2.000  -02  999.
 2.609  -05 9.486  -02  406.
 2.613  -05 0.     +00
 2.617  -05 7.778  -03  999.
 2.621  -05 0.     +00
 2.625  -05 0.     +00
 2.629  -05 0.     +00
 2.633  -05 3.147  -01  194.
 2.637  -05 1.434  +00   40.
 2.641  -05 1.985  +00   28.
 2.645  -05 1.984  +00   21.
 2.649  -05 1.783  +00   25.
 2.654  -05 1.874  +00   18.
 2.658  -05 1.505  +00   27.
 2.662  -05 1.091  +00   23.
 2.666  -05 1.184  +00   30.
 2.670  -05 5.904  -01   44.
 2.674  -05 3.872  -01   75.
 2.678  -05 2.306  -01  119.
 2.682  -05 4.412  -02  838.
 2.687  -05 0.     +00
 2.691  -05 1.975  -01  172.
 2.695  -05 9.147  -02  229.
 2.699  -05 0.     +00
 2.703  -05 1.048  -01  270.
 2.708  -05 1.824  -01  147.
 2.712  -05 7.265  -02  338.
 2.716  -05 1.687  -01  156.
 2.720  -05 1.122  -01  233.
 2.725  -05 9.449  -02  301.
 2.729  -05 2.511  -02  999.
 2.733  -05 3.192  -01   86.
 2.737  -05 5.460  -01   66.
 2.742  -05 1.375  +00   27.
 2.746  -05 2.406  +00   16.
 2.750  -05 2.874  +00   14.
 2.755  -05 3.736  +00   13.
 2.759  -05 3.222  +00   15.
 2.763  -05 2.412  +00   17.
 2.768  -05 2.193  +00   14.
 2.772  -05 2.003  +00   22.
 2.776  -05 1.759  +00   15.
 2.781  -05 9.077  -01   25.
 2.785  -05 2.970  -01   86.
 2.790  -05 1.526  -02  334.
 2.794  -05 0.     +00
 2.798  -05 0.     +00
 2.803  -05 0.     +00
 2.807  -05 1.091  -04  999.
 2.812  -05 0.     +00
 2.816  -05 2.201  -01  104.
 2.821  -05 6.624  -01   31.
 2.825  -05 1.152  +00   25.
 2.830  -05 1.507  +00   16.
 2.834  -05 1.275  +00   24.
 2.839  -05 8.770  -01   22.
 2.843  -05 4.208  -01   48.
 2.848  -05 2.972  -01   85.
 2.852  -05 1.080  -02  436.
 2.857  -05 0.     +00
 2.861  -05 7.553  -03  417.
 2.866  -05 4.679  -01   59.
 2.871  -05 7.217  -01   37.
 2.875  -05 1.003  +00   20.
 2.880  -05 1.598  +00   18.
 2.885  -05 1.453  +00   14.
 2.889  -05 1.633  +00   14.
 2.899  -05 5.324  -01   33.
 2.903  -05 6.909  -02  181.
 2.908  -05 0.     +00
 2.913  -05 0.     +00
 2.917  -05 0.     +00
 2.922  -05 0.     +00
 2.927  -05 1.582  -01  113.
 2.932  -05 3.850  -01   52.
 2.936  -05 1.199  +00   27.
 2.941  -05 1.778  +00   13.
 2.946  -05 1.739  +00   18.
 2.951  -05 1.663  +00   14.
 2.955  -05 1.162  +00   16.
 2.960  -05 6.931  -01   30.
 2.965  -05 3.215  -01   68.
 2.970  -05 1.155  -04  999.
 2.980  -05 2.603  -01   69.
 2.984  -05 2.695  -01   61.
 2.989  -05 0.     +00
 2.994  -05 2.051  -04  999.
 2.999  -05 3.157  -02  380.
 3.004  -05 3.492  -02  478.
 3.009  -05 0.     +00
 3.014  -05 0.     +00
 3.019  -05 0.     +00
 3.024  -05 5.417  -03  333.
 3.029  -05 0.     +00
 3.034  -05 0.     +00
 3.039  -05 0.     +00
 3.044  -05 2.262  -02  425.
 3.049  -05 1.789  -01   78.
 3.054  -05 2.257  -01   89.
 3.059  -05 1.303  -01   98.
 3.064  -05 3.719  -01   34.
 3.069  -05 1.177  +00   20.
 3.074  -05 1.496  +00   19.
 3.079  -05 1.352  +00   15.
 3.085  -05 1.322  +00   14.
 3.090  -05 1.512  +00   17.
 3.095  -05 1.624  +00   13.
 3.100  -05 1.633  +00   12.
 3.105  -05 2.070  +00   11.
 3.110  -05 2.780  +00   11.
 3.116  -05 3.158  +00    9.9
 3.121  -05 3.138  +00    9.7
 3.126  -05 2.256  +00   18.
 3.131  -05 1.697  +00   15.
 3.137  -05 1.183  +00   22.
 3.142  -05 2.778  -01   56.
 3.147  -05 1.898  -01   62.
 3.152  -05 2.950  -01   63.
 3.158  -05 1.454  -01   75.
 3.163  -05 0.     +00
 3.168  -05 0.     +00
 3.174  -05 2.594  -02  433.
 3.179  -05 2.269  -01   61.
 3.184  -05 6.129  -01   20.
 3.190  -05 1.046  +00   15.
 3.195  -05 1.036  +00   15.
 3.201  -05 8.014  -01   38.
 3.206  -05 5.645  -01   26.
 3.212  -05 1.273  -01   93.
 3.217  -05 0.     +00
 3.222  -05 0.     +00
 3.228  -05 0.     +00
 3.233  -05 0.     +00
 3.239  -05 0.     +00
 3.244  -05 0.     +00
 3.250  -05 0.     +00
 3.256  -05 0.     +00
 3.261  -05 2.418  -02  693.
 3.267  -05 1.072  -01  120.
 3.272  -05 0.     +00
 3.278  -05 0.     +00
 3.284  -05 0.     +00
 3.289  -05 0.     +00
 3.291  -05 0.     +00
 3.295  -05 0.     +00
 3.301  -05 0.     +00
 3.306  -05 0.     +00
 3.312  -05 0.     +00
 3.318  -05 0.     +00
 3.323  -05 0.     +00
 3.329  -05 0.     +00
 3.335  -05 0.     +00
 3.341  -05 0.     +00
 3.346  -05 0.     +00
 3.352  -05 0.     +00
 3.358  -05 0.     +00
 3.364  -05 2.654  -02  230.
 3.370  -05 0.     +00
 3.376  -05 9.557  -02  100.
 3.382  -05 3.108  -01   30.
 3.387  -05 5.127  -01   25.
 3.393  -05 7.178  -01   16.
 3.399  -05 7.024  -01   15.
 3.405  -05 4.956  -01   25.
 3.411  -05 2.753  -01   35.
 3.417  -05 1.284  -01   70.
 3.423  -05 3.858  -01   22.
 3.429  -05 4.932  -01   23.
 3.435  -05 5.015  -01   19.
 3.441  -05 3.087  -01   30.
 3.447  -05 2.315  -01   37.
 3.453  -05 2.854  -01   29.
 3.459  -05 1.585  -01   50.
 3.465  -05 3.050  -01   35.
 3.472  -05 7.970  -01   19.
 3.478  -05 1.061  +00   12.
 3.484  -05 1.305  +00   11.
 3.490  -05 1.013  +00   14.
 3.496  -05 6.735  -01   23.
 3.502  -05 1.347  -02  324.
 3.509  -05 0.     +00
 3.515  -05 0.     +00
 3.521  -05 0.     +00
 3.527  -05 2.388  -01   43.
 3.534  -05 6.016  -01   22.
 3.540  -05 9.610  -01   12.
 3.546  -05 6.033  -01   16.
 3.553  -05 3.912  -01   25.
 3.559  -05 2.043  -01   42.
 3.565  -05 1.300  -01   65.
 3.572  -05 9.366  -02   74.
 3.578  -05 1.194  -01   80.
 3.585  -05 1.405  -01   56.
 3.591  -05 1.883  -02  205.
 3.597  -05 6.494  -02  127.
 3.604  -05 2.170  -01   34.
 3.610  -05 4.163  -01   20.
 3.617  -05 4.226  -01   20.
 3.623  -05 4.835  -01   17.
 3.630  -05 3.882  -01   20.
 3.637  -05 3.216  -01   26.
 3.643  -05 3.866  -01   19.
 3.650  -05 8.893  -01   28.
 3.656  -05 1.173  +00   11.
 3.663  -05 1.843  +00   25.
 3.670  -05 3.470  +00   17.
 3.676  -05 6.433  +00   14.
 3.683  -05 8.702  +00   11.
 3.690  -05 9.500  +00    8.3
 3.696  -05 7.414  +00   11.
 3.703  -05 5.067  +00   18.
 3.710  -05 2.076  +00   21.
 3.717  -05 9.847  -01   29.
 3.723  -05 3.908  -01   23.
 3.730  -05 1.647  -01   38.
 3.737  -05 1.767  -01   38.
 3.744  -05 1.384  -01   50.
 3.751  -05 6.612  -02  116.
 3.758  -05 1.310  -01   50.
 3.765  -05 1.235  -01   74.
 3.772  -05 1.117  -01   93.
 3.779  -05 2.593  -02  308.
 3.785  -05 1.625  -01   45.
 3.792  -05 3.647  -01   23.
 3.799  -05 9.668  -01   20.
 3.806  -05 1.860  +00   14.
 3.814  -05 2.738  +00   15.
 3.821  -05 4.256  +00   12.
 3.828  -05 5.184  +00    8.6
 3.835  -05 4.027  +00   17.
 3.842  -05 2.232  +00   19.
 3.849  -05 9.516  -01   35.
 3.856  -05 2.481  -01   29.
 3.863  -05 2.611  -01   26.
 3.871  -05 2.569  -01   26.
 3.878  -05 2.837  -01   24.
 3.885  -05 1.765  -01   37.
 3.892  -05 1.169  -01   56.
 3.900  -05 3.558  -02  284.
 3.907  -05 1.142  -01   63.
 3.914  -05 1.724  -01   36.
 3.922  -05 4.881  -01   26.
 3.929  -05 9.006  -01   14.
 3.936  -05 1.545  +00   17.
 3.944  -05 2.350  +00     .0
 3.951  -05 2.811  +00    9.2
 3.959  -05 2.259  +00   10.
 3.966  -05 1.767  +00    9.3
 3.974  -05 1.286  +00   14.
 3.981  -05 1.241  +00   13.
 3.989  -05 1.627  +00    9.8
 4.002  -05 1.730  +00     .0
 4.009  -05 1.475  +00    7.2
 4.017  -05 1.188  +00   11.
 4.024  -05 1.375  +00   11.
 4.032  -05 1.341  +00   11.
 4.040  -05 9.910  -01   17.
 4.047  -05 4.731  -01   19.
 4.055  -05 2.364  -01   26.
 4.063  -05 1.145  -01   52.
 4.071  -05 2.533  -02  200.
 4.078  -05 1.624  -02  306.
 4.086  -05 0.     +00
 4.094  -05 7.563  -02   86.
 4.102  -05 1.178  -01   45.
 4.110  -05 7.954  -02   72.
 4.118  -05 2.126  -01   45.
 4.126  -05 0.     +00
 4.134  -05 0.     +00
 4.142  -05 0.     +00
 4.150  -05 6.667  -02  270.
 4.158  -05 9.190  -02  208.
 4.214  -05 2.046  -01   31.
 4.223  -05 7.752  -02   81.
 4.231  -05 4.714  -02  123.
 4.239  -05 1.996  -03  999.
 4.247  -05 0.     +00
 4.256  -05 3.663  -03  736.
 4.264  -05 1.573  -02  232.
 4.272  -05 0.     +00
 4.281  -05 0.     +00
 4.289  -05 9.487  -02   58.
 4.298  -05 2.939  -01   22.
 4.306  -05 6.044  -01   19.
 4.314  -05 9.771  -01   11.
 4.323  -05 1.049  +00   11.
 4.331  -05 1.042  +00   13.
 4.340  -05 1.041  +00   11.
 4.349  -05 1.049  +00   13.
 4.357  -05 7.093  -01   17.
 4.366  -05 3.527  -01   24.
 4.375  -05 1.344  -01   41.
 4.383  -05 6.698  -02   86.
 4.392  -05 0.     +00
 4.401  -05 0.     +00
 4.409  -05 0.     +00
 4.471  -05 1.526  -01   61.
 4.480  -05 4.687  -02  107.
 4.489  -05 4.767  -02   98.
 4.498  -05 7.634  -02   63.
 4.507  -05 2.907  -02  173.
 4.517  -05 0.     +00
 4.526  -05 1.890  -02  242.
 4.535  -05 0.     +00
 4.544  -05 2.615  -02  177.
 4.553  -05 0.     +00
 4.555  -05 0.     +00
 4.562  -05 2.652  -02  163.
 4.572  -05 1.539  -01   29.
 4.581  -05 2.474  -01   21.
 4.590  -05 4.451  -01   14.
 4.600  -05 6.449  -01   13.
 4.609  -05 4.493  -01   23.
 4.618  -05 2.958  -01   26.
 4.628  -05 1.732  -01   55.
 4.637  -05 1.500  -01   81.
 4.647  -05 3.372  -01   41.
 4.656  -05 3.398  -01   37.
 4.666  -05 1.845  -01   43.
 4.675  -05 2.099  -02  262.
 4.685  -05 0.     +00
 4.694  -05 0.     +00
 4.704  -05 3.801  -02  184.
 4.714  -05 2.134  -01   50.
 4.723  -05 4.791  -01   37.
 4.733  -05 6.839  -01   35.
 4.743  -05 7.240  -01   35.
 4.753  -05 5.211  -01   49.
 4.763  -05 8.524  -02  309.
 4.772  -05 0.     +00
 4.782  -05 1.019  -01  187.
 4.792  -05 2.516  -01   48.
 4.802  -05 1.486  -01   74.
 4.812  -05 0.     +00
 4.822  -05 0.     +00
 4.832  -05 3.095  -02  158.
 4.842  -05 1.457  -01   46.
 4.852  -05 4.570  -01   28.
 4.863  -05 7.103  -01   13.
 4.873  -05 5.783  -01   18.
 4.883  -05 2.802  -01   25.
 4.893  -05 2.040  -01   40.
 4.903  -05 1.910  -01   35.
 4.914  -05 3.462  -01   25.
 4.924  -05 3.351  -01   34.
 4.934  -05 2.112  -01   52.
 4.945  -05 1.820  -02  525.
 4.955  -05 0.     +00
 4.966  -05 0.     +00
 4.976  -05 0.     +00
 4.987  -05 1.121  -01  170.
 4.997  -05 6.798  -01   47.
 5.008  -05 2.412  +00   19.
 5.019  -05 2.368  +00   19.
 5.029  -05 1.618  +00   25.
 5.040  -05 5.655  -01   26.
 5.051  -05 3.376  -01   19.
 5.061  -05 4.369  -01   16.
 5.072  -05 5.116  -01   13.
 5.083  -05 2.885  -01   27.
 5.094  -05 5.417  -02   93.
 5.105  -05 0.     +00
 5.116  -05 0.     +00
 5.127  -05 8.711  -03  654.
 5.138  -05 2.088  -01   31.
 5.149  -05 4.246  -01   32.
 5.160  -05 8.522  -01   18.
 5.171  -05 1.168  +00   10.
 5.182  -05 1.232  +00   11.
 5.193  -05 9.291  -01   15.
 5.205  -05 3.379  -01   45.
 5.216  -05 0.     +00
 5.261  -05 0.     +00
 5.273  -05 1.683  -01  209.
 5.284  -05 1.949  -01   58.
 5.296  -05 1.107  -01   48.
 5.307  -05 9.021  -02   54.
 5.319  -05 1.255  -01   49.
 5.331  -05 7.341  -02  109.
 5.342  -05 4.661  -02  200.
 5.354  -05 1.073  -01  110.
 5.366  -05 1.837  -01   46.
 5.378  -05 1.987  -01   31.
 5.389  -05 1.389  -01   38.
 5.401  -05 1.088  -01   48.
 5.413  -05 1.335  -01   33.
 5.425  -05 1.499  -01   33.
 5.437  -05 2.401  -01   25.
 5.449  -05 4.631  -01   30.
 5.461  -05 7.855  -01   21.
 5.473  -05 1.107  +00   15.
 5.486  -05 1.173  +00   11.
 5.498  -05 7.560  -01   14.
 5.510  -05 2.867  -01   37.
 5.522  -05 1.694  -01   59.
 5.535  -05 1.966  -01   82.
 5.547  -05 1.895  -01   73.
 5.559  -05 4.494  -01   40.
 5.572  -05 7.292  -01   27.
 5.584  -05 1.017  +00   14.
 5.597  -05 1.009  +00   13.
 5.609  -05 5.866  -01   27.
 5.622  -05 9.044  -02  114.
 5.635  -05 0.     +00
 5.647  -05 0.     +00
 5.660  -05 1.311  -01  128.
 5.673  -05 2.511  -01   72.
 5.686  -05 4.669  -01   58.
 5.699  -05 1.123  +00   43.
 5.711  -05 2.141  +00   29.
 5.724  -05 1.958  +00   26.
 5.737  -05 7.534  -01   62.
 5.750  -05 2.215  -01  186.
 5.764  -05 0.     +00
 5.979  -05 7.613  -02  147.
 5.999  -05 1.278  -01   84.
 6.013  -05 2.548  -01   44.
 6.027  -05 1.391  -01   82.
 6.041  -05 1.918  -01   58.
 6.055  -05 2.440  -01   43.
 6.069  -05 3.479  -01   34.
 6.083  -05 5.035  -01   26.
 6.098  -05 1.015  +00   19.
 6.112  -05 1.247  +00   14.
 6.126  -05 1.122  +00   14.
 6.141  -05 7.253  -01   21.
 6.155  -05 3.723  -01   30.
 6.170  -05 9.468  -02   86.
 6.184  -05 1.186  -01   68.
 6.199  -05 6.041  -02  132.
 6.214  -05 1.359  -01   58.
 6.228  -05 2.511  -01   37.
 6.243  -05 2.630  -01   35.
 6.258  -05 2.051  -01   45.
 6.273  -05 7.534  -02  124.
 6.288  -05 0.     +00
 6.303  -05 1.364  -01   87.
 6.318  -05 3.229  -01   45.
 6.333  -05 6.244  -01   22.
 6.348  -05 8.429  -01   19.
 6.363  -05 1.478  +00   22.
 6.378  -05 2.695  +00   22.
 6.393  -05 3.058  +00   10.
 6.409  -05 2.189  +00   14.
 6.424  -05 1.525  +00   10.
 6.440  -05 1.663  +00   11.
 6.455  -05 1.921  +00   12.
 6.471  -05 2.596  +00   15.
 6.486  -05 4.294  +00   19.
 6.502  -05 5.010  +00   11.
 6.761  -05 7.585  +00   15.
 6.778  -05 3.383  +00   39.
 6.794  -05 1.229  +00   36.
 6.811  -05 5.712  -01   34.
 6.828  -05 7.317  -01   27.
 6.845  -05 3.785  -01   34.
 6.862  -05 1.527  -01   54.
 6.879  -05 1.896  -01   46.
 6.896  -05 3.328  -01   23.
 6.913  -05 5.145  -01   17.
 6.931  -05 8.461  -01   15.
 6.948  -05 1.279  +00   11.
 6.965  -05 1.220  +00   15.
 6.983  -05 6.739  -01   22.
 7.000  -05 2.109  -01   33.
 7.018  -05 3.730  -02  174.
 7.036  -05 4.044  -02  147.
 7.053  -05 2.309  -01   36.
 7.071  -05 4.278  -01   21.
 7.089  -05 6.625  -01   15.
 7.107  -05 9.972  -01   18.
 7.125  -05 1.160  +00   13.
 7.143  -05 9.778  -01   13.
 7.161  -05 8.724  -01   13.
 7.179  -05 5.268  -01   31.
 7.197  -05 2.117  -01   31.
 7.216  -05 2.874  -02  211.
 7.637  -05 2.373  -01   44.
 7.658  -05 3.717  -01   18.
 7.678  -05 3.868  -01   14.
 7.698  -05 2.326  -01   33.
 7.718  -05 1.036  -01   43.
 7.738  -05 1.825  -01   36.
 7.759  -05 2.303  -01   49.
 7.779  -05 5.203  -01   34.
 7.800  -05 8.415  -01   17.
 7.821  -05 7.122  -01   15.
 7.842  -05 5.878  -01   14.
 7.862  -05 3.454  -01   38.
 7.883  -05 1.915  -01   33.
 7.904  -05 3.344  -01   31.
 7.925  -05 5.541  -01   21.
 7.947  -05 5.511  -01   18.
 7.968  -05 4.052  -01   16.
 7.989  -05 3.912  -01   18.
 7.995  -05 3.912  -01   18.
 8.017  -05 5.295  -01   15.
 8.038  -05 4.169  -01   26.
 8.049  -05 2.697  -01   40.
 8.060  -05 1.965  -01   45.
 8.071  -05 1.417  -01   66.
 8.082  -05 1.555  -01   67.
 8.092  -05 2.399  -01   44.
 8.103  -05 2.768  -01   43.
 8.114  -05 2.378  -01   44.
 8.125  -05 2.698  -01   38.
 8.136  -05 4.497  -01   38.
 8.147  -05 4.735  -01   25.
 8.158  -05 6.443  -01   33.
 8.169  -05 5.607  -01   26.
 8.180  -05 4.756  -01   29.
 8.191  -05 4.924  -01   27.
 8.203  -05 5.122  -01   27.
 8.214  -05 4.609  -01   34.
 8.225  -05 3.421  -01   41.
 8.236  -05 2.455  -01   50.
 8.247  -05 1.588  -01   88.
 8.258  -05 2.048  -01   64.
 8.270  -05 1.663  -01   89.
 8.281  -05 2.717  -01   47.
 8.292  -05 2.202  -01   68.
 8.304  -05 2.199  -01   56.
 8.315  -05 2.404  -01   66.
 8.326  -05 1.838  -01   79.
 8.338  -05 1.907  -01   80.
 8.349  -05 2.244  -01   71.
 8.361  -05 1.600  -01   97.
 8.372  -05 2.280  -01  104.
 8.383  -05 1.803  -01   85.
 8.395  -05 2.950  -01   76.
 8.407  -05 5.851  -01   47.
 8.418  -05 6.934  -01   36.
 8.430  -05 9.195  -01   31.
 8.441  -05 8.848  -01   34.
 8.453  -05 6.364  -01   47.
 8.464  -05 1.253  -01  206.
 8.654  -05 6.917  -02  225.
 8.666  -05 4.252  -02  427.
 8.678  -05 2.264  -01   70.
 8.690  -05 2.801  -01   53.
 8.703  -05 2.860  -01   47.
 8.715  -05 4.880  -01   25.
 8.727  -05 7.083  -01   28.
 8.739  -05 9.850  -01   15.
 8.751  -05 1.531  +00   19.
 8.764  -05 2.021  +00   11.
 8.776  -05 2.246  +00   11.
 8.788  -05 2.107  +00   22.
 8.801  -05 1.407  +00   20.
 8.813  -05 6.075  -01   17.
 8.825  -05 3.849  -01   28.
 8.838  -05 2.420  -01   36.
 8.850  -05 2.495  -01   27.
 8.863  -05 3.719  -01   31.
 8.875  -05 3.519  -01   23.
 8.888  -05 5.110  -01   21.
 8.900  -05 4.216  -01   22.
 8.913  -05 5.908  -01   16.
 8.926  -05 7.435  -01   19.
 8.938  -05 8.472  -01   15.
 8.951  -05 6.457  -01   16.
 8.964  -05 4.584  -01   20.
 8.976  -05 3.209  -01   28.
 8.989  -05 1.513  -01   56.
 9.002  -05 5.253  -02  178.
 9.015  -05 2.044  -03  999.
 9.027  -05 4.858  -02  255.
 9.040  -05 1.323  -02  999.
 9.053  -05 1.176  -02  999.
 9.066  -05 0.     +00
 9.079  -05 0.     +00
 9.092  -05 1.078  -02  999.
 9.105  -05 2.093  -01   67.
 9.118  -05 1.320  -01   62.
 9.131  -05 3.955  -02  162.
 9.144  -05 9.522  -02   77.
 9.157  -05 1.363  -01   52.
 9.170  -05 1.020  -01   88.
 9.183  -05 1.405  -01   61.
 9.197  -05 2.525  -01   35.
 9.210  -05 2.763  -01   28.
 9.223  -05 2.328  -01   47.
 9.236  -05 2.710  -01   32.
 9.250  -05 3.259  -01   26.
 9.263  -05 4.830  -01   18.
 9.276  -05 6.444  -01   24.
 9.290  -05 8.562  -01   15.
 9.303  -05 1.033  +00   13.
 9.317  -05 1.095  +00   13.
 9.330  -05 1.011  +00   16.
 9.344  -05 7.186  -01   27.
 9.357  -05 3.961  -01   29.
 9.371  -05 2.034  -01   44.
 9.384  -05 1.295  -01   76.
 9.398  -05 1.412  -01   66.
 9.412  -05 2.139  -01   52.
 9.425  -05 2.995  -01   41.
 9.453  -05 2.596  -01   52.
 9.467  -05 3.240  -01   53.
 9.480  -05 4.012  -01   55.
 9.494  -05 5.269  -01   54.
 9.508  -05 3.651  -01   70.
 9.522  -05 6.311  -01   49.
 9.536  -05 1.190  +00   42.
 9.550  -05 1.338  +00   35.
 9.564  -05 1.711  +00   25.
 9.578  -05 1.691  +00   24.
 9.592  -05 1.966  +00   26.
 9.606  -05 1.785  +00   18.
 9.620  -05 1.244  +00   23.
 9.634  -05 9.131  -01   26.
 9.648  -05 5.798  -01   43.
 9.663  -05 1.620  -01   88.
 9.677  -05 6.048  -02  221.
 9.691  -05 7.030  -02  164.
 9.705  -05 6.986  -02  162.
 9.720  -05 1.924  -01   70.
 9.734  -05 2.333  -01   52.
 9.749  -05 2.017  -01   72.
 9.763  -05 1.464  -01   79.
 9.777  -05 4.934  -02  229.
 9.792  -05 1.327  -01   90.
 9.806  -05 2.459  -01   49.
 9.821  -05 2.999  -01   31.
 9.836  -05 2.364  -01   36.
 9.850  -05 1.848  -01   46.
 9.865  -05 2.267  -01   35.
 9.880  -05 2.055  -01   42.
 9.894  -05 2.153  -01   55.
 9.909  -05 1.034  -01   78.
 9.924  -05 1.419  -01   59.
 9.939  -05 1.296  -01   63.
 9.953  -05 1.702  -01   68.
 9.968  -05 2.448  -01   36.
 9.983  -05 2.354  -01   45.
 9.998  -05 2.125  -01   45.
 1.001  -04 3.827  -01   29.
 1.003  -04 1.491  -01   82.
 1.006  -04 2.715  -01   39.
 1.007  -04 2.093  -01   50.
 1.009  -04 2.451  -01   39.
 1.010  -04 2.883  -01   38.
 1.012  -04 4.131  -01   29.
 1.013  -04 6.204  -01   19.
 1.015  -04 7.108  -01   17.
 1.016  -04 7.859  -01   16.
 1.018  -04 6.856  -01   22.
 1.020  -04 7.811  -01   15.
 1.021  -04 6.253  -01   23.
 1.023  -04 7.030  -01   18.
 1.024  -04 8.238  -01   19.
 1.026  -04 9.384  -01   15.
 1.027  -04 1.193  +00   16.
 1.029  -04 1.659  +00   12.
 1.030  -04 1.798  +00   12.
 1.032  -04 1.440  +00   23.
 1.034  -04 8.247  -01   18.
 1.035  -04 4.336  -01   25.
 1.037  -04 3.953  -01   30.
 1.038  -04 3.209  -01   33.
 1.040  -04 2.549  -01   41.
 1.041  -04 4.170  -01   23.
 1.043  -04 5.626  -01   19.
 1.045  -04 5.983  -01   19.
 1.046  -04 7.998  -01   15.
 1.048  -04 8.353  -01   16.
 1.049  -04 9.211  -01   15.
 1.051  -04 8.966  -01   17.
 1.053  -04 8.788  -01   19.
 1.054  -04 1.089  +00   15.
 1.056  -04 1.269  +00   15.
 1.058  -04 1.827  +00   13.
 1.059  -04 2.172  +00   12.
 1.061  -04 2.310  +00   14.
 1.062  -04 1.681  +00   16.
 1.064  -04 1.229  +00   20.
 1.066  -04 5.662  -01   44.
 1.072  -04 5.375  -01   25.
 1.074  -04 4.993  -01   24.
 1.076  -04 4.309  -01   25.
 1.077  -04 4.266  -01   25.
 1.079  -04 2.801  -01   30.
 1.081  -04 2.385  -01   50.
 1.082  -04 3.075  -01   29.
 1.084  -04 3.396  -01   26.
 1.086  -04 4.216  -01   23.
 1.088  -04 5.912  -01   18.
 1.089  -04 6.808  -01   16.
 1.091  -04 9.051  -01   14.
 1.093  -04 1.041  +00   13.
 1.094  -04 1.286  +00   13.
 1.096  -04 1.574  +00   12.
 1.098  -04 1.878  +00   12.
 1.100  -04 1.702  +00   13.
 1.101  -04 1.390  +00   13.
 1.103  -04 9.463  -01   15.
 1.105  -04 5.753  -01   19.
 1.106  -04 4.471  -01   27.
 1.108  -04 4.502  -01   35.
 1.110  -04 4.608  -01   26.
 1.112  -04 6.138  -01   23.
 1.113  -04 7.608  -01   22.
 1.115  -04 6.914  -01   26.
 1.117  -04 4.986  -01   40.
 1.119  -04 3.686  -01   56.
 1.121  -04 2.433  -01   78.
 1.122  -04 3.825  -01   96.
 1.124  -04 5.703  -01   81.
 1.126  -04 7.119  -01   96.
 1.128  -04 1.068  +00   51.
 1.129  -04 1.679  +00   32.
 1.131  -04 1.244  +00   35.
 1.133  -04 7.484  -01   29.
 1.135  -04 6.476  -01   25.
 1.137  -04 6.253  -01   22.
 1.138  -04 5.642  -01   25.
 1.140  -04 4.623  -01   34.
 1.142  -04 3.697  -01   31.
 1.144  -04 3.958  -01   34.
 1.146  -04 3.819  -01   39.
 1.148  -04 4.884  -01   24.
 1.149  -04 6.101  -01   23.
 1.151  -04 5.655  -01   22.
 1.153  -04 4.811  -01   34.
 1.155  -04 4.169  -01   48.
 1.157  -04 2.389  -01   69.
 1.159  -04 2.990  -01   59.
 1.161  -04 4.166  -01   49.
 1.163  -04 4.968  -01   47.
 1.164  -04 5.075  -01   45.
 1.166  -04 2.970  -01   51.
 1.191  -04 4.818  -01  151.
 1.193  -04 1.026  +00   52.
 1.195  -04 1.098  +00   66.
 1.197  -04 1.180  +00   52.
 1.200  -04 1.640  +00   39.
 1.202  -04 1.745  +00   44.
 1.204  -04 2.287  +00   34.
 1.206  -04 2.370  +00   29.
 1.208  -04 1.600  +00   49.
 1.210  -04 8.972  -01   59.
 1.212  -04 5.093  -01   58.
 1.214  -04 5.855  -01   35.
 1.216  -04 6.678  -01   24.
 1.218  -04 7.545  -01   23.
 1.220  -04 8.223  -01   21.
 1.222  -04 8.930  -01   18.
 1.224  -04 1.024  +00   15.
 1.226  -04 8.826  -01   15.
 1.228  -04 8.575  -01   17.
 1.230  -04 1.180  +00   15.
 1.232  -04 1.081  +00   15.
 1.234  -04 6.994  -01   32.
 1.236  -04 3.155  -01   45.
 1.238  -04 4.250  -01   34.
 1.240  -04 3.869  -01   35.
 1.242  -04 3.642  -01   28.
 1.244  -04 3.641  -01   33.
 1.248  -04 4.843  -01   32.
 1.250  -04 4.978  -01   27.
 1.253  -04 4.372  -01   31.
 1.255  -04 3.660  -01   35.
 1.257  -04 4.057  -01   40.
 1.259  -04 5.242  -01   30.
 1.261  -04 2.512  -01   61.
 1.263  -04 2.813  -01   44.
 1.265  -04 2.430  -01   76.
 1.267  -04 3.506  -01   46.
 1.269  -04 3.308  -01   35.
 1.272  -04 2.789  -01   54.
 1.274  -04 2.113  -01   67.
 1.276  -04 2.948  -01   44.
 1.278  -04 4.508  -01   36.
 1.280  -04 3.521  -01   36.
 1.282  -04 2.934  -01   45.
 1.285  -04 5.165  -01   49.
 1.287  -04 3.779  -01   43.
 1.289  -04 2.621  -01   54.
 1.291  -04 6.411  -01   67.
 1.293  -04 4.411  -01   45.
 1.296  -04 4.522  -01   42.
 1.298  -04 4.383  -01   53.
 1.300  -04 4.664  -01   46.
 1.302  -04 4.370  -01   39.
 1.304  -04 2.678  -01   75.
 1.307  -04 3.834  -01   57.
 1.309  -04 4.496  -01   47.
 1.311  -04 5.930  -01   37.
 1.313  -04 6.520  -01   32.
 1.316  -04 4.284  -01   49.
 1.318  -04 4.380  -01   46.
 1.320  -04 6.183  -01   35.
 1.322  -04 4.374  -01   40.
 1.327  -04 5.482  -01   37.
 1.329  -04 6.884  -01   32.
 1.332  -04 7.359  -01   27.
 1.334  -04 1.112  +00   25.
 1.336  -04 8.956  -01   22.
 1.339  -04 9.338  -01   21.
 1.341  -04 1.011  +00   22.
 1.343  -04 1.513  +00   16.
 1.346  -04 1.645  +00   16.
 1.348  -04 1.706  +00   14.
 1.350  -04 1.717  +00   19.
 1.353  -04 1.760  +00   15.
 1.355  -04 1.580  +00   14.
 1.357  -04 1.314  +00   16.
 1.360  -04 1.622  +00   21.
 1.362  -04 1.784  +00   14.
 1.364  -04 1.635  +00   20.
 1.367  -04 1.069  +00   20.
 1.369  -04 5.645  -01   46.
 1.372  -04 6.537  -01   42.
 1.374  -04 8.097  -01   26.
 1.376  -04 4.659  -01   46.
 1.379  -04 5.487  -01   44.
 1.381  -04 7.428  -01   36.
 1.384  -04 7.677  -01   34.
 1.386  -04 1.036  +00   32.
 1.389  -04 7.173  -01   63.
 1.391  -04 6.653  -01   61.
 1.394  -04 8.586  -01   71.
 1.396  -04 1.367  +00   51.
 1.398  -04 1.105  +00   46.
 1.401  -04 1.028  +00   51.
 1.403  -04 8.190  -01   41.
 1.406  -04 8.541  -01   25.
 1.408  -04 1.075  +00   23.
 1.411  -04 1.229  +00   16.
 1.413  -04 1.283  +00   17.
 1.416  -04 8.860  -01   17.
 1.419  -04 5.409  -01   26.
 1.421  -04 4.867  -01   50.
 1.424  -04 4.670  -01   37.
 1.426  -04 4.109  -01   37.
 1.429  -04 5.315  -01   49.
 1.431  -04 5.864  -01   36.
 1.434  -04 5.105  -01   34.
 1.436  -04 5.415  -01   32.
 1.439  -04 7.336  -01   31.
 1.442  -04 7.033  -01   23.
 1.444  -04 7.814  -01   19.
 1.447  -04 6.179  -01   26.
 1.449  -04 4.885  -01   44.
 1.452  -04 4.702  -01   37.
 1.455  -04 6.213  -01   26.
 1.457  -04 9.375  -01   23.
 1.460  -04 8.941  -01   33.
 1.463  -04 9.161  -01   23.
 1.465  -04 1.023  +00   20.
 1.468  -04 1.064  +00   23.
 1.471  -04 9.823  -01   26.
 1.473  -04 1.307  +00   19.
 1.476  -04 1.462  +00   19.
 1.479  -04 1.651  +00   28.
 1.481  -04 1.111  +00   26.
 1.484  -04 1.150  +00   25.
 1.487  -04 1.211  +00   27.
 1.489  -04 1.205  +00   36.
 1.492  -04 1.268  +00   29.
 1.495  -04 1.704  +00   29.
 1.498  -04 1.657  +00   32.
 1.500  -04 1.930  +00   28.
 1.503  -04 2.163  +00   23.
 1.506  -04 1.382  +00   33.
 1.509  -04 1.468  +00   24.
 1.511  -04 1.537  +00   20.
 1.514  -04 1.161  +00   21.
 1.517  -04 8.664  -01   25.
 1.520  -04 7.041  -01   30.
 1.523  -04 6.339  -01   28.
 1.525  -04 7.437  -01   27.
 1.528  -04 7.716  -01   29.
 1.531  -04 7.889  -01   24.
 1.534  -04 8.325  -01   28.
 1.537  -04 9.431  -01   30.
 1.540  -04 6.037  -01   41.
 1.542  -04 6.507  -01   41.
 1.545  -04 8.403  -01   34.
 1.548  -04 9.295  -01   35.
 1.551  -04 1.006  +00   28.
 1.554  -04 9.785  -01   29.
 1.557  -04 1.108  +00   25.
 1.560  -04 1.010  +00   27.
 1.563  -04 7.888  -01   28.
 1.566  -04 4.448  -01   51.
 1.569  -04 4.004  -01   62.
 1.572  -04 6.848  -01   33.
 1.575  -04 3.657  -01   62.
 1.577  -04 3.348  -01   64.
 1.580  -04 5.070  -01   45.
 1.583  -04 4.636  -01   53.
 1.586  -04 6.377  -01   32.
 1.589  -04 7.740  -01   31.
 1.592  -04 7.420  -01   24.
 1.595  -04 4.456  -01   38.
 1.600  -04 4.029  -01   43.
 1.603  -04 1.286  -01  100.
 1.606  -04 3.418  -01   56.
 1.609  -04 6.633  -01   49.
 1.612  -04 3.512  -01   82.
 1.615  -04 5.953  -01   32.
 1.618  -04 5.794  -01   42.
 1.621  -04 5.560  -01   39.
 1.624  -04 6.330  -01   36.
 1.627  -04 5.208  -01   38.
 1.631  -04 5.668  -01   44.
 1.634  -04 5.951  -01   38.
 1.637  -04 5.440  -01   47.
 1.640  -04 5.440  -01   42.
 1.646  -04 5.517  -01   41.
 1.649  -04 7.625  -01   42.
 1.653  -04 7.927  -01   34.
 1.656  -04 3.639  -01   54.
 1.659  -04 2.555  -01   94.
 1.662  -04 8.098  -02  279.
 1.665  -04 1.690  -01  111.
 1.669  -04 2.003  -01  116.
 1.672  -04 2.243  -01  108.
 1.675  -04 2.485  -01  107.
 1.678  -04 3.974  -02  611.
 1.685  -04 0.     +00
 1.685  -04 3.134  -02  844.
 1.688  -04 3.418  -01   88.
 1.691  -04 3.623  -01   81.
 1.695  -04 3.638  -01   76.
 1.698  -04 4.178  -01   58.
 1.701  -04 0.     +00
 1.705  -04 3.740  -01   66.
 1.708  -04 2.865  -01   67.
 1.711  -04 2.398  -01  113.
 1.715  -04 3.954  -01   57.
 1.718  -04 5.508  -01   48.
 1.722  -04 4.087  -01   64.
 1.725  -04 2.053  -01   91.
 1.728  -04 0.     +00
 1.732  -04 3.511  -01   53.
 1.735  -04 6.608  -01   36.
 1.739  -04 7.185  -01   50.
 1.742  -04 7.113  -01   36.
 1.745  -04 6.165  -01   46.
 1.749  -04 3.127  -01   79.
 1.752  -04 0.     +00
 1.756  -04 5.013  -01   41.
 1.759  -04 6.143  -01   35.
 1.763  -04 6.105  -01   52.
 1.766  -04 8.588  -01   28.
 1.770  -04 7.150  -01   32.
 1.773  -04 4.332  -01   54.
 1.777  -04 6.399  -01   37.
 1.781  -04 7.619  -01   31.
 1.784  -04 1.041  +00   41.
 1.788  -04 7.017  -01   36.
 1.791  -04 7.495  -01   31.
 1.795  -04 1.028  +00   28.
 1.798  -04 1.094  +00   25.
 1.802  -04 1.149  +00   27.
 1.806  -04 9.223  -01   50.
 1.809  -04 8.784  -01   33.
 1.813  -04 1.036  +00   28.
 1.817  -04 8.069  -01   44.
 1.820  -04 7.229  -01   41.
 1.824  -04 1.008  +00   29.
 1.828  -04 1.561  +00   21.
 1.831  -04 1.490  +00   22.
 1.835  -04 1.182  +00   29.
 1.839  -04 1.128  +00   26.
 1.843  -04 1.486  +00   20.
 1.846  -04 1.585  +00   24.
 1.850  -04 9.394  -01   31.
 1.854  -04 8.248  -01   28.
 1.858  -04 9.166  -01   33.
 1.861  -04 9.754  -01   26.
 1.865  -04 1.040  +00   28.
 1.869  -04 9.889  -01   30.
 1.873  -04 8.005  -01   37.
 1.877  -04 7.740  -01   41.
 1.881  -04 7.525  -01   50.
 1.884  -04 9.559  -01   35.
 1.888  -04 8.328  -01   39.
 1.892  -04 6.430  -01   63.
 1.896  -04 1.246  +00   25.
 1.900  -04 1.145  +00   27.
 1.904  -04 8.263  -01   39.
 1.908  -04 6.063  -01   49.
 1.912  -04 2.654  -01  132.
 1.916  -04 4.481  -02  749.
 1.920  -04 2.988  -01  131.
 1.924  -04 6.839  -01   41.
 1.928  -04 5.871  -01   46.
 1.932  -04 0.     +00
 1.936  -04 3.937  -01   78.
 1.940  -04 5.332  -01   55.
 1.944  -04 2.907  -01  130.
 1.948  -04 1.765  -01  231.
 1.952  -04 2.517  -01  118.
 1.956  -04 2.319  -01  182.
 1.960  -04 3.792  -01   87.
 1.964  -04 4.275  -01   99.
 1.969  -04 5.375  -01   91.
 1.973  -04 8.152  -01   38.
 1.977  -04 1.110  +00   30.
 1.981  -04 9.123  -01   36.
 1.985  -04 9.607  -01   32.
 1.989  -04 6.200  -01   50.
 1.994  -04 6.736  -01   47.
 1.998  -04 8.346  -01   60.
 2.001  -04 9.094  -01   37.
 2.006  -04 1.008  +00   32.
 2.010  -04 1.155  +00   31.
 2.014  -04 1.026  +00   30.
 2.019  -04 1.282  +00   26.
 2.023  -04 1.131  +00   29.
 2.027  -04 6.202  -01   55.
 2.031  -04 8.177  -01   36.
 2.036  -04 1.064  +00   36.
 2.040  -04 9.197  -01   44.
 2.045  -04 9.968  -01   41.
 2.049  -04 1.151  +00   36.
 2.053  -04 1.345  +00   29.
 2.058  -04 1.433  +00   38.
 2.062  -04 1.314  +00   25.
 2.067  -04 3.734  -01  151.
 2.071  -04 1.844  -01  216.
 2.076  -04 2.735  -01  167.
 2.080  -04 1.348  -01  267.
 2.085  -04 2.521  -01  170.
 2.089  -04 4.853  -02  575.
 2.094  -04 3.023  -01  145.
 2.098  -04 1.307  -01  245.
 2.103  -04 2.482  -01  149.
 2.107  -04 3.646  -01  119.
 2.112  -04 5.974  -01   53.
 2.116  -04 1.580  -01  250.
 2.121  -04 8.063  -01   40.
 2.126  -04 1.018  +00   41.
 2.130  -04 1.042  +00   43.
 2.135  -04 1.151  +00   40.
 2.140  -04 1.431  +00   28.
 2.144  -04 1.610  +00   45.
 2.149  -04 5.957  -01   88.
 2.154  -04 2.279  -01  180.
 2.159  -04 7.834  -01   94.
 2.163  -04 9.553  -01   55.
 2.168  -04 5.211  -01   82.
 2.173  -04 3.263  -01  147.
 2.178  -04 8.232  -01   58.
 2.183  -04 8.523  -01   52.
 2.187  -04 1.103  +00   33.
 2.192  -04 1.078  +00   40.
 2.197  -04 1.213  +00   32.
 2.202  -04 1.242  +00   38.
 2.207  -04 1.113  +00   34.
 2.212  -04 1.118  +00   39.
 2.217  -04 1.065  +00   51.
 2.222  -04 1.259  +00   36.
 2.227  -04 1.114  +00   42.
 2.232  -04 8.600  -01   80.
 2.237  -04 1.683  +00   30.
 2.242  -04 1.905  +00   24.
 2.247  -04 1.384  +00   38.
 2.252  -04 6.343  -01   94.
 2.257  -04 2.014  -01  197.
 2.262  -04 8.832  -02  423.
 2.267  -04 1.133  -01  368.
 2.272  -04 5.912  -03  999.
 2.277  -04 1.780  -01  263.
 2.282  -04 2.243  -03  999.
 2.288  -04 1.561  -01  294.
 2.293  -04 8.018  -02  557.
 2.298  -04 1.973  -02  999.
 2.303  -04 5.077  -02  667.
 2.309  -04 5.150  -01  101.
 2.314  -04 9.425  -01   47.
 2.319  -04 8.590  -01   59.
 2.324  -04 8.656  -02  419.
 2.330  -04 5.675  -01   91.
 2.335  -04 9.872  -01   75.
 2.340  -04 9.412  -01   54.
 2.346  -04 5.860  -01   89.
 2.351  -04 2.796  -01  166.
 2.357  -04 1.055  -01  363.
 2.362  -04 2.379  -01  174.
 2.367  -04 1.424  -01  269.
 2.373  -04 5.933  -01   82.
 2.378  -04 8.726  -01   73.
 2.384  -04 1.105  +00   43.
 2.389  -04 4.010  -01  141.
 2.395  -04 9.949  -01   49.
 2.400  -04 7.565  -01   72.
 2.406  -04 0.     +00
 2.417  -04 3.378  -01  142.
 2.423  -04 4.000  -01  133.
 2.429  -04 4.995  -01   95.
 2.434  -04 2.919  -01  164.
 2.440  -04 9.405  -01   64.
 2.446  -04 1.186  +00   63.
 2.451  -04 1.212  +00   45.
 2.457  -04 3.994  -01   98.
 2.463  -04 2.909  -01  147.
 2.469  -04 3.412  -01  142.
 2.475  -04 5.088  -01   93.
 2.480  -04 5.691  -01   96.
 2.486  -04 2.538  -01  182.
 2.492  -04 5.902  -01   98.
 2.498  -04 9.993  -01   49.
 2.504  -04 8.349  -01   68.
 2.510  -04 8.313  -01   89.
 2.516  -04 1.191  +00   45.
 2.522  -04 1.421  +00   46.
 2.528  -04 1.267  +00   34.
 2.534  -04 1.117  +00   45.
 2.540  -04 1.358  +00   32.
 2.546  -04 1.338  +00   30.
 2.552  -04 1.323  +00   34.
 2.558  -04 1.263  +00   38.
 2.564  -04 1.237  +00   55.
 2.571  -04 1.504  +00   34.
 2.577  -04 1.412  +00   37.
 2.583  -04 1.151  +00   41.
 2.589  -04 1.524  +00   65.
 2.596  -04 1.283  +00   73.
 2.602  -04 9.589  -01   89.
 2.608  -04 1.406  +00   34.
 2.614  -04 1.472  +00   32.
 2.621  -04 1.325  +00   39.
 2.627  -04 1.123  +00   43.
 2.634  -04 1.598  +00   31.
 2.640  -04 1.191  +00   63.
 2.646  -04 5.889  -01  119.
 2.653  -04 3.079  -01  180.
 2.659  -04 7.770  -01   66.
 2.666  -04 9.995  -01   69.
 2.672  -04 0.     +00
 2.679  -04 0.     +00
 2.685  -04 3.533  -01  142.
 2.692  -04 2.062  -01  316.
 2.699  -04 2.874  -01  272.
 2.705  -04 3.991  -01  175.
 2.712  -04 0.     +00
 2.719  -04 2.639  -01  211.
 2.725  -04 7.897  -01   62.
 2.732  -04 1.229  +00   42.
 2.739  -04 1.505  +00   40.
 2.746  -04 1.454  +00   43.
 2.753  -04 1.450  +00   36.
 2.760  -04 1.446  +00   35.
 2.766  -04 1.510  +00   40.
 2.773  -04 1.045  +00   54.
 2.780  -04 1.331  +00   45.
 2.787  -04 1.609  +00   35.
 2.794  -04 1.785  +00   30.
 2.801  -04 1.385  +00   54.
 2.808  -04 1.690  +00   36.
 2.815  -04 0.     +00
 2.822  -04 1.693  +00   42.
 2.830  -04 2.044  +00   30.
 2.837  -04 1.621  +00   36.
 2.844  -04 1.759  +00   33.
 2.851  -04 1.754  +00   30.
 2.858  -04 1.560  +00   34.
 2.866  -04 1.565  +00   40.
 2.873  -04 1.478  +00   51.
 2.880  -04 2.093  +00   31.
 2.887  -04 2.080  +00   22.
 2.895  -04 1.636  +00   28.
 2.902  -04 1.317  +00   46.
 2.910  -04 1.268  +00   47.
 2.917  -04 1.589  +00   31.
 2.925  -04 1.769  +00   27.
 2.932  -04 2.177  +00   23.
 2.940  -04 1.861  +00   30.
 2.947  -04 1.611  +00   32.
 2.955  -04 1.566  +00   36.
 2.962  -04 1.424  +00   40.
 2.970  -04 1.671  +00   31.
 2.978  -04 1.875  +00   30.
 2.985  -04 1.701  +00   33.
 2.993  -04 1.634  +00   33.
 3.001  -04 1.073  +00   68.
 3.009  -04 1.447  +00   41.
 3.017  -04 1.512  +00   34.
 3.024  -04 1.842  +00   28.
 3.032  -04 2.331  +00   23.
 3.040  -04 1.740  +00   38.
 3.048  -04 1.674  +00   38.
 3.056  -04 2.199  +00   29.
 3.064  -04 2.047  +00   25.
 3.072  -04 1.661  +00   42.
 3.080  -04 1.699  +00   26.
 3.089  -04 2.095  +00   24.
 3.097  -04 2.068  +00   25.
 3.105  -04 1.525  +00   34.
 3.113  -04 1.331  +00   43.
 3.121  -04 1.340  +00   47.
 3.130  -04 1.599  +00   38.
 3.138  -04 1.243  +00   51.
 3.146  -04 1.600  +00   47.
 3.155  -04 1.453  +00   48.
 3.163  -04 1.253  +00   54.
 3.171  -04 1.297  +00   63.
 3.180  -04 1.490  +00   43.
 3.188  -04 2.036  +00   27.
 3.197  -04 1.925  +00   41.
 3.206  -04 1.706  +00   30.
 3.214  -04 1.595  +00   45.
 3.223  -04 1.773  +00   30.
 3.232  -04 2.078  +00   30.
 3.240  -04 1.349  +00   42.
 3.276  -04 1.343  +00   68.
 3.284  -04 1.563  +00   62.
 3.293  -04 1.431  +00   64.
 3.302  -04 1.273  +00   71.
 3.320  -04 1.505  +00   44.
 3.330  -04 1.308  +00   49.
 3.339  -04 1.347  +00   35.
 3.348  -04 1.379  +00   40.
 3.357  -04 8.767  -01   79.
 3.366  -04 1.346  +00   39.
 3.375  -04 1.347  +00   56.
 3.385  -04 1.228  +00   45.
 3.394  -04 1.499  +00   36.
 3.404  -04 1.081  +00   98.
 3.413  -04 1.294  +00   57.
 3.422  -04 1.769  +00   50.
 3.432  -04 1.659  +00   33.
 3.442  -04 2.170  +00   28.
 3.451  -04 1.417  +00   52.
 3.461  -04 1.818  +00   35.
 3.470  -04 1.887  +00   43.
 3.480  -04 7.557  -01   88.
 3.490  -04 1.463  +00   45.
 3.500  -04 3.867  -01  145.
 3.509  -04 1.785  +00   41.
 3.519  -04 1.765  +00   34.
 3.529  -04 1.539  +00   40.
 3.539  -04 2.239  +00   41.
 3.549  -04 2.518  +00   57.
 3.559  -04 1.637  +00   33.
 3.569  -04 1.643  +00   36.
 3.579  -04 2.031  +00   25.
 3.590  -04 3.317  +00   42.
 3.600  -04 1.942  +00   30.
 3.610  -04 1.628  +00   36.
 3.620  -04 2.059  +00   27.
 3.631  -04 1.693  +00   36.
 3.641  -04 2.131  +00   25.
 3.652  -04 1.726  +00   42.
 3.662  -04 1.413  +00   41.
 3.673  -04 1.546  +00   47.
 3.683  -04 1.099  +00   84.
 3.694  -04 1.666  +00   57.
 3.704  -04 1.416  +00   46.
 3.715  -04 1.878  +00   26.
 3.726  -04 2.152  +00   24.
 3.737  -04 1.941  +00   28.
 3.748  -04 1.983  +00   30.
 3.758  -04 2.070  +00   33.
 3.769  -04 2.352  +00   33.
 3.780  -04 2.801  +00   28.
 3.791  -04 1.900  +00   30.
 3.803  -04 1.637  +00   37.
 3.814  -04 1.914  +00   27.
 3.825  -04 1.556  +00   41.
 3.836  -04 2.034  +00   33.
 3.847  -04 2.833  +00   22.
 3.859  -04 1.873  +00   27.
 3.870  -04 1.510  +00   38.
 3.882  -04 1.533  +00   48.
 3.893  -04 1.593  +00   49.
 3.905  -04 1.718  +00   42.
 3.916  -04 1.616  +00   57.
 3.928  -04 1.459  +00   48.
 3.939  -04 1.054  +00   58.
 3.951  -04 1.611  +00   34.
 3.963  -04 1.324  +00   52.
 3.975  -04 1.965  +00   29.
 3.987  -04 1.302  +00   42.
 3.999  -04 1.927  +00   28.
 4.011  -04 1.453  +00   36.
 4.023  -04 2.010  +00   26.
 4.035  -04 1.745  +00   35.
 4.047  -04 2.302  +00   25.
 4.059  -04 2.211  +00   32.
 4.072  -04 1.938  +00   30.
 4.084  -04 1.731  +00   36.
 4.096  -04 1.912  +00   36.
 4.109  -04 1.527  +00   66.
 4.121  -04 2.349  +00   31.
 4.134  -04 2.225  +00   31.
 4.147  -04 1.845  +00   38.
 4.159  -04 1.698  +00   36.
 4.172  -04 1.505  +00   36.
 4.185  -04 1.452  +00   36.
 4.198  -04 1.674  +00   35.
 4.211  -04 2.328  +00   36.
 4.224  -04 1.566  +00   37.
 4.237  -04 1.211  +00   39.
 4.250  -04 1.433  +00   45.
 4.263  -04 1.828  +00   30.
 4.276  -04 2.465  +00   34.
 4.289  -04 1.867  +00   28.
 4.303  -04 1.375  +00   41.
 4.316  -04 7.114  -01   91.
 4.330  -04 1.213  +00   48.
 4.343  -04 1.389  +00   52.
 4.357  -04 1.087  +00   52.
 4.370  -04 1.117  +00   64.
 4.384  -04 1.356  +00   45.
 4.398  -04 1.590  +00   54.
 4.412  -04 1.478  +00   58.
 4.426  -04 1.098  +00   58.
 4.440  -04 1.546  +00   50.
 4.454  -04 1.570  +00   35.
 4.468  -04 1.807  +00   29.
 4.482  -04 1.607  +00   34.
 4.496  -04 1.937  +00   25.
 4.511  -04 2.342  +00   22.
 4.525  -04 2.543  +00   25.
 4.540  -04 2.307  +00   22.
 4.554  -04 1.744  +00   37.
 4.569  -04 2.269  +00   37.
 4.583  -04 2.780  +00   43.
 4.598  -04 1.633  +00   34.
 4.613  -04 7.388  -01   71.
 4.628  -04 9.669  -01   57.
 4.643  -04 1.912  +00   26.
 4.658  -04 2.112  +00   26.
 4.673  -04 1.503  +00   39.
 4.688  -04 1.449  +00   41.
 4.703  -04 1.631  +00   49.
 4.719  -04 1.710  +00   37.
 4.734  -04 1.634  +00   38.
 4.750  -04 1.579  +00   37.
 4.765  -04 1.482  +00   31.
 4.781  -04 1.675  +00   28.
 4.796  -04 2.075  +00   22.
 4.812  -04 2.007  +00   23.
 4.828  -04 1.778  +00   29.
 4.844  -04 2.282  +00   28.
 4.860  -04 2.547  +00   24.
 4.876  -04 2.348  +00   27.
 4.892  -04 2.353  +00   33.
 4.909  -04 2.403  +00   31.
 4.925  -04 2.332  +00   45.
 4.941  -04 1.620  +00   44.
 4.958  -04 1.475  +00   35.
 4.974  -04 1.594  +00   43.
 4.991  -04 1.677  +00   40.
 5.008  -04 1.666  +00   51.
 5.025  -04 1.482  +00   50.
 5.042  -04 1.272  +00   50.
 5.059  -04 6.542  -01  156.
 5.076  -04 1.848  +00   60.
 5.093  -04 1.360  +00   64.
 5.110  -04 6.296  -01  173.
 5.128  -04 8.487  -01  115.
 5.145  -04 1.770  +00   46.
 5.163  -04 1.234  +00   89.
 5.180  -04 1.347  +00  112.
 5.198  -04 1.207  +00   92.
 5.216  -04 1.228  +00   89.
 5.234  -04 1.047  +00  108.
 5.252  -04 1.515  +00   67.
 5.270  -04 6.032  -01  195.
 5.288  -04 7.681  -01  163.
 5.306  -04 1.235  +00  110.
 5.325  -04 8.940  -01  109.
 5.343  -04 1.791  +00   30.
 5.362  -04 1.838  +00   33.
 5.380  -04 1.742  +00   35.
 5.399  -04 2.007  +00   30.
 5.418  -04 1.467  +00   73.
 5.437  -04 1.198  +00   97.
 5.456  -04 9.062  -01  108.
 5.475  -04 1.311  +00   65.
 5.494  -04 1.482  +00   66.
 5.514  -04 1.603  +00   49.
 5.533  -04 1.046  +00   90.
 5.553  -04 1.194  +00   88.
 5.572  -04 1.852  +00   37.
 5.592  -04 1.873  +00   57.
 5.612  -04 1.466  +00   71.
 5.632  -04 1.380  +00   77.
 5.713  -04 1.374  +00   40.
 5.734  -04 1.202  +00   50.
 5.754  -04 1.259  +00   62.
 5.775  -04 1.139  +00   53.
 5.796  -04 9.496  -01   67.
 5.817  -04 7.329  -01  109.
 5.838  -04 8.220  -01   99.
 5.859  -04 6.581  -01  114.
 5.881  -04 3.500  -01  163.
 5.902  -04 1.758  +00   26.
 5.924  -04 2.967  -01  183.
 5.945  -04 1.163  +00   57.
 5.967  -04 1.002  +00   69.
 5.989  -04 1.933  -01  264.
 6.004  -04 1.908  +00   28.
 6.026  -04 2.173  +00   33.
 6.048  -04 2.146  +00   37.
 6.071  -04 1.294  +00   56.
 6.093  -04 4.983  -01  151.
 6.116  -04 1.005  +00   51.
 6.139  -04 1.016  +00   84.
 6.161  -04 7.834  -01   78.
 6.184  -04 1.287  +00   56.
 6.208  -04 1.446  +00   42.
 6.231  -04 1.296  +00   43.
 6.254  -04 4.530  -01  142.
 6.278  -04 2.112  -01  273.
 6.301  -04 1.122  +00   67.
 6.325  -04 1.213  +00   63.
 6.349  -04 1.210  +00   63.
 6.373  -04 1.071  +00   70.
 6.397  -04 1.291  +00   64.
 6.422  -04 1.184  +00   66.
 6.446  -04 1.366  +00   31.
 6.471  -04 1.278  +00   42.
 6.496  -04 1.219  +00   41.
 6.520  -04 1.620  +00   27.
 6.545  -04 1.782  +00   24.
 6.571  -04 1.600  +00   30.
 6.596  -04 1.807  +00   26.
 6.621  -04 1.652  +00   27.
 6.647  -04 1.457  +00   38.
 6.673  -04 1.588  +00   33.
 6.699  -04 1.833  +00   31.
 6.725  -04 1.493  +00   34.
 6.751  -04 1.343  +00   52.
 6.777  -04 1.626  +00   25.
 6.804  -04 1.444  +00   53.
 6.831  -04 1.760  +00   32.
 6.858  -04 1.857  +00   23.
 6.885  -04 1.367  +00   57.
 6.912  -04 1.619  +00   32.
 6.939  -04 2.034  +00   25.
 6.967  -04 2.364  +00   25.
 6.994  -04 2.393  +00   23.
 7.022  -04 2.464  +00   28.
 7.050  -04 1.879  +00   25.
 7.078  -04 1.966  +00   25.
 7.107  -04 2.208  +00   22.
 7.135  -04 1.705  +00   29.
 7.164  -04 1.536  +00   30.
 7.193  -04 1.664  +00   29.
 7.222  -04 1.609  +00   28.
 7.251  -04 1.553  +00   41.
 7.280  -04 1.279  +00   37.
 7.310  -04 1.261  +00   44.
 7.340  -04 1.451  +00   46.
 7.369  -04 1.521  +00   44.
 7.400  -04 1.414  +00   36.
 7.430  -04 1.346  +00   30.
 7.460  -04 1.181  +00   46.
 7.491  -04 1.602  +00   30.
 7.522  -04 1.561  +00   35.
 7.553  -04 1.565  +00   29.
 7.584  -04 1.777  +00   25.
 7.616  -04 2.002  +00   25.
 7.647  -04 2.146  +00   22.
 7.679  -04 1.527  +00   34.
 7.711  -04 1.561  +00   27.
 7.743  -04 1.488  +00   30.
 7.776  -04 1.455  +00   27.
 7.808  -04 1.464  +00   55.
 7.841  -04 1.704  +00   26.
 7.874  -04 1.512  +00   27.
 7.907  -04 1.692  +00   33.
 7.941  -04 1.961  +00   31.
 7.975  -04 1.762  +00   23.
 8.008  -04 1.721  +00   25.
 8.043  -04 1.389  +00   32.
 8.077  -04 1.448  +00   28.
 8.111  -04 1.637  +00   26.
 8.146  -04 1.407  +00   32.
 8.181  -04 1.588  +00   27.
 8.216  -04 1.650  +00   39.
 8.252  -04 1.785  +00   38.
 8.288  -04 1.604  +00   25.
 8.323  -04 1.528  +00   27.
 8.360  -04 1.545  +00   26.
 8.396  -04 1.766  +00   29.
 8.433  -04 1.525  +00   33.
 8.470  -04 1.768  +00   25.
 8.507  -04 1.680  +00   28.
 8.544  -04 1.555  +00   29.
 8.582  -04 1.427  +00   46.
 8.619  -04 1.486  +00   29.
 8.657  -04 1.363  +00   27.
 8.696  -04 1.651  +00   22.
 8.734  -04 1.375  +00   25.
 8.773  -04 1.254  +00   33.
 8.812  -04 1.464  +00   27.
 8.852  -04 1.189  +00   36.
 8.891  -04 1.864  +00   22.
 8.931  -04 1.649  +00   25.
 8.972  -04 1.323  +00   50.
 9.012  -04 1.803  +00   25.
 9.053  -04 2.068  +00   33.
 9.094  -04 1.726  +00   23.
 9.135  -04 1.579  +00   35.
 9.177  -04 1.424  +00   30.
 9.219  -04 1.270  +00   32.
 9.261  -04 1.269  +00   33.
 9.303  -04 1.548  +00   37.
 9.346  -04 1.544  +00   28.
 9.389  -04 1.366  +00   29.
 9.432  -04 1.181  +00   45.
 9.476  -04 1.453  +00   29.
 9.520  -04 1.547  +00   24.
 9.564  -04 1.684  +00   25.
 9.608  -04 1.438  +00   41.
 9.653  -04 1.797  +00   23.
 9.699  -04 1.679  +00   26.
 9.744  -04 1.882  +00   33.
 9.790  -04 1.640  +00   30.
 9.836  -04 1.509  +00   32.
 9.882  -04 1.584  +00   25.
 9.929  -04 1.680  +00   24.
 9.976  -04 1.898  +00   41.
 1.000  -03 2.102  +00   41.
 1.003  -03 1.361  +00   52.
 1.005  -03 2.010  +00   35.
 1.007  -03 1.397  +00   57.
 1.010  -03 1.433  +00   39.
 1.012  -03 1.679  +00   44.
 1.015  -03 2.026  +00   30.
 1.017  -03 2.117  +00   43.
 1.019  -03 2.377  +00   36.
 1.039  -03 1.208  +00   43.
 1.042  -03 1.453  +00   38.
 1.044  -03 1.609  +00   47.
 1.047  -03 1.516  +00   47.
 1.049  -03 1.193  +00   46.
 1.052  -03 9.100  -01   59.
 1.054  -03 1.120  +00   42.
 1.057  -03 1.281  +00   40.
 1.060  -03 1.372  +00   37.
 1.062  -03 1.789  +00   30.
 1.065  -03 1.528  +00   37.
 1.067  -03 7.562  -01   89.
 1.070  -03 8.815  -01   77.
 1.073  -03 1.136  +00   71.
 1.075  -03 1.210  +00   48.
 1.078  -03 1.218  +00   48.
 1.081  -03 1.096  +00   47.
 1.083  -03 1.428  +00   43.
 1.086  -03 1.612  +00   35.
 1.089  -03 1.772  +00   37.
 1.091  -03 2.230  +00   42.
 1.094  -03 1.763  +00   36.
 1.097  -03 1.619  +00   42.
 1.099  -03 1.344  +00   48.
 1.102  -03 1.547  +00   40.
 1.105  -03 1.893  +00   38.
 1.108  -03 1.438  +00   42.
 1.110  -03 1.160  +00   54.
 1.113  -03 1.149  +00   53.
 1.116  -03 1.129  +00   74.
 1.119  -03 7.758  -01   74.
 1.122  -03 1.113  +00   70.
 1.124  -03 1.371  +00   53.
 1.145  -03 3.424  -02  999.
 1.147  -03 1.013  +00   52.
 1.150  -03 1.645  +00   38.
 1.153  -03 1.061  +00   53.
 1.156  -03 1.059  +00   69.
 1.159  -03 1.074  +00   76.
 1.162  -03 1.365  +00   38.
 1.165  -03 1.339  +00   38.
 1.168  -03 1.170  +00   44.
 1.171  -03 9.207  -01   69.
 1.174  -03 8.410  -01   89.
 1.177  -03 5.996  -01   92.
 1.180  -03 8.211  -01   75.
 1.183  -03 1.295  +00   41.
 1.186  -03 1.411  +00   41.
 1.189  -03 5.977  -01   91.
 1.192  -03 2.891  -02  958.
 1.195  -03 8.859  -01   70.
 1.199  -03 1.707  +00   40.
 1.202  -03 9.860  -01   93.
 1.205  -03 8.545  -01   88.
 1.208  -03 6.556  -01   98.
 1.211  -03 1.090  +00   73.
 1.214  -03 1.566  +00   48.
 1.217  -03 1.329  +00   46.
 1.221  -03 1.557  +00   36.
 1.224  -03 1.728  +00   32.
 1.227  -03 1.404  +00   49.
 1.230  -03 1.106  +00   50.
 1.234  -03 1.331  +00   42.
 1.237  -03 1.255  +00   49.
 1.240  -03 1.412  +00   53.
 1.243  -03 1.174  +00   49.
 1.247  -03 1.811  +00   43.
 1.270  -03 2.130  -01  402.
 1.273  -03 9.798  -01   63.
 1.277  -03 1.013  +00   63.
 1.280  -03 1.727  +00   38.
 1.284  -03 1.260  +00   49.
 1.287  -03 9.872  -01   59.
 1.291  -03 1.085  +00   57.
 1.294  -03 1.954  +00   34.
 1.298  -03 1.075  +00   48.
 1.301  -03 1.118  +00   60.
 1.305  -03 1.086  +00   44.
 1.308  -03 8.675  -01   60.
 1.312  -03 1.077  +00   48.
 1.315  -03 1.263  +00   39.
 1.319  -03 1.485  +00   34.
 1.322  -03 1.161  +00   43.
 1.326  -03 1.363  +00   42.
 1.330  -03 1.844  +00   31.
 1.333  -03 1.836  +00   39.
 1.337  -03 1.560  +00   42.
 1.341  -03 1.135  +00   51.
 1.344  -03 1.448  +00   38.
 1.348  -03 1.904  +00   41.
 1.352  -03 1.383  +00   40.
 1.356  -03 2.061  +00   27.
 1.359  -03 2.073  +00   52.
 1.363  -03 1.595  +00   35.
 1.367  -03 1.528  +00   50.
 1.371  -03 1.094  +00   52.
 1.374  -03 1.275  +00   38.
 1.378  -03 1.294  +00   41.
 1.382  -03 1.379  +00   43.
 1.386  -03 1.594  +00   47.
 1.390  -03 1.366  +00   50.
 1.417  -03 9.558  -01   71.
 1.421  -03 1.400  +00   39.
 1.425  -03 1.256  +00   44.
 1.429  -03 1.970  +00   32.
 1.434  -03 3.316  +00   36.
 1.458  -03 2.432  +00   59.
 1.462  -03 1.974  +00   57.
 1.467  -03 1.111  +00   50.
 1.471  -03 1.288  +00   43.
 1.475  -03 1.578  +00   46.
 1.479  -03 3.011  +00   47.
 1.484  -03 2.821  +00   48.
 1.488  -03 1.347  +00  137.
 1.492  -03 3.725  +00   64.
 1.501  -03 1.599  +00   46.
 1.505  -03 2.403  +00   50.
 1.510  -03 1.132  +00  123.
 1.532  -03 0.     +00
 1.536  -03 4.335  +00   78.
 1.541  -03 2.138  -01  343.
 1.545  -03 2.565  +00   51.
 1.550  -03 9.228  -01   79.
 1.555  -03 1.116  +00   91.
 1.559  -03 1.270  +00   99.
 1.592  -03 1.451  +00   55.
 1.597  -03 1.878  +00   35.
 1.616  -03 1.568  +00   38.
 1.621  -03 8.753  -01   56.
 1.666  -03 1.204  +00   45.
 1.671  -03 1.288  +00   39.
 1.707  -03 9.200  -01   66.
 1.713  -03 1.358  +00   81.
 1.734  -03 9.360  -01   91.
 1.740  -03 1.036  +00   71.
 1.745  -03 6.091  -01  117.
 1.762  -03 8.158  -01  112.
 1.767  -03 1.314  +00  105.
 1.801  -03 7.797  -01   84.
 1.807  -03 1.064  +00   39.
 1.812  -03 1.506  +00   33.
 1.818  -03 1.338  +00   34.
 1.824  -03 9.885  -01   44.
 1.830  -03 1.175  +00   47.
 1.836  -03 9.534  -01   38.
 1.842  -03 9.794  -01   36.
 1.848  -03 1.119  +00   33.
 1.854  -03 1.044  +00   34.
 1.860  -03 1.036  +00   33.
 1.866  -03 1.320  +00   35.
 1.872  -03 1.355  +00   27.
 1.878  -03 1.109  +00   32.
 1.884  -03 9.127  -01   39.
 1.890  -03 8.857  -01   41.
 1.896  -03 9.704  -01   37.
 1.902  -03 1.330  +00   29.
 1.909  -03 1.099  +00   41.
 1.915  -03 1.000  +00   38.
 1.921  -03 8.882  -01   47.
 1.928  -03 1.004  +00   39.
 1.934  -03 1.001  +00   40.
 1.940  -03 9.094  -01   41.
 1.947  -03 1.260  +00   34.
 1.953  -03 1.228  +00   49.
 1.960  -03 1.016  +00   40.
 1.966  -03 1.182  +00   38.
 1.973  -03 9.038  -01   38.
 1.979  -03 7.744  -01   45.
 1.986  -03 9.754  -01   41.
 1.993  -03 9.649  -01   35.
 1.999  -03 1.163  +00   34.
 2.006  -03 1.489  +00   37.
 2.054  -03 7.497  -01  129.
 2.061  -03 1.080  +00   40.
 2.068  -03 9.578  -01   55.
 2.075  -03 1.027  +00   49.
 2.082  -03 8.843  -01   58.
 2.089  -03 9.083  -01   49.
 2.097  -03 1.365  +00   35.
 2.104  -03 1.365  +00   31.
 2.111  -03 1.222  +00   35.
 2.118  -03 9.985  -01   46.
 2.126  -03 1.353  +00   30.
 2.133  -03 1.390  +00   27.
 2.140  -03 1.113  +00   38.
 2.148  -03 1.097  +00   34.
 2.155  -03 1.818  +00   24.
 2.163  -03 1.607  +00   27.
 2.170  -03 1.143  +00   35.
 2.178  -03 1.038  +00   39.
 2.186  -03 1.195  +00   36.
 2.193  -03 1.121  +00   41.
 2.201  -03 1.189  +00   42.
 2.209  -03 1.334  +00   37.
 2.217  -03 1.459  +00   29.
 2.224  -03 1.370  +00   31.
 2.232  -03 1.465  +00   27.
 2.240  -03 1.488  +00   31.
 2.248  -03 1.481  +00   27.
 2.256  -03 1.487  +00   25.
 2.264  -03 1.399  +00   25.
 2.272  -03 1.349  +00   33.
 2.281  -03 1.234  +00   36.
 2.289  -03 1.221  +00   39.
 2.297  -03 1.195  +00   46.
 2.305  -03 1.936  +00   55.
 2.364  -03 6.565  -01   84.
 2.373  -03 8.604  -01   50.
 2.382  -03 1.046  +00   49.
 2.391  -03 1.015  +00   48.
 2.399  -03 9.800  -01   47.
 2.408  -03 1.154  +00   46.
 2.417  -03 9.298  -01   48.
 2.426  -03 6.565  -01   71.
 2.435  -03 1.137  +00   40.
 2.444  -03 1.258  +00   32.
 2.453  -03 1.190  +00   47.
 2.462  -03 9.426  -01   62.
 2.471  -03 9.195  -01   51.
 2.481  -03 1.007  +00   51.
 2.490  -03 1.393  +00   32.
 2.499  -03 1.323  +00   34.
 2.509  -03 1.275  +00   30.
 2.518  -03 1.130  +00   39.
 2.528  -03 1.263  +00   37.
 2.537  -03 1.197  +00   39.
 2.547  -03 1.244  +00   44.
 2.556  -03 1.440  +00   35.
 2.566  -03 1.339  +00   37.
 2.576  -03 1.209  +00   39.
 2.586  -03 1.111  +00   40.
 2.596  -03 1.311  +00   31.
 2.606  -03 1.211  +00   30.
 2.616  -03 1.377  +00   25.
 2.626  -03 1.409  +00   27.
 2.636  -03 1.927  +00   38.
 2.646  -03 2.440  +00   45.
 2.656  -03 1.400  +00  102.
 2.667  -03 1.940  +00   74.
 2.677  -03 2.217  +00  142.
 2.751  -03 1.005  +00   38.
 2.762  -03 1.214  +00   30.
 2.773  -03 1.644  +00   29.
 2.795  -03 1.797  +00   72.
 2.806  -03 2.348  +00   40.
 2.817  -03 2.393  +00   38.
 2.828  -03 2.528  +00   43.
 2.840  -03 2.398  +00   54.
 2.874  -03 9.836  -01   54.
 2.886  -03 9.633  -01   34.
 2.897  -03 9.630  -01   43.
 2.909  -03 7.906  -01   45.
 2.921  -03 7.325  -01   45.
 2.933  -03 8.265  -01   44.
 2.945  -03 7.406  -01   44.
 2.957  -03 9.368  -01   39.
 2.969  -03 1.122  +00   30.
 2.981  -03 1.126  +00   45.
 2.993  -03 1.120  +00   32.
 3.006  -03 9.366  -01   32.
 3.018  -03 9.355  -01   33.
 3.030  -03 1.276  +00   33.
 3.043  -03 9.835  -01   39.
 3.056  -03 1.108  +00   28.
 3.068  -03 8.510  -01   37.
 3.081  -03 6.942  -01   55.
 3.094  -03 7.693  -01   47.
 3.107  -03 8.763  -01   47.
 3.120  -03 8.738  -01   48.
 3.133  -03 7.261  -01   55.
 3.146  -03 1.032  +00   69.
 3.241  -03 6.596  -01   43.
 3.255  -03 8.907  -01   33.
 3.269  -03 1.004  +00   36.
 3.283  -03 7.722  -01   37.
 3.297  -03 8.107  -01   37.
 3.311  -03 8.242  -01   38.
 3.326  -03 8.050  -01   36.
 3.340  -03 8.816  -01   32.
 3.355  -03 1.177  +00   26.
 3.369  -03 9.564  -01   29.
 3.384  -03 1.107  +00   27.
 3.399  -03 9.471  -01   30.
 3.414  -03 1.128  +00   26.
 3.429  -03 8.942  -01   29.
 3.444  -03 1.177  +00   24.
 3.459  -03 1.063  +00   29.
 3.474  -03 1.019  +00   29.
 3.490  -03 9.246  -01   28.
 3.505  -03 1.225  +00   23.
 3.521  -03 1.329  +00   29.
 3.537  -03 1.916  +00   39.
 3.553  -03 2.174  +00   59.
 3.568  -03 6.064  -01  227.
 3.585  -03 1.869  +00  106.
 3.601  -03 1.193  +00  163.
 3.617  -03 1.126  +00  179.
 3.633  -03 1.980  +00  125.
 3.650  -03 4.636  -01   57.
 3.666  -03 4.182  -01   69.
 3.683  -03 5.894  -01   47.
 3.700  -03 7.593  -01   36.
 3.717  -03 2.784  -01   85.
 3.734  -03 2.800  +00
 3.751  -03 4.473  -01  110.
 3.875  -03 4.474  -01   63.
 3.893  -03 4.713  -01   49.
 3.911  -03 6.716  -01   36.
 3.930  -03 8.794  -01   33.
 3.948  -03 8.857  -01   38.
 3.967  -03 8.088  -01   33.
 3.986  -03 6.173  -01   46.
 4.005  -03 5.363  -01   48.
 4.024  -03 5.040  -01   49.
 4.043  -03 5.796  -01   42.
 4.062  -03 7.924  -01   39.
 4.082  -03 7.104  -01   35.
 4.101  -03 6.308  -01   38.
 4.121  -03 6.730  -01   37.
 4.141  -03 5.197  -01   40.
 4.161  -03 8.710  -01   29.
 4.181  -03 6.486  -01   40.
 4.202  -03 5.188  -01   42.
 4.222  -03 9.067  -01   30.
 4.243  -03 8.360  -01   36.
 4.264  -03 7.068  -01   41.
 4.285  -03 6.630  -01   55.
 4.306  -03 1.340  +00   46.
 4.327  -03 1.252  +00   56.
 4.349  -03 1.444  +00   43.
 4.370  -03 1.702  +00   45.
 4.392  -03 1.329  +00   80.
 4.414  -03 1.352  +00   85.
 4.436  -03 4.924  -01   86.
 4.458  -03 4.720  -01   49.
 4.481  -03 5.772  -01   40.
 4.503  -03 4.567  -01   60.
 4.526  -03 3.336  -01   77.
 4.715  -03 2.752  -01   86.
 4.739  -03 3.320  -01   68.
 4.764  -03 4.016  -01   57.
 4.788  -03 3.961  -01   64.
 4.813  -03 6.719  -01   39.
 4.839  -03 4.371  -01   52.
 4.864  -03 3.375  -01   69.
 4.890  -03 3.479  -01   63.
 4.915  -03 3.881  -01   54.
 4.941  -03 4.126  -01   52.
 4.967  -03 7.020  -01   33.
 4.994  -03 3.346  -01   61.
 5.020  -03 3.441  -01   53.
 5.047  -03 4.444  -01   41.
 5.074  -03 4.540  -01   42.
 5.102  -03 5.893  -01   32.
 5.129  -03 4.983  -01   37.
 5.157  -03 4.717  -01   41.
 5.185  -03 4.970  -01   36.
 5.213  -03 7.347  -01   33.
 5.241  -03 8.123  -01   41.
 5.270  -03 7.745  -01   29.
 5.299  -03 7.557  -01   28.
 5.328  -03 7.022  -01   32.
 5.357  -03 5.569  -01   34.
 5.387  -03 5.345  -01   34.
 5.416  -03 6.311  -01   31.
 5.446  -03 7.866  -01   28.
 5.477  -03 5.136  -01   35.
 5.507  -03 4.641  -01   44.
 5.538  -03 4.126  -01   53.
 5.569  -03 4.032  -01   53.
 5.600  -03 4.177  -01   52.
 5.632  -03 5.810  -01  113.
 5.861  -03 5.355  -01   38.
 5.895  -03 3.594  -01   56.
 5.929  -03 3.585  -01   58.
 5.963  -03 3.783  -01   64.
 5.998  -03 3.502  -01   69.
 6.033  -03 3.502  -01   57.
 6.069  -03 3.739  -01   46.
 6.104  -03 5.620  -01   35.
 6.140  -03 3.951  -01   45.
 6.177  -03 7.064  -01   27.
 6.213  -03 5.659  -01   31.
 6.250  -03 6.904  -01   27.
 6.287  -03 4.228  -01   41.
 6.325  -03 4.413  -01   44.
 6.363  -03 3.950  -01   50.
 6.401  -03 3.974  -01   46.
 6.440  -03 6.525  -01   35.
 6.479  -03 7.888  -01   30.
 6.518  -03 6.653  -01   30.
 6.558  -03 7.677  -01   36.
 6.598  -03 5.261  -01   43.
 6.638  -03 4.305  -01   50.
 6.679  -03 4.207  -01   46.
 6.720  -03 6.852  -01   32.
 6.762  -03 5.901  -01   33.
 6.804  -03 8.138  -01   23.
 6.846  -03 5.526  -01   36.
 6.889  -03 7.110  -01   27.
 6.932  -03 7.232  -01   30.
 6.976  -03 4.935  -01   37.
 7.020  -03 6.652  -01   29.
 7.064  -03 4.984  -01   47.
 7.109  -03 4.940  -01   52.
 7.435  -03 4.036  -01  114.
 7.484  -03 7.045  -01   28.
 7.532  -03 5.614  -01   34.
 7.582  -03 6.758  -01   29.
 7.632  -03 7.961  -01   38.
 7.682  -03 7.535  -01   26.
 7.733  -03 6.047  -01   33.
 7.784  -03 6.763  -01   28.
 7.836  -03 5.705  -01   36.
 7.888  -03 6.709  -01   31.
 7.941  -03 7.603  -01   25.
 7.995  -03 6.206  -01   29.
 8.049  -03 6.121  -01   25.
 8.103  -03 6.752  -01   23.
 8.158  -03 6.590  -01   23.
 8.214  -03 7.100  -01   25.
 8.270  -03 8.068  -01   38.
 8.327  -03 9.175  -01   68.
 8.385  -03 1.162  +00   50.
 8.443  -03 9.767  -01   35.
 8.501  -03 7.504  -01   24.
 8.560  -03 8.664  -01   23.
 8.620  -03 6.977  -01   25.
 8.681  -03 7.272  -01   25.
 8.742  -03 1.039  +00   21.
 8.804  -03 1.009  +00   28.
 8.866  -03 8.248  -01   50.
 8.929  -03 1.267  +00   50.
 8.993  -03 4.437  -01  147.
 9.057  -03 4.058  -01  174.
 9.123  -03 7.260  -01  145.
 9.188  -03 9.600  -01   91.
 9.255  -03 5.251  -01   34.
 9.322  -03 5.119  -01   41.
 9.815  -03 4.064  -01   83.
 9.888  -03 5.602  -01   27.
 9.963  -03 6.570  -01   20.
 9.981  -03 6.570  -01   20.
 1.003  -02 8.042  -01   30.
 1.007  -02 7.751  -01   35.
 1.012  -02 8.132  -01   28.
 1.016  -02 8.570  -01   29.
 1.021  -02 8.318  -01   28.
 1.026  -02 7.487  -01   30.
 1.030  -02 8.777  -01   29.
 1.035  -02 7.657  -01   39.
 1.040  -02 8.514  -01   30.
 1.045  -02 7.454  -01   31.
 1.049  -02 7.461  -01   32.
 1.054  -02 8.543  -01   27.
 1.059  -02 7.295  -01   28.
 1.064  -02 8.531  -01   24.
 1.069  -02 8.331  -01   25.
 1.074  -02 7.517  -01   29.
 1.079  -02 1.049  +00   21.
 1.084  -02 9.537  -01   24.
 1.089  -02 8.354  -01   29.
 1.094  -02 9.055  -01   28.
 1.099  -02 8.738  -01   27.
 1.105  -02 7.734  -01   28.
 1.110  -02 9.341  -01   23.
 1.115  -02 9.207  -01   27.
 1.121  -02 9.373  -01   27.
 1.126  -02 1.038  +00   24.
 1.131  -02 1.077  +00   22.
 1.137  -02 9.740  -01   26.
 1.142  -02 1.013  +00   26.
 1.148  -02 1.039  +00   24.
 1.153  -02 1.017  +00   28.
 1.159  -02 8.365  -01   29.
 1.165  -02 9.585  -01   33.
 1.170  -02 9.890  -01   27.
 1.176  -02 1.236  +00   25.
 1.182  -02 1.171  +00   23.
 1.188  -02 1.096  +00   23.
 1.193  -02 1.149  +00   22.
 1.199  -02 8.986  -01   24.
 1.205  -02 9.642  -01   26.
 1.211  -02 9.300  -01   27.
 1.217  -02 1.008  +00   27.
 1.223  -02 9.860  -01   31.
 1.229  -02 1.024  +00   29.
 1.236  -02 1.292  +00   27.
 1.242  -02 1.467  +00   23.
 1.248  -02 1.230  +00   25.
 1.254  -02 1.278  +00   27.
 1.261  -02 1.174  +00   29.
 1.267  -02 1.277  +00   29.
 1.274  -02 1.270  +00   34.
 1.369  -02 6.826  -01   46.
 1.376  -02 5.852  -01   39.
 1.384  -02 7.396  -01   32.
 1.391  -02 5.917  -01   38.
 1.399  -02 1.010  +00   28.
 1.406  -02 1.012  +00   27.
 1.414  -02 7.520  -01   37.
 1.421  -02 8.227  -01   29.
 1.429  -02 9.639  -01   35.
 1.437  -02 6.519  -01   70.
 1.444  -02 8.552  -01   51.
 1.452  -02 8.209  -01   75.
 1.460  -02 6.840  -01   64.
 1.468  -02 1.062  +00   54.
 1.476  -02 1.331  +00   75.
 1.484  -02 1.610  +00   52.
 1.492  -02 1.428  +00   84.
 1.501  -02 9.141  -01  139.
 1.517  -02 2.612  +00   50.
 1.526  -02 1.185  +00   64.
 1.534  -02 1.054  +00   42.
 1.543  -02 1.224  +00   35.
 1.552  -02 1.232  +00   30.
 1.560  -02 1.002  +00   37.
 1.569  -02 1.155  +00   27.
 1.578  -02 1.014  +00   30.
 1.587  -02 1.011  +00   38.
 1.596  -02 1.115  +00   27.
 1.605  -02 7.448  -01   39.
 1.614  -02 7.121  -01   37.
 1.624  -02 6.153  -01   36.
 1.633  -02 5.811  -01   38.
 1.643  -02 7.589  -01   30.
 1.652  -02 7.676  -01   29.
 1.662  -02 8.094  -01   31.
 1.671  -02 1.007  +00   31.
 1.681  -02 1.047  +00   33.
 1.691  -02 8.109  -01   32.
 1.701  -02 5.620  -01   35.
 1.711  -02 5.843  -01   38.
 1.721  -02 6.549  -01   33.
 1.731  -02 8.560  -01   28.
 1.742  -02 5.914  -01   34.
 1.752  -02 6.128  -01   33.
 1.763  -02 5.429  -01   33.
 1.773  -02 7.491  -01   27.
 1.784  -02 7.063  -01   29.
 1.795  -02 6.622  -01   33.
 1.806  -02 6.747  -01   30.
 1.817  -02 5.978  -01   31.
 1.828  -02 4.355  -01   41.
 1.839  -02 4.483  -01   46.
 1.850  -02 4.719  -01   69.
 1.981  -02 2.554  -01  196.
 1.994  -02 4.023  -01   42.
 2.007  -02 4.531  -01   38.
 2.020  -02 4.597  -01   41.
 2.033  -02 4.786  -01   42.
 2.046  -02 5.330  -01   43.
 2.059  -02 5.699  -01   34.
 2.072  -02 4.835  -01   38.
 2.086  -02 4.156  -01   42.
 2.100  -02 5.278  -01   34.
 2.113  -02 4.895  -01   44.
 2.127  -02 5.528  -01   36.
 2.141  -02 3.455  -01   48.
 2.156  -02 3.535  -01   73.
 2.170  -02 3.345  -01   86.
 2.184  -02 1.341  -01  211.
 2.199  -02 3.246  -01  108.
 2.322  -02 2.623  -01  115.
 2.338  -02 1.817  -01   74.
 2.354  -02 1.664  -01   68.
 2.370  -02 2.968  -01   42.
 2.387  -02 2.307  -01   63.
 2.403  -02 2.264  -01   56.
 2.420  -02 2.801  -01   42.
 2.437  -02 1.860  -01   65.
 2.455  -02 2.088  -01   70.
 2.472  -02 2.434  -01   61.
 2.490  -02 2.652  -01   47.
 2.508  -02 2.399  -01   50.
 2.526  -02 3.247  -01   47.
 2.544  -02 2.955  -01   65.
 2.562  -02 2.882  -01   49.
 2.581  -02 3.106  -01   51.
 2.600  -02 2.753  -01   52.
 2.619  -02 2.438  -01   49.
 2.638  -02 3.328  -01   36.
 2.657  -02 3.313  -01   43.
 2.677  -02 2.782  -01   53.
 2.697  -02 3.976  -01   35.
 2.717  -02 3.327  -01   39.
 2.737  -02 3.127  -01   42.
 2.758  -02 2.960  -01   39.
 2.779  -02 2.771  -01   47.
 2.800  -02 2.395  -01   56.
 2.821  -02 2.521  -01   50.
 2.842  -02 2.769  -01   48.
 2.864  -02 3.145  -01   46.
 2.886  -02 2.780  -01   48.
 2.908  -02 3.023  -01   79.
 3.249  -02 0.     +00
 3.276  -02 3.497  -01   91.
 3.303  -02 8.191  -02  163.
 3.330  -02 1.507  -01  110.
 3.357  -02 5.831  -02  178.
 3.385  -02 6.732  -02  222.
 3.414  -02 1.301  -01  133.
 3.442  -02 2.851  -02  305.
 3.471  -02 8.559  -02  169.
 3.501  -02 4.772  -02  174.
 3.530  -02 8.152  -02  140.
 3.561  -02 1.133  -01   99.
 3.591  -02 1.464  -01   80.
 3.622  -02 1.810  -01   63.
 3.653  -02 2.138  -01   49.
 3.685  -02 1.843  -01   55.
 3.717  -02 2.422  -01   56.
 3.750  -02 1.780  -01   76.
 3.783  -02 1.126  -01  116.
 3.816  -02 1.061  -01  143.
 3.850  -02 1.508  -02  316.
 3.885  -02 8.369  -02  142.
 3.919  -02 2.620  -02  314.
 3.955  -02 3.684  -01   99.
 3.990  -02 1.136  -02  510.
 4.027  -02 2.005  -02  414.
 4.063  -02 2.057  -02  469.
 4.255  -02 0.     +00
 4.295  -02 1.494  -01  113.
 4.335  -02 1.533  -01   80.
 4.376  -02 1.019  -01  140.
 4.418  -02 1.582  -02  407.
 4.460  -02 0.     +00
 4.503  -02 8.129  -02  240.
 4.547  -02 8.741  -02  127.
 4.591  -02 3.391  -02  225.
 4.636  -02 3.948  -02  269.
 4.681  -02 1.450  -01   99.
 4.727  -02 1.193  -01  122.
 4.774  -02 7.339  -02  136.
 4.822  -02 7.536  -02  228.
 4.870  -02 6.523  -02  158.
 4.919  -02 3.245  -02  250.
 4.968  -02 3.761  -03  846.
 5.019  -02 7.370  -03  699.
 5.070  -02 3.809  -03  671.
 5.122  -02 4.536  -02  260.
 5.175  -02 1.909  -02  436.
 5.229  -02 6.696  -02  203.
ENDDATA           2344
ENDSUBENT         2351
SUBENT        12558003     860602
BIB                  2          2
REACTION   (95-AM-242-M(N,F),,SIG)
METHOD     (TOF)      TIME-OF-FLIGHT
ENDBIB               2
COMMON               1          3
HL
YR
 152.
ENDCOMMON            3
DATA                 3       1860
EN         DATA       DATA-ERR
MEV        B          PER-CENT
 2.000  -05 5.986  -02   51.
 2.002  -05 1.249  +02   16.
 2.005  -05 1.171  +02   17.
 2.008  -05 1.551  +02   14.
 2.010  -05 1.474  +02   15.
 2.013  -05 1.312  +02   15.
 2.016  -05 1.253  +02   12.
 2.019  -05 9.837  +01   16.
 2.021  -05 8.427  +01   18.
 2.024  -05 1.146  +02   16.
 2.027  -05 1.116  +02   15.
 2.030  -05 8.244  +01   18.
 2.032  -05 9.153  +01   18.
 2.035  -05 9.756  +01   16.
 2.038  -05 8.553  +01   20.
 2.041  -05 7.588  +01   21.
 2.043  -05 6.746  +01   23.
 2.046  -05 6.273  +01   23.
 2.049  -05 7.853  +01   18.
 2.052  -05 7.077  +01   22.
 2.054  -05 6.182  +01   23.
 2.057  -05 6.638  +01   19.
 2.060  -05 5.247  +01   23.
 2.063  -05 5.755  +01   22.
 2.066  -05 6.606  +01   21.
 2.068  -05 6.038  +01   20.
 2.071  -05 5.383  +01   22.
 2.074  -05 5.645  +01   24.
 2.077  -05 4.828  +01   23.
 2.080  -05 4.883  +01   28.
 2.083  -05 5.789  +01   26.
 2.085  -05 6.217  +01   23.
 2.088  -05 5.212  +01   24.
 2.091  -05 3.923  +01   30.
 2.094  -05 3.898  +01   26.
 2.097  -05 5.651  +01   23.
 2.100  -05 5.106  +01   26.
 2.103  -05 6.860  +01   21.
 2.105  -05 4.637  +01   26.
 2.108  -05 4.667  +01   26.
 2.111  -05 4.528  +01   24.
 2.114  -05 6.806  +01   29.
 2.117  -05 9.307  +01   16.
 2.120  -05 6.764  +01   19.
 2.123  -05 7.249  +01   20.
 2.126  -05 8.979  +01   16.
 2.129  -05 7.225  +01   16.
 2.132  -05 6.525  +01   18.
 2.135  -05 7.731  +01   15.
 2.138  -05 8.920  +01   15.
 2.141  -05 9.425  +01   16.
 2.144  -05 9.413  +01   12.
 2.147  -05 9.418  +01   14.
 2.150  -05 9.841  +01   14.
 2.153  -05 1.128  +02   13.
 2.156  -05 9.346  +01   15.
 2.159  -05 9.994  +01   13.
 2.162  -05 1.127  +02   13.
 2.165  -05 9.339  +01   18.
 2.168  -05 9.286  +01   16.
 2.171  -05 9.785  +01   14.
 2.174  -05 8.041  +01   14.
 2.177  -05 7.574  +01   15.
 2.180  -05 8.555  +01   15.
 2.183  -05 8.242  +01   15.
 2.186  -05 6.933  +01   17.
 2.189  -05 6.132  +01   14.
 2.192  -05 6.932  +01   16.
 2.195  -05 7.789  +01   15.
 2.198  -05 9.451  +01   17.
 2.201  -05 9.750  +01   12.
 2.204  -05 1.145  +02   14.
 2.207  -05 1.294  +02   13.
 2.211  -05 1.517  +02   13.
 2.214  -05 1.427  +02   12.
 2.217  -05 1.347  +02   11.
 2.220  -05 1.371  +02   12.
 2.223  -05 1.403  +02   12.
 2.226  -05 1.228  +02   13.
 2.229  -05 9.712  +01   13.
 2.232  -05 9.934  +01   16.
 2.236  -05 1.041  +02   14.
 2.239  -05 1.104  +02   15.
 2.242  -05 1.125  +02   13.
 2.245  -05 1.003  +02   14.
 2.248  -05 1.125  +02   13.
 2.252  -05 1.240  +02   12.
 2.255  -05 1.301  +02   11.
 2.258  -05 1.247  +02   13.
 2.261  -05 1.083  +02   12.
 2.264  -05 9.940  +01   13.
 2.268  -05 9.373  +01   11.
 2.271  -05 8.470  +01   14.
 2.274  -05 7.987  +01   13.
 2.277  -05 7.780  +01   14.
 2.281  -05 7.033  +01   12.
 2.284  -05 6.657  +01   13.
 2.287  -05 6.451  +01   15.
 2.290  -05 7.644  +01   12.
 2.294  -05 6.750  +01   16.
 2.297  -05 6.287  +01   15.
 2.300  -05 7.194  +01   15.
 2.304  -05 7.146  +01   13.
 2.307  -05 6.279  +01   15.
 2.310  -05 6.760  +01   15.
 2.314  -05 6.331  +01   13.
 2.317  -05 6.267  +01   14.
 2.320  -05 4.838  +01   18.
 2.324  -05 4.225  +01   17.
 2.327  -05 4.604  +01   15.
 2.330  -05 2.505  +01   32.
 2.334  -05 3.590  +01   23.
 2.337  -05 3.931  +01   20.
 2.340  -05 2.990  +01   22.
 2.344  -05 3.837  +01   18.
 2.347  -05 3.615  +01   13.
 2.351  -05 3.893  +01   18.
 2.354  -05 3.174  +01   19.
 2.357  -05 3.078  +01   21.
 2.361  -05 3.129  +01   16.
 2.364  -05 4.116  +01   15.
 2.368  -05 3.811  +01   18.
 2.371  -05 3.200  +01   17.
 2.375  -05 3.836  +01   15.
 2.378  -05 3.738  +01   17.
 2.382  -05 3.106  +01   22.
 2.385  -05 3.628  +01   19.
 2.392  -05 3.686  +01   20.
 2.396  -05 2.650  +01   21.
 2.399  -05 2.429  +01   26.
 2.403  -05 1.782  +01   25.
 2.406  -05 1.739  +01   32.
 2.410  -05 6.221  +00   86.
 2.417  -05 7.328  +00   72.
 2.420  -05 8.326  +00   68.
 2.424  -05 1.319  +01   60.
 2.428  -05 9.673  +00   50.
 2.431  -05 1.520  +01   31.
 2.435  -05 1.749  +01   24.
 2.438  -05 1.435  +01   30.
 2.442  -05 9.581  +00   40.
 2.446  -05 1.301  +01   26.
 2.449  -05 2.027  +01   22.
 2.453  -05 1.939  +01   17.
 2.456  -05 1.830  +01   23.
 2.460  -05 1.968  +01   21.
 2.464  -05 2.687  +01   13.
 2.467  -05 2.979  +01   16.
 2.471  -05 2.239  +01   19.
 2.475  -05 1.893  +01   18.
 2.479  -05 1.755  +01   22.
 2.482  -05 1.528  +01   18.
 2.486  -05 2.741  +01   20.
 2.490  -05 2.747  +01   16.
 2.493  -05 2.789  +01   14.
 2.497  -05 2.309  +01   21.
 2.501  -05 2.219  +01   19.
 2.505  -05 2.828  +01   18.
 2.508  -05 3.952  +01   13.
 2.512  -05 3.809  +01   11.
 2.516  -05 4.095  +01   13.
 2.520  -05 4.327  +01   15.
 2.523  -05 4.001  +01   13.
 2.527  -05 4.361  +01   14.
 2.531  -05 3.829  +01   13.
 2.535  -05 3.446  +01   14.
 2.539  -05 3.235  +01   13.
 2.543  -05 3.100  +01   16.
 2.546  -05 1.582  +01   33.
 2.550  -05 1.110  +01   33.
 2.554  -05 1.712  +01   37.
 2.558  -05 2.720  +01   22.
 2.562  -05 2.715  +01   21.
 2.566  -05 2.803  +01   20.
 2.570  -05 4.054  +01   13.
 2.574  -05 3.888  +01   15.
 2.577  -05 3.719  +01   12.
 2.581  -05 3.597  +01   15.
 2.585  -05 3.775  +01   12.
 2.589  -05 4.039  +01   12.
 2.593  -05 3.221  +01   14.
 2.597  -05 2.784  +01   12.
 2.601  -05 2.669  +01   16.
 2.605  -05 2.411  +01   15.
 2.609  -05 2.471  +01   17.
 2.613  -05 2.858  +01   14.
 2.617  -05 1.813  +01   21.
 2.621  -05 1.249  +01   24.
 2.625  -05 1.471  +01   22.
 2.629  -05 1.033  +01   29.
 2.633  -05 1.388  +01   29.
 2.637  -05 1.528  +01   24.
 2.641  -05 9.263  +00   35.
 2.645  -05 1.228  +01   28.
 2.649  -05 1.110  +01   28.
 2.654  -05 1.777  +01   24.
 2.658  -05 3.262  +01   20.
 2.662  -05 4.252  +01   12.
 2.666  -05 4.881  +01   14.
 2.670  -05 6.810  +01   14.
 2.674  -05 9.442  +01   16.
 2.678  -05 1.383  +02   36.
 2.682  -05 1.397  +02   34.
 2.687  -05 1.746  +02   29.
 2.691  -05 1.822  +02   24.
 2.695  -05 1.748  +02   22.
 2.699  -05 1.817  +02   31.
 2.703  -05 1.937  +02   23.
 2.708  -05 1.815  +02   12.
 2.712  -05 1.812  +02    9.6
 2.716  -05 1.939  +02    8.8
 2.720  -05 1.783  +02   12.
 2.725  -05 1.603  +02    9.9
 2.729  -05 1.353  +02    9.9
 2.733  -05 1.169  +02   10.
 2.737  -05 9.913  +01   10.
 2.742  -05 8.395  +01    9.9
 2.746  -05 7.629  +01   11.
 2.750  -05 6.225  +01   13.
 2.755  -05 5.486  +01   12.
 2.759  -05 5.419  +01   11.
 2.763  -05 4.914  +01   13.
 2.768  -05 4.794  +01   12.
 2.772  -05 4.808  +01   11.
 2.776  -05 5.132  +01   12.
 2.781  -05 5.632  +01    9.6
 2.785  -05 5.369  +01   11.
 2.790  -05 5.424  +01    9.4
 2.794  -05 5.581  +01   12.
 2.798  -05 5.116  +01    9.7
 2.803  -05 4.734  +01   12.
 2.807  -05 5.091  +01   16.
 2.812  -05 6.174  +01    9.5
 2.816  -05 6.470  +01   11.
 2.821  -05 6.869  +01    9.5
 2.825  -05 7.194  +01   11.
 2.830  -05 8.074  +01   11.
 2.834  -05 9.339  +01   10.
 2.839  -05 9.762  +01    9.1
 2.843  -05 9.810  +01    9.5
 2.848  -05 9.888  +01   10.
 2.852  -05 1.024  +02    9.5
 2.857  -05 1.096  +02   10.
 2.861  -05 1.211  +02    8.9
 2.866  -05 1.314  +02    9.8
 2.871  -05 1.536  +02    9.3
 2.875  -05 1.507  +02    8.9
 2.880  -05 1.580  +02    9.7
 2.885  -05 1.425  +02    9.2
 2.889  -05 1.365  +02    9.1
 2.899  -05 1.370  +02    8.9
 2.903  -05 1.327  +02   10.
 2.908  -05 1.225  +02    8.9
 2.913  -05 1.187  +02    9.1
 2.917  -05 1.192  +02   11.
 2.922  -05 1.155  +02    9.4
 2.927  -05 1.135  +02    9.0
 2.932  -05 1.115  +02   10.
 2.936  -05 1.157  +02    9.0
 2.941  -05 1.185  +02   10.
 2.946  -05 1.272  +02    9.2
 2.951  -05 1.210  +02    9.1
 2.955  -05 1.216  +02   10.
 2.960  -05 1.244  +02    8.9
 2.965  -05 1.144  +02   10.
 2.970  -05 1.051  +02    9.6
 2.980  -05 9.713  +01    9.3
 2.984  -05 9.639  +01   10.
 2.989  -05 9.607  +01    9.1
 2.994  -05 1.006  +02    9.0
 2.999  -05 1.106  +02     .0
 3.004  -05 1.026  +02    8.9
 3.009  -05 9.477  +01    9.0
 3.014  -05 7.988  +01    9.7
 3.019  -05 7.233  +01    9.3
 3.024  -05 6.584  +01    9.1
 3.029  -05 6.068  +01   11.
 3.034  -05 5.452  +01   11.
 3.039  -05 5.294  +01    9.4
 3.044  -05 5.722  +01   10.
 3.049  -05 5.916  +01    9.8
 3.054  -05 5.570  +01    9.4
 3.059  -05 5.234  +01   11.
 3.064  -05 5.099  +01    9.6
 3.069  -05 4.251  +01   12.
 3.074  -05 3.575  +01   10.
 3.079  -05 3.319  +01   11.
 3.085  -05 2.963  +01   10.
 3.090  -05 2.635  +01   12.
 3.095  -05 2.459  +01   17.
 3.100  -05 2.319  +01   14.
 3.105  -05 2.514  +01   14.
 3.110  -05 2.453  +01   12.
 3.116  -05 2.635  +01   14.
 3.121  -05 3.114  +01   13.
 3.126  -05 3.673  +01   12.
 3.131  -05 4.582  +01    9.7
 3.137  -05 4.431  +01   11.
 3.142  -05 4.626  +01    9.7
 3.147  -05 4.661  +01    9.5
 3.152  -05 4.626  +01    9.8
 3.158  -05 4.340  +01   10.
 3.163  -05 3.520  +01   11.
 3.168  -05 3.068  +01   10.
 3.174  -05 2.767  +01    9.5
 3.179  -05 2.608  +01   11.
 3.184  -05 2.587  +01   12.
 3.190  -05 3.380  +01   10.
 3.195  -05 4.104  +01   12.
 3.201  -05 4.705  +01   11.
 3.206  -05 4.996  +01    9.6
 3.212  -05 5.158  +01     .0
 3.217  -05 4.139  +01   14.
 3.222  -05 3.342  +01     .0
 3.228  -05 3.062  +01   11.
 3.233  -05 2.767  +01   11.
 3.239  -05 2.473  +01    9.8
 3.244  -05 2.665  +01   10.
 3.250  -05 2.684  +01   11.
 3.256  -05 2.603  +01   12.
 3.261  -05 2.690  +01   10.
 3.267  -05 2.818  +01     .0
 3.272  -05 2.977  +01    9.8
 3.278  -05 3.101  +01    9.2
 3.284  -05 3.137  +01    9.9
 3.289  -05 2.901  +01   11.
 3.295  -05 2.871  +01    9.9
 3.301  -05 2.691  +01   10.
 3.306  -05 2.313  +01   12.
 3.312  -05 2.119  +01   10.
 3.318  -05 2.181  +01    9.9
 3.323  -05 2.013  +01   12.
 3.329  -05 2.006  +01    9.8
 3.335  -05 1.934  +01   11.
 3.341  -05 1.950  +01     .0
 3.346  -05 2.377  +01   15.
 3.352  -05 3.344  +01   13.
 3.358  -05 4.367  +01   12.
 3.364  -05 5.181  +01     .0
 3.370  -05 5.464  +01    9.2
 3.376  -05 6.277  +01    9.7
 3.382  -05 7.009  +01    9.0
 3.387  -05 7.248  +01    9.0
 3.393  -05 6.919  +01   10.
 3.399  -05 6.346  +01    9.1
 3.405  -05 6.604  +01    9.4
 3.411  -05 6.384  +01    9.6
 3.417  -05 6.401  +01   11.
 3.423  -05 5.502  +01    9.2
 3.429  -05 5.041  +01   10.
 3.435  -05 5.083  +01    9.9
 3.441  -05 5.233  +01    9.3
 3.447  -05 5.351  +01    9.0
 3.453  -05 5.144  +01   10.
 3.459  -05 5.314  +01   14.
 3.465  -05 6.999  +01    9.7
 3.472  -05 8.008  +01   10.
 3.478  -05 9.304  +01    8.8
 3.484  -05 1.005  +02    9.4
 3.490  -05 1.070  +02    9.3
 3.496  -05 1.110  +02    8.8
 3.502  -05 1.049  +02    8.8
 3.509  -05 9.470  +01    8.9
 3.515  -05 9.126  +01    8.9
 3.521  -05 9.009  +01    8.9
 3.527  -05 8.890  +01    8.9
 3.534  -05 9.538  +01    8.8
 3.540  -05 1.046  +02    8.9
 3.546  -05 1.097  +02    8.8
 3.553  -05 1.156  +02    8.9
 3.559  -05 1.123  +02    8.8
 3.565  -05 1.115  +02    8.8
 3.572  -05 1.126  +02    8.9
 3.578  -05 1.056  +02    8.7
 3.585  -05 1.077  +02    8.9
 3.591  -05 1.170  +02    9.0
 3.597  -05 1.240  +02    9.5
 3.604  -05 1.239  +02    8.7
 3.610  -05 1.369  +02    8.6
 3.617  -05 1.454  +02    8.6
 3.623  -05 1.534  +02    8.8
 3.630  -05 1.490  +02    9.1
 3.637  -05 1.575  +02    8.6
 3.643  -05 1.513  +02    9.3
 3.650  -05 1.318  +02   11.
 3.656  -05 1.141  +02   10.
 3.663  -05 8.990  +01   12.
 3.670  -05 6.722  +01   11.
 3.676  -05 4.500  +01   13.
 3.683  -05 3.364  +01   16.
 3.690  -05 3.450  +01   13.
 3.696  -05 4.199  +01   12.
 3.703  -05 4.691  +01   13.
 3.710  -05 5.018  +01   10.
 3.717  -05 4.972  +01    9.3
 3.723  -05 5.317  +01    9.0
 3.730  -05 6.070  +01    9.3
 3.737  -05 7.315  +01   11.
 3.744  -05 9.026  +01    9.9
 3.751  -05 1.017  +02    9.4
 3.758  -05 1.097  +02    9.4
 3.765  -05 1.188  +02   11.
 3.772  -05 1.220  +02   10.
 3.779  -05 1.214  +02   11.
 3.785  -05 1.166  +02   12.
 3.792  -05 1.079  +02     .0
 3.799  -05 9.146  +01   12.
 3.806  -05 6.434  +01   15.
 3.814  -05 5.533  +01    9.6
 3.821  -05 4.526  +01   13.
 3.828  -05 3.402  +01   16.
 3.835  -05 2.884  +01   17.
 3.842  -05 2.716  +01   16.
 3.849  -05 2.553  +01   13.
 3.856  -05 2.569  +01    9.5
 3.863  -05 2.704  +01   11.
 3.871  -05 3.472  +01   12.
 3.878  -05 4.795  +01   13.
 3.885  -05 5.922  +01    9.5
 3.892  -05 6.668  +01    9.8
 3.900  -05 7.106  +01   10.
 3.907  -05 7.469  +01   10.
 3.914  -05 6.983  +01   11.
 3.922  -05 6.199  +01   11.
 3.929  -05 5.558  +01    9.2
 3.936  -05 5.611  +01   11.
 3.944  -05 5.242  +01   10.
 3.951  -05 5.109  +01    9.6
 3.959  -05 5.938  +01    9.1
 3.966  -05 6.479  +01    8.6
 3.974  -05 7.047  +01    9.2
 3.981  -05 7.760  +01    9.0
 3.989  -05 8.344  +01    9.1
 4.002  -05 9.083  +01   11.
 4.009  -05 9.334  +01   12.
 4.017  -05 8.192  +01   14.
 4.024  -05 6.818  +01   15.
 4.032  -05 5.345  +01   14.
 4.040  -05 3.641  +01   15.
 4.047  -05 3.080  +01   10.
 4.055  -05 2.857  +01    9.5
 4.063  -05 2.643  +01   10.
 4.071  -05 2.748  +01    9.2
 4.078  -05 2.840  +01    9.3
 4.086  -05 3.147  +01    9.5
 4.094  -05 3.511  +01    9.5
 4.102  -05 4.004  +01    9.1
 4.110  -05 4.927  +01   11.
 4.118  -05 6.157  +01   10.
 4.126  -05 6.510  +01    9.0
 4.134  -05 6.274  +01    9.0
 4.142  -05 5.646  +01    9.7
 4.150  -05 5.073  +01   10.
 4.158  -05 4.586  +01   11.
 4.166  -05 3.657  +01     .0
 4.174  -05 3.357  +01    9.4
 4.182  -05 3.246  +01    9.6
 4.190  -05 3.497  +01   12.
 4.198  -05 4.417  +01   11.
 4.206  -05 4.993  +01    9.2
 4.214  -05 5.355  +01    8.8
 4.223  -05 5.596  +01    9.0
 4.231  -05 5.233  +01   12.
 4.239  -05 4.452  +01   13.
 4.247  -05 3.550  +01   14.
 4.256  -05 2.731  +01   13.
 4.264  -05 2.606  +01    9.3
 4.272  -05 2.822  +01    9.5
 4.281  -05 3.171  +01   10.
 4.289  -05 3.364  +01    9.3
 4.298  -05 3.722  +01    9.5
 4.306  -05 3.596  +01   11.
 4.314  -05 3.038  +01   11.
 4.323  -05 2.612  +01   13.
 4.331  -05 2.206  +01   16.
 4.340  -05 1.690  +01   12.
 4.349  -05 1.530  +01   12.
 4.357  -05 1.415  +01   11.
 4.366  -05 1.352  +01   10.
 4.375  -05 1.317  +01   11.
 4.383  -05 1.158  +01   12.
 4.392  -05 1.113  +01    9.8
 4.401  -05 1.177  +01   11.
 4.409  -05 1.208  +01     .0
 4.418  -05 1.178  +01   10.
 4.427  -05 1.303  +01   12.
 4.436  -05 1.286  +01   11.
 4.445  -05 1.192  +01   10.
 4.454  -05 8.621  +00   12.
 4.462  -05 7.907  +00   16.
 4.471  -05 9.141  +00   12.
 4.480  -05 8.319  +00   12.
 4.489  -05 7.642  +00   11.
 4.498  -05 8.794  +00   10.
 4.507  -05 8.282  +00   10.
 4.517  -05 1.218  +01   19.
 4.526  -05 1.525  +01   11.
 4.535  -05 1.981  +01   10.
 4.544  -05 2.145  +01   11.
 4.553  -05 2.282  +01    9.5
 4.562  -05 2.463  +01    9.2
 4.572  -05 2.470  +01    9.3
 4.581  -05 2.469  +01    9.5
 4.590  -05 2.559  +01   10.
 4.600  -05 2.667  +01    9.2
 4.609  -05 3.288  +01   11.
 4.618  -05 3.892  +01     .0
 4.628  -05 3.742  +01    9.6
 4.637  -05 4.273  +01   14.
 4.647  -05 3.830  +01    9.7
 4.656  -05 3.429  +01   10.
 4.666  -05 2.898  +01   13.
 4.675  -05 2.584  +01    9.3
 4.685  -05 2.662  +01    9.3
 4.694  -05 2.628  +01    9.3
 4.704  -05 2.871  +01    9.9
 4.714  -05 3.050  +01    9.4
 4.723  -05 2.804  +01     .0
 4.733  -05 2.726  +01   10.
 4.743  -05 2.780  +01    9.8
 4.753  -05 2.888  +01    9.6
 4.763  -05 3.147  +01    9.4
 4.772  -05 3.457  +01    9.4
 4.782  -05 3.630  +01    9.5
 4.792  -05 4.445  +01   11.
 4.802  -05 5.470  +01    9.3
 4.812  -05 6.617  +01   11.
 4.822  -05 8.314  +01    9.3
 4.832  -05 9.162  +01    9.1
 4.842  -05 8.925  +01    9.0
 4.852  -05 9.055  +01    8.8
 4.863  -05 8.028  +01   11.
 4.873  -05 7.104  +01    9.1
 4.883  -05 6.951  +01    8.9
 4.893  -05 7.776  +01   10.
 4.903  -05 9.276  +01    9.7
 4.914  -05 1.102  +02    8.9
 4.924  -05 1.137  +02    8.8
 4.934  -05 1.007  +02    9.3
 4.945  -05 8.277  +01   12.
 4.955  -05 7.158  +01    8.7
 4.966  -05 6.471  +01    9.6
 4.976  -05 6.119  +01    8.9
 4.987  -05 6.874  +01   11.
 4.997  -05 8.541  +01   12.
 5.008  -05 1.031  +02   11.
 5.019  -05 1.270  +02    9.4
 5.029  -05 1.361  +02    9.0
 5.040  -05 1.310  +02    9.2
 5.051  -05 1.110  +02    9.9
 5.061  -05 9.057  +01   11.
 5.072  -05 8.466  +01    8.7
 5.083  -05 8.091  +01   10.
 5.094  -05 8.408  +01    9.2
 5.105  -05 7.824  +01   10.
 5.116  -05 7.393  +01    9.3
 5.127  -05 6.711  +01    9.4
 5.138  -05 5.970  +01    9.0
 5.149  -05 5.977  +01    9.3
 5.160  -05 6.558  +01   11.
 5.171  -05 7.177  +01   10.
 5.182  -05 7.671  +01    9.8
 5.193  -05 7.477  +01    9.0
 5.205  -05 6.867  +01    9.9
 5.216  -05 5.734  +01   11.
 5.227  -05 5.307  +01    9.5
 5.239  -05 5.031  +01   10.
 5.250  -05 4.537  +01    8.9
 5.261  -05 3.841  +01   14.
 5.273  -05 3.182  +01   12.
 5.284  -05 2.870  +01    9.9
 5.296  -05 2.925  +01    9.3
 5.307  -05 3.259  +01     .0
 5.319  -05 3.980  +01   12.
 5.331  -05 5.151  +01   12.
 5.342  -05 6.238  +01   13.
 5.354  -05 8.182  +01   14.
 5.366  -05 9.824  +01   12.
 5.378  -05 1.143  +02    9.3
 5.389  -05 1.144  +02    8.9
 5.401  -05 1.026  +02    9.0
 5.413  -05 9.803  +01    8.8
 5.425  -05 9.204  +01   10.
 5.437  -05 8.568  +01   10.
 5.449  -05 7.732  +01    9.3
 5.461  -05 7.134  +01   11.
 5.473  -05 6.785  +01    8.9
 5.486  -05 6.610  +01    8.9
 5.498  -05 6.554  +01    9.1
 5.510  -05 6.386  +01   10.
 5.522  -05 5.648  +01    9.0
 5.535  -05 5.391  +01    8.9
 5.547  -05 5.723  +01    9.5
 5.559  -05 6.312  +01   11.
 5.572  -05 7.281  +01   10.
 5.584  -05 7.374  +01    9.0
 5.597  -05 6.903  +01    8.8
 5.609  -05 7.008  +01    9.4
 5.622  -05 7.692  +01   11.
 5.635  -05 8.448  +01   11.
 5.647  -05 8.338  +01    9.0
 5.660  -05 7.915  +01    9.4
 5.673  -05 7.050  +01    9.6
 5.686  -05 5.637  +01   11.
 5.699  -05 4.276  +01   10.
 5.711  -05 3.978  +01   10.
 5.724  -05 3.909  +01   10.
 5.737  -05 4.662  +01   10.
 5.750  -05 4.646  +01    9.2
 5.764  -05 4.253  +01    9.0
 5.777  -05 4.116  +01    9.5
 5.790  -05 4.356  +01    9.7
 5.803  -05 5.034  +01   12.
 5.816  -05 5.657  +01    9.5
 5.830  -05 6.562  +01    9.8
 5.843  -05 6.475  +01    9.0
 5.856  -05 6.462  +01    8.8
 5.870  -05 5.665  +01   13.
 5.883  -05 4.401  +01   13.
 5.897  -05 3.878  +01    9.9
 5.910  -05 3.651  +01    9.4
 5.924  -05 2.996  +01   12.
 5.938  -05 3.088  +01   12.
 5.952  -05 3.869  +01   10.
 5.965  -05 5.097  +01   13.
 5.979  -05 6.237  +01   13.
 5.999  -05 6.918  +01     .0
 6.013  -05 6.119  +01   11.
 6.027  -05 4.386  +01   15.
 6.041  -05 3.689  +01   11.
 6.055  -05 3.389  +01   10.
 6.069  -05 3.479  +01    9.2
 6.083  -05 3.958  +01    9.1
 6.098  -05 4.395  +01   10.
 6.112  -05 4.581  +01    8.9
 6.126  -05 4.593  +01    9.1
 6.141  -05 4.298  +01     .0
 6.155  -05 4.035  +01   10.
 6.170  -05 4.176  +01    9.3
 6.184  -05 4.455  +01   11.
 6.199  -05 4.810  +01    9.5
 6.214  -05 5.849  +01   13.
 6.228  -05 7.145  +01   10.
 6.243  -05 7.098  +01   10.
 6.258  -05 6.030  +01   11.
 6.273  -05 5.292  +01   11.
 6.288  -05 4.818  +01    8.9
 6.303  -05 4.757  +01    8.9
 6.318  -05 4.827  +01    9.2
 6.333  -05 4.649  +01    9.4
 6.348  -05 4.409  +01    9.5
 6.363  -05 3.822  +01    9.5
 6.378  -05 3.750  +01   11.
 6.393  -05 4.289  +01   11.
 6.409  -05 5.122  +01    9.4
 6.424  -05 5.457  +01    8.9
 6.440  -05 5.532  +01    9.1
 6.455  -05 6.236  +01   10.
 6.471  -05 6.521  +01   12.
 6.486  -05 5.814  +01   11.
 6.502  -05 7.185  +01   17.
 6.518  -05 9.521  +01    9.5
 6.534  -05 7.782  +01   18.
 6.549  -05 5.292  +01   15.
 6.565  -05 3.738  +01   16.
 6.581  -05 3.255  +01   13.
 6.597  -05 2.960  +01   15.
 6.613  -05 3.244  +01   15.
 6.630  -05 4.059  +01   15.
 6.646  -05 3.869  +01   13.
 6.662  -05 3.202  +01   22.
 6.778  -05 1.543  +01   54.
 6.794  -05 3.326  +01   19.
 6.811  -05 3.415  +01   26.
 6.828  -05 2.524  +01   23.
 6.845  -05 2.408  +01   13.
 6.862  -05 2.783  +01   10.
 6.879  -05 2.680  +01   11.
 6.896  -05 2.715  +01    9.9
 6.913  -05 3.447  +01   14.
 6.931  -05 4.334  +01   10.
 6.948  -05 4.131  +01    9.6
 6.965  -05 4.414  +01    9.1
 6.983  -05 4.704  +01    8.8
 7.000  -05 4.943  +01    9.9
 7.018  -05 4.335  +01   11.
 7.036  -05 3.657  +01   11.
 7.053  -05 3.650  +01   10.
 7.071  -05 3.643  +01   11.
 7.089  -05 3.306  +01    9.1
 7.107  -05 3.604  +01    9.9
 7.125  -05 4.448  +01    9.4
 7.143  -05 4.992  +01    9.4
 7.161  -05 4.970  +01    9.4
 7.179  -05 4.332  +01   10.
 7.197  -05 4.218  +01    9.0
 7.216  -05 3.990  +01    8.9
 7.234  -05 4.292  +01    9.4
 7.253  -05 4.306  +01    9.2
 7.271  -05 4.527  +01    9.0
 7.290  -05 5.168  +01    9.6
 7.308  -05 5.967  +01   11.
 7.327  -05 6.621  +01   11.
 7.346  -05 7.459  +01   12.
 7.365  -05 7.286  +01    9.2
 7.384  -05 6.718  +01    9.1
 7.403  -05 5.456  +01   12.
 7.422  -05 4.374  +01   12.
 7.441  -05 3.724  +01   14.
 7.461  -05 4.336  +01   17.
 7.480  -05 4.213  +01   17.
 7.499  -05 4.155  +01   27.
 7.519  -05 4.696  +01   16.
 7.538  -05 5.124  +01   11.
 7.558  -05 5.264  +01   10.
 7.578  -05 4.580  +01    9.5
 7.598  -05 3.986  +01   11.
 7.618  -05 3.303  +01   11.
 7.637  -05 3.014  +01   12.
 7.658  -05 3.251  +01   11.
 7.678  -05 3.259  +01   12.
 7.698  -05 3.539  +01   11.
 7.718  -05 3.637  +01   10.
 7.738  -05 3.395  +01    9.7
 7.759  -05 2.815  +01   14.
 7.779  -05 1.949  +01   17.
 7.800  -05 1.603  +01   11.
 7.821  -05 1.860  +01   17.
 7.842  -05 2.417  +01   19.
 7.862  -05 4.222  +01   17.
 7.883  -05 6.025  +01   11.
 7.904  -05 5.863  +01   11.
 7.925  -05 4.944  +01   12.
 7.947  -05 4.062  +01   11.
 7.968  -05 3.868  +01    9.1
 7.989  -05 4.001  +01   13.
 7.995  -05 4.001  +01   13.
 8.017  -05 4.927  +01   15.
 8.038  -05 5.280  +01    9.6
 8.049  -05 4.375  +01   10.
 8.060  -05 4.266  +01    9.5
 8.071  -05 3.550  +01    9.9
 8.082  -05 2.743  +01   10.
 8.092  -05 2.292  +01   10.
 8.103  -05 2.367  +01   12.
 8.114  -05 2.258  +01   10.
 8.125  -05 2.356  +01   12.
 8.136  -05 2.175  +01   11.
 8.147  -05 2.019  +01   10.
 8.158  -05 1.866  +01   12.
 8.169  -05 1.964  +01   11.
 8.180  -05 1.933  +01   11.
 8.191  -05 2.036  +01   11.
 8.203  -05 2.323  +01   13.
 8.214  -05 2.341  +01   10.
 8.225  -05 2.334  +01   10.
 8.236  -05 2.555  +01   13.
 8.247  -05 3.001  +01   11.
 8.258  -05 2.734  +01   11.
 8.270  -05 2.637  +01   12.
 8.281  -05 2.879  +01   14.
 8.292  -05 3.097  +01   11.
 8.304  -05 3.694  +01   15.
 8.315  -05 3.895  +01   11.
 8.326  -05 3.944  +01   12.
 8.338  -05 4.041  +01    9.2
 8.349  -05 3.585  +01   11.
 8.361  -05 3.098  +01   11.
 8.372  -05 2.922  +01   10.
 8.383  -05 2.864  +01    9.8
 8.395  -05 3.119  +01    9.8
 8.407  -05 3.501  +01   11.
 8.418  -05 3.844  +01    9.5
 8.430  -05 4.010  +01    9.7
 8.441  -05 4.155  +01    9.7
 8.453  -05 4.226  +01   10.
 8.464  -05 4.039  +01   11.
 8.476  -05 3.633  +01   11.
 8.488  -05 3.475  +01    9.8
 8.500  -05 3.741  +01    9.5
 8.511  -05 3.517  +01   11.
 8.523  -05 3.370  +01    9.7
 8.535  -05 3.055  +01   10.
 8.547  -05 3.049  +01   10.
 8.559  -05 2.725  +01   11.
 8.570  -05 2.827  +01   15.
 8.582  -05 2.854  +01   15.
 8.594  -05 2.909  +01   11.
 8.606  -05 3.263  +01   11.
 8.618  -05 3.504  +01     .0
 8.630  -05 4.259  +01   14.
 8.642  -05 4.385  +01     .0
 8.654  -05 4.921  +01    9.7
 8.666  -05 4.925  +01    9.9
 8.678  -05 4.863  +01    9.9
 8.690  -05 4.779  +01    9.7
 8.703  -05 4.513  +01    9.7
 8.715  -05 4.297  +01    9.5
 8.727  -05 4.509  +01   13.
 8.739  -05 4.092  +01    9.9
 8.751  -05 4.079  +01   12.
 8.764  -05 4.145  +01   11.
 8.776  -05 5.009  +01   17.
 8.788  -05 5.506  +01   13.
 8.801  -05 5.770  +01   11.
 8.813  -05 5.916  +01   10.
 8.825  -05 5.824  +01    9.5
 8.838  -05 5.778  +01    9.5
 8.850  -05 5.429  +01   10.
 8.863  -05 4.746  +01    9.3
 8.875  -05 4.152  +01   10.
 8.888  -05 3.512  +01   13.
 8.900  -05 3.161  +01    9.9
 8.913  -05 2.612  +01   10.
 8.926  -05 2.582  +01   13.
 8.938  -05 2.561  +01   11.
 8.951  -05 2.655  +01   10.
 8.964  -05 2.491  +01   11.
 8.976  -05 2.268  +01   10.
 8.989  -05 2.124  +01   11.
 9.002  -05 2.249  +01   13.
 9.015  -05 2.430  +01   14.
 9.027  -05 2.609  +01   10.
 9.040  -05 2.880  +01   13.
 9.053  -05 2.771  +01   10.
 9.066  -05 2.682  +01    9.9
 9.079  -05 2.675  +01   10.
 9.092  -05 2.600  +01   12.
 9.105  -05 2.451  +01   11.
 9.118  -05 2.447  +01   12.
 9.131  -05 2.684  +01   10.
 9.144  -05 2.922  +01   11.
 9.157  -05 3.226  +01    9.9
 9.170  -05 3.772  +01   12.
 9.183  -05 4.057  +01   12.
 9.197  -05 4.661  +01   10.
 9.210  -05 4.934  +01    9.6
 9.223  -05 4.490  +01   13.
 9.236  -05 3.836  +01   12.
 9.250  -05 3.479  +01   12.
 9.263  -05 3.287  +01    9.6
 9.276  -05 3.416  +01   11.
 9.290  -05 3.176  +01   10.
 9.303  -05 3.465  +01   21.
 9.317  -05 3.689  +01   16.
 9.330  -05 4.245  +01   11.
 9.344  -05 4.768  +01   20.
 9.357  -05 5.306  +01   11.
 9.371  -05 5.872  +01   13.
 9.384  -05 6.874  +01   11.
 9.398  -05 7.406  +01   10.
 9.412  -05 7.039  +01    9.4
 9.425  -05 7.274  +01    9.5
 9.453  -05 6.019  +01   11.
 9.467  -05 5.530  +01    9.5
 9.480  -05 5.523  +01   10.
 9.494  -05 5.412  +01   10.
 9.508  -05 5.060  +01   11.
 9.522  -05 4.237  +01   13.
 9.536  -05 3.708  +01   13.
 9.550  -05 3.222  +01   15.
 9.564  -05 2.551  +01   17.
 9.578  -05 2.360  +01   16.
 9.592  -05 2.475  +01   20.
 9.606  -05 2.740  +01   14.
 9.620  -05 3.287  +01   12.
 9.634  -05 3.567  +01   11.
 9.648  -05 4.009  +01   11.
 9.663  -05 4.490  +01   11.
 9.677  -05 5.409  +01   14.
 9.691  -05 5.028  +01   12.
 9.705  -05 4.609  +01    9.7
 9.720  -05 4.041  +01   11.
 9.734  -05 3.960  +01    9.8
 9.749  -05 4.073  +01   11.
 9.763  -05 3.801  +01     .0
 9.777  -05 3.300  +01   12.
 9.792  -05 2.959  +01   12.
 9.806  -05 2.947  +01   13.
 9.821  -05 2.763  +01   10.
 9.836  -05 2.579  +01   11.
 9.850  -05 2.670  +01   11.
 9.865  -05 2.678  +01   10.
 9.880  -05 2.610  +01   14.
 9.894  -05 2.217  +01   11.
 9.909  -05 2.133  +01   14.
 9.924  -05 2.392  +01   17.
 9.939  -05 2.674  +01   16.
 9.953  -05 3.056  +01   20.
 9.968  -05 3.376  +01   12.
 9.983  -05 3.327  +01   10.
 9.998  -05 3.599  +01   14.
 1.001  -04 3.703  +01   11.
 1.003  -04 3.758  +01   10.
 1.006  -04 4.247  +01   20.
 1.007  -04 4.752  +01   14.
 1.009  -04 5.477  +01   13.
 1.010  -04 6.080  +01   12.
 1.012  -04 6.734  +01   14.
 1.013  -04 5.893  +01    9.9
 1.015  -04 5.066  +01   10.
 1.016  -04 4.475  +01   10.
 1.018  -04 4.263  +01   10.
 1.020  -04 4.174  +01   10.
 1.021  -04 4.152  +01   11.
 1.023  -04 3.986  +01   10.
 1.024  -04 4.305  +01   14.
 1.026  -04 4.582  +01   15.
 1.027  -04 5.335  +01   17.
 1.029  -04 5.805  +01   13.
 1.030  -04 6.087  +01    9.6
 1.032  -04 6.048  +01   10.
 1.034  -04 6.157  +01   10.
 1.035  -04 6.351  +01    9.4
 1.037  -04 5.941  +01   12.
 1.038  -04 5.394  +01   17.
 1.040  -04 4.566  +01   15.
 1.041  -04 3.899  +01   15.
 1.043  -04 3.751  +01   10.
 1.045  -04 3.486  +01   11.
 1.046  -04 3.677  +01   11.
 1.048  -04 3.461  +01   13.
 1.049  -04 3.269  +01   10.
 1.051  -04 3.210  +01   12.
 1.053  -04 3.447  +01   18.
 1.054  -04 3.547  +01   19.
 1.056  -04 4.190  +01   21.
 1.058  -04 4.225  +01   21.
 1.059  -04 3.822  +01   15.
 1.061  -04 3.423  +01   13.
 1.062  -04 2.792  +01   12.
 1.064  -04 2.683  +01   18.
 1.066  -04 3.294  +01   20.
 1.067  -04 4.068  +01   13.
 1.069  -04 4.887  +01   15.
 1.071  -04 4.993  +01    9.8
 1.072  -04 5.136  +01   10.
 1.074  -04 4.872  +01   10.
 1.076  -04 4.627  +01   12.
 1.077  -04 4.107  +01   11.
 1.079  -04 3.660  +01   10.
 1.081  -04 3.070  +01   10.
 1.082  -04 3.169  +01   17.
 1.084  -04 3.115  +01   13.
 1.086  -04 2.772  +01   11.
 1.088  -04 2.437  +01   11.
 1.089  -04 2.324  +01   11.
 1.091  -04 2.128  +01   12.
 1.093  -04 2.462  +01   24.
 1.094  -04 2.386  +01   17.
 1.096  -04 2.673  +01   18.
 1.098  -04 2.925  +01   14.
 1.100  -04 3.373  +01   13.
 1.101  -04 3.737  +01   13.
 1.103  -04 4.199  +01   15.
 1.105  -04 4.616  +01   10.
 1.106  -04 4.623  +01   11.
 1.108  -04 4.489  +01   11.
 1.110  -04 4.169  +01   11.
 1.112  -04 3.792  +01   12.
 1.113  -04 3.298  +01   11.
 1.115  -04 3.110  +01   12.
 1.117  -04 2.735  +01   13.
 1.119  -04 2.583  +01   13.
 1.121  -04 2.528  +01   14.
 1.122  -04 2.606  +01   26.
 1.124  -04 2.344  +01   28.
 1.126  -04 2.691  +01   21.
 1.128  -04 3.464  +01   25.
 1.129  -04 3.664  +01   32.
 1.131  -04 3.130  +01   29.
 1.133  -04 2.841  +01   22.
 1.135  -04 2.573  +01   18.
 1.137  -04 2.636  +01   12.
 1.138  -04 2.854  +01   11.
 1.140  -04 3.075  +01   13.
 1.142  -04 3.251  +01   11.
 1.144  -04 3.750  +01   17.
 1.146  -04 3.785  +01   11.
 1.148  -04 3.691  +01   13.
 1.149  -04 3.709  +01   11.
 1.151  -04 3.592  +01   13.
 1.153  -04 3.521  +01   12.
 1.155  -04 3.577  +01   12.
 1.157  -04 3.543  +01   12.
 1.159  -04 3.707  +01   11.
 1.161  -04 3.418  +01   12.
 1.163  -04 2.960  +01   12.
 1.164  -04 3.070  +01   12.
 1.166  -04 3.446  +01   12.
 1.168  -04 3.301  +01   12.
 1.170  -04 2.744  +01   13.
 1.172  -04 2.160  +01   14.
 1.174  -04 1.737  +01   14.
 1.176  -04 1.418  +01   17.
 1.178  -04 1.037  +01   19.
 1.180  -04 1.124  +01   19.
 1.182  -04 1.487  +01   18.
 1.183  -04 1.475  +01   19.
 1.185  -04 1.607  +01   22.
 1.187  -04 1.926  +01   22.
 1.189  -04 1.627  +01   25.
 1.191  -04 1.719  +01   29.
 1.193  -04 1.512  +01   29.
 1.195  -04 1.274  +01   34.
 1.197  -04 1.604  +01   30.
 1.200  -04 1.595  +01   33.
 1.202  -04 1.379  +01   43.
 1.204  -04 1.602  +01   43.
 1.206  -04 2.136  +01   42.
 1.208  -04 3.079  +01   36.
 1.210  -04 3.256  +01   40.
 1.212  -04 3.441  +01   23.
 1.214  -04 3.188  +01   15.
 1.216  -04 3.412  +01   12.
 1.218  -04 3.368  +01   17.
 1.220  -04 3.075  +01   13.
 1.222  -04 3.201  +01   12.
 1.224  -04 3.058  +01   12.
 1.226  -04 3.202  +01   12.
 1.228  -04 2.990  +01   12.
 1.230  -04 3.179  +01   16.
 1.232  -04 2.962  +01   12.
 1.234  -04 3.060  +01   11.
 1.236  -04 2.872  +01   11.
 1.238  -04 2.447  +01   14.
 1.240  -04 1.938  +01   12.
 1.242  -04 1.673  +01   14.
 1.244  -04 1.761  +01   15.
 1.248  -04 2.426  +01   27.
 1.250  -04 2.528  +01   16.
 1.253  -04 2.808  +01   11.
 1.255  -04 2.834  +01   11.
 1.257  -04 2.794  +01   11.
 1.259  -04 2.734  +01   12.
 1.261  -04 2.940  +01   11.
 1.263  -04 2.778  +01   14.
 1.265  -04 2.804  +01   12.
 1.267  -04 2.936  +01   17.
 1.269  -04 2.768  +01   13.
 1.272  -04 2.668  +01   11.
 1.274  -04 2.561  +01   12.
 1.276  -04 2.414  +01   12.
 1.278  -04 2.383  +01   17.
 1.280  -04 2.506  +01   12.
 1.282  -04 2.538  +01   12.
 1.285  -04 2.245  +01   13.
 1.287  -04 2.313  +01   13.
 1.289  -04 2.615  +01   18.
 1.291  -04 2.450  +01   14.
 1.293  -04 2.632  +01   17.
 1.296  -04 2.911  +01   17.
 1.298  -04 3.020  +01   11.
 1.300  -04 2.804  +01   13.
 1.302  -04 2.604  +01   14.
 1.304  -04 2.412  +01   12.
 1.307  -04 2.356  +01   18.
 1.309  -04 2.300  +01   13.
 1.311  -04 2.644  +01   19.
 1.313  -04 2.854  +01   14.
 1.316  -04 2.979  +01   18.
 1.318  -04 3.676  +01   23.
 1.320  -04 3.705  +01   11.
 1.322  -04 3.585  +01   10.
 1.327  -04 3.234  +01   11.
 1.329  -04 3.620  +01   17.
 1.332  -04 3.513  +01   13.
 1.334  -04 3.120  +01   12.
 1.336  -04 2.644  +01   13.
 1.339  -04 2.358  +01   12.
 1.341  -04 2.210  +01   12.
 1.343  -04 2.116  +01   13.
 1.346  -04 2.772  +01   19.
 1.348  -04 2.672  +01   14.
 1.350  -04 3.365  +01   16.
 1.353  -04 3.834  +01   17.
 1.355  -04 3.656  +01   12.
 1.357  -04 4.770  +01   22.
 1.360  -04 4.984  +01   14.
 1.362  -04 5.037  +01   15.
 1.364  -04 4.869  +01   11.
 1.367  -04 4.373  +01   14.
 1.369  -04 3.781  +01   12.
 1.372  -04 3.727  +01   18.
 1.374  -04 3.522  +01   13.
 1.376  -04 3.829  +01   16.
 1.379  -04 3.994  +01   14.
 1.381  -04 3.761  +01   15.
 1.384  -04 2.978  +01   14.
 1.386  -04 2.549  +01   14.
 1.389  -04 2.513  +01   16.
 1.391  -04 2.295  +01   17.
 1.394  -04 1.993  +01   21.
 1.396  -04 1.823  +01   29.
 1.398  -04 1.835  +01   26.
 1.401  -04 2.313  +01   24.
 1.403  -04 2.677  +01   19.
 1.406  -04 2.078  +01   21.
 1.408  -04 1.964  +01   25.
 1.411  -04 2.186  +01   23.
 1.413  -04 1.863  +01   13.
 1.416  -04 2.021  +01   15.
 1.419  -04 2.070  +01   12.
 1.421  -04 2.257  +01   12.
 1.424  -04 2.603  +01   15.
 1.426  -04 2.875  +01   14.
 1.429  -04 2.786  +01   15.
 1.431  -04 3.000  +01   14.
 1.434  -04 3.358  +01   17.
 1.436  -04 3.314  +01   12.
 1.439  -04 3.142  +01   13.
 1.442  -04 3.106  +01   16.
 1.444  -04 3.138  +01   16.
 1.447  -04 3.247  +01   12.
 1.449  -04 2.921  +01   15.
 1.452  -04 2.755  +01   15.
 1.455  -04 2.307  +01   12.
 1.457  -04 1.988  +01   12.
 1.460  -04 1.682  +01   14.
 1.463  -04 1.417  +01   15.
 1.465  -04 1.511  +01   35.
 1.468  -04 1.357  +01   22.
 1.471  -04 1.420  +01   19.
 1.473  -04 1.397  +01   28.
 1.476  -04 1.394  +01   18.
 1.479  -04 1.482  +01   22.
 1.481  -04 1.717  +01   23.
 1.484  -04 2.114  +01   17.
 1.487  -04 2.437  +01   21.
 1.489  -04 2.399  +01   18.
 1.492  -04 2.462  +01   15.
 1.495  -04 2.470  +01   17.
 1.498  -04 2.162  +01   21.
 1.500  -04 1.794  +01   27.
 1.503  -04 1.657  +01   28.
 1.506  -04 2.192  +01   19.
 1.509  -04 2.902  +01   16.
 1.511  -04 2.331  +01   18.
 1.514  -04 2.150  +01   18.
 1.517  -04 1.903  +01   15.
 1.520  -04 2.223  +01   19.
 1.523  -04 2.566  +01   27.
 1.525  -04 2.312  +01   13.
 1.528  -04 2.339  +01   14.
 1.531  -04 2.374  +01   16.
 1.534  -04 2.153  +01   24.
 1.537  -04 2.138  +01   24.
 1.540  -04 2.180  +01   17.
 1.542  -04 2.223  +01   16.
 1.545  -04 1.984  +01   16.
 1.548  -04 2.072  +01   16.
 1.551  -04 2.386  +01   15.
 1.554  -04 3.075  +01   16.
 1.557  -04 3.479  +01   19.
 1.560  -04 3.270  +01   14.
 1.563  -04 3.398  +01   14.
 1.566  -04 3.521  +01   12.
 1.569  -04 3.293  +01   14.
 1.572  -04 3.586  +01   23.
 1.575  -04 3.705  +01   14.
 1.577  -04 3.684  +01   11.
 1.580  -04 3.343  +01   17.
 1.583  -04 3.227  +01   16.
 1.586  -04 3.082  +01   13.
 1.589  -04 3.032  +01   13.
 1.592  -04 3.242  +01   17.
 1.595  -04 3.178  +01   18.
 1.600  -04 3.084  +01   14.
 1.603  -04 3.311  +01   16.
 1.606  -04 3.046  +01   14.
 1.609  -04 2.955  +01   15.
 1.612  -04 2.995  +01   12.
 1.615  -04 3.210  +01   17.
 1.618  -04 3.207  +01   21.
 1.621  -04 3.343  +01   13.
 1.624  -04 3.452  +01   14.
 1.627  -04 3.482  +01   16.
 1.631  -04 3.248  +01   18.
 1.634  -04 2.961  +01   14.
 1.637  -04 2.612  +01   17.
 1.640  -04 2.417  +01   16.
 1.646  -04 2.007  +01   15.
 1.649  -04 1.846  +01   15.
 1.653  -04 1.750  +01   15.
 1.656  -04 2.017  +01   18.
 1.659  -04 2.100  +01   16.
 1.662  -04 2.249  +01   14.
 1.665  -04 2.283  +01   12.
 1.669  -04 2.653  +01   12.
 1.672  -04 2.958  +01   24.
 1.675  -04 2.741  +01   13.
 1.678  -04 2.717  +01   15.
 1.682  -04 2.852  +01   14.
 1.685  -04 2.762  +01   17.
 1.688  -04 3.216  +01   16.
 1.691  -04 3.645  +01   27.
 1.695  -04 3.690  +01   14.
 1.698  -04 3.429  +01   14.
 1.701  -04 3.979  +01   13.
 1.705  -04 3.675  +01   18.
 1.708  -04 3.668  +01   13.
 1.711  -04 3.241  +01   18.
 1.715  -04 2.905  +01   16.
 1.718  -04 2.557  +01   14.
 1.722  -04 2.650  +01   13.
 1.725  -04 2.749  +01   16.
 1.728  -04 2.868  +01   21.
 1.732  -04 2.903  +01   13.
 1.735  -04 3.125  +01   20.
 1.739  -04 3.157  +01   18.
 1.742  -04 3.212  +01   12.
 1.745  -04 3.682  +01   21.
 1.749  -04 3.491  +01   23.
 1.752  -04 4.067  +01   21.
 1.756  -04 3.743  +01   13.
 1.759  -04 4.177  +01   14.
 1.763  -04 4.135  +01   23.
 1.766  -04 3.865  +01   19.
 1.770  -04 3.698  +01   20.
 1.773  -04 3.525  +01   12.
 1.777  -04 3.220  +01   14.
 1.781  -04 3.523  +01   17.
 1.784  -04 3.273  +01   14.
 1.788  -04 3.478  +01   13.
 1.791  -04 3.451  +01   14.
 1.795  -04 3.202  +01   18.
 1.798  -04 3.001  +01   15.
 1.802  -04 3.120  +01   21.
 1.806  -04 3.682  +01   24.
 1.809  -04 3.309  +01   16.
 1.813  -04 3.192  +01   16.
 1.817  -04 2.846  +01   15.
 1.820  -04 3.215  +01   17.
 1.824  -04 3.216  +01   16.
 1.828  -04 3.054  +01   15.
 1.831  -04 3.425  +01   16.
 1.835  -04 2.972  +01   17.
 1.839  -04 2.721  +01   20.
 1.843  -04 2.262  +01   20.
 1.846  -04 1.957  +01   21.
 1.850  -04 1.843  +01   23.
 1.854  -04 1.792  +01   14.
 1.858  -04 1.720  +01   24.
 1.861  -04 1.550  +01   21.
 1.865  -04 1.555  +01   26.
 1.869  -04 1.920  +01   28.
 1.873  -04 2.223  +01   15.
 1.877  -04 2.654  +01   29.
 1.881  -04 2.709  +01   17.
 1.884  -04 3.179  +01   25.
 1.888  -04 3.377  +01   20.
 1.892  -04 3.742  +01   13.
 1.896  -04 3.556  +01   15.
 1.900  -04 4.082  +01   15.
 1.904  -04 3.971  +01   13.
 1.908  -04 3.637  +01   16.
 1.912  -04 3.371  +01   17.
 1.916  -04 3.097  +01   14.
 1.920  -04 3.510  +01   13.
 1.924  -04 3.470  +01   16.
 1.928  -04 3.216  +01   24.
 1.932  -04 3.478  +01   13.
 1.936  -04 3.109  +01   13.
 1.940  -04 2.506  +01   16.
 1.944  -04 2.408  +01   16.
 1.948  -04 2.509  +01   15.
 1.952  -04 2.991  +01   17.
 1.956  -04 2.954  +01   16.
 1.960  -04 2.805  +01   14.
 1.964  -04 2.897  +01   14.
 1.969  -04 3.090  +01   13.
 1.973  -04 3.305  +01   16.
 1.977  -04 2.999  +01   14.
 1.981  -04 3.425  +01   26.
 1.985  -04 3.486  +01   12.
 1.989  -04 3.571  +01   13.
 1.994  -04 3.759  +01   16.
 1.999  -04 4.154  +01   21.
 2.003  -04 4.039  +01   13.
 2.007  -04 4.852  +01   31.
 2.012  -04 3.531  +01   15.
 2.016  -04 3.700  +01   17.
 2.020  -04 3.858  +01   19.
 2.025  -04 3.910  +01   18.
 2.029  -04 4.290  +01   12.
 2.033  -04 4.082  +01   18.
 2.038  -04 4.340  +01   17.
 2.042  -04 4.160  +01   15.
 2.046  -04 4.009  +01   16.
 2.051  -04 3.896  +01   18.
 2.055  -04 4.222  +01   25.
 2.060  -04 3.925  +01   20.
 2.064  -04 3.609  +01   23.
 2.068  -04 3.351  +01   14.
 2.073  -04 3.370  +01   14.
 2.077  -04 3.150  +01   15.
 2.082  -04 2.886  +01   15.
 2.086  -04 3.334  +01   20.
 2.091  -04 3.384  +01   21.
 2.095  -04 3.259  +01   15.
 2.100  -04 3.119  +01   14.
 2.105  -04 2.810  +01   20.
 2.109  -04 2.549  +01   20.
 2.114  -04 2.716  +01   32.
 2.118  -04 3.495  +01   28.
 2.123  -04 3.345  +01   17.
 2.128  -04 3.584  +01   17.
 2.132  -04 3.288  +01   22.
 2.137  -04 2.938  +01   19.
 2.142  -04 2.273  +01   16.
 2.146  -04 2.871  +01   32.
 2.151  -04 2.817  +01   23.
 2.156  -04 3.287  +01   17.
 2.161  -04 2.922  +01   16.
 2.165  -04 2.996  +01   20.
 2.170  -04 3.388  +01   18.
 2.175  -04 2.864  +01   16.
 2.180  -04 3.278  +01   21.
 2.185  -04 2.771  +01   17.
 2.189  -04 2.487  +01   20.
 2.194  -04 2.690  +01   23.
 2.199  -04 2.402  +01   16.
 2.204  -04 2.619  +01   25.
 2.209  -04 2.566  +01   25.
 2.214  -04 2.676  +01   19.
 2.219  -04 2.711  +01   17.
 2.224  -04 2.882  +01   18.
 2.229  -04 2.774  +01   17.
 2.234  -04 2.869  +01   25.
 2.239  -04 3.200  +01   26.
 2.244  -04 3.714  +01   25.
 2.249  -04 3.103  +01   28.
 2.254  -04 3.191  +01   19.
 2.259  -04 3.164  +01   27.
 2.264  -04 3.484  +01   14.
 2.269  -04 3.967  +01   17.
 2.274  -04 4.332  +01   22.
 2.279  -04 3.857  +01   18.
 2.285  -04 3.822  +01   20.
 2.290  -04 2.994  +01   18.
 2.295  -04 2.782  +01   24.
 2.300  -04 3.247  +01   30.
 2.305  -04 3.320  +01   22.
 2.311  -04 3.270  +01   21.
 2.316  -04 3.198  +01   31.
 2.321  -04 3.867  +01   26.
 2.327  -04 3.403  +01   26.
 2.332  -04 3.252  +01   20.
 2.337  -04 2.470  +01   26.
 2.343  -04 2.911  +01   32.
 2.348  -04 2.937  +01   41.
 2.353  -04 2.645  +01   19.
 2.359  -04 2.252  +01   18.
 2.364  -04 1.961  +01   22.
 2.370  -04 3.843  +01   35.
 2.375  -04 3.599  +01   20.
 2.381  -04 3.546  +01   20.
 2.386  -04 3.149  +01   30.
 2.392  -04 3.306  +01   21.
 2.397  -04 3.200  +01   26.
 2.402  -04 3.996  +01   20.
 2.408  -04 4.692  +01   20.
 2.419  -04 5.048  +01   31.
 2.425  -04 4.078  +01   22.
 2.430  -04 3.440  +01   25.
 2.436  -04 3.077  +01   25.
 2.442  -04 3.199  +01   21.
 2.448  -04 3.248  +01   23.
 2.453  -04 3.001  +01   17.
 2.459  -04 3.351  +01   21.
 2.465  -04 3.393  +01   20.
 2.471  -04 3.775  +01   38.
 2.477  -04 2.796  +01   20.
 2.482  -04 3.464  +01   28.
 2.488  -04 3.329  +01   24.
 2.494  -04 3.424  +01   29.
 2.500  -04 2.393  +01   27.
 2.506  -04 1.935  +01   25.
 2.512  -04 2.043  +01   37.
 2.518  -04 1.780  +01   33.
 2.524  -04 1.828  +01   38.
 2.530  -04 1.924  +01   46.
 2.536  -04 2.735  +01   37.
 2.542  -04 2.628  +01   19.
 2.548  -04 2.619  +01   17.
 2.554  -04 2.556  +01   28.
 2.560  -04 2.423  +01   24.
 2.566  -04 2.724  +01   31.
 2.573  -04 3.337  +01   28.
 2.579  -04 2.341  +01   18.
 2.585  -04 3.592  +01   37.
 2.591  -04 2.930  +01   27.
 2.598  -04 4.190  +01   16.
 2.604  -04 3.885  +01   20.
 2.610  -04 4.928  +01   43.
 2.616  -04 4.564  +01   23.
 2.623  -04 4.047  +01   18.
 2.629  -04 3.896  +01   28.
 2.636  -04 3.542  +01   43.
 2.642  -04 4.194  +01   18.
 2.648  -04 5.810  +01   34.
 2.655  -04 4.051  +01   17.
 2.661  -04 3.859  +01   22.
 2.668  -04 3.515  +01   27.
 2.674  -04 4.869  +01   38.
 2.681  -04 3.983  +01   22.
 2.688  -04 3.884  +01   27.
 2.694  -04 3.153  +01   24.
 2.701  -04 3.027  +01   19.
 2.708  -04 3.163  +01   26.
 2.714  -04 2.771  +01   27.
 2.721  -04 2.949  +01   29.
 2.728  -04 2.451  +01   22.
 2.734  -04 3.282  +01   29.
 2.741  -04 3.945  +01   39.
 2.748  -04 3.687  +01   28.
 2.755  -04 3.828  +01   23.
 2.762  -04 3.907  +01   29.
 2.769  -04 3.541  +01   18.
 2.776  -04 4.469  +01   26.
 2.783  -04 4.042  +01   27.
 2.789  -04 3.762  +01   18.
 2.796  -04 3.102  +01   24.
 2.800  -04 2.985  +01   32.
 2.807  -04 2.173  +01   23.
 2.814  -04 4.161  +01   29.
 2.821  -04 2.877  +01   23.
 2.828  -04 2.202  +01   29.
 2.836  -04 1.336  +01   32.
 2.843  -04 1.644  +01   35.
 2.850  -04 2.856  +01   21.
 2.857  -04 3.204  +01   21.
 2.864  -04 2.575  +01   18.
 2.872  -04 2.423  +01   28.
 2.879  -04 3.167  +01   34.
 2.886  -04 3.311  +01   21.
 2.894  -04 2.041  +01   32.
 2.901  -04 1.840  +01   51.
 2.908  -04 2.039  +01   53.
 2.916  -04 2.670  +01   43.
 2.923  -04 2.836  +01   34.
 2.931  -04 2.816  +01   32.
 2.938  -04 3.181  +01   50.
 2.946  -04 2.477  +01   20.
 2.954  -04 2.144  +01   38.
 2.961  -04 2.492  +01   31.
 2.969  -04 2.193  +01   27.
 2.977  -04 1.574  +01   29.
 2.984  -04 1.220  +01   38.
 2.992  -04 1.233  +01   55.
 3.000  -04 7.868  +00   80.
 3.008  -04 7.140  +00   60.
 3.015  -04 1.177  +01   52.
 3.023  -04 1.326  +01   61.
 3.031  -04 1.268  +01   68.
 3.039  -04 2.989  +01   53.
 3.047  -04 1.935  +01   43.
 3.055  -04 2.785  +01   41.
 3.063  -04 2.843  +01   26.
 3.071  -04 2.723  +01   40.
 3.079  -04 1.781  +01   33.
 3.087  -04 1.701  +01   41.
 3.095  -04 1.634  +01   46.
 3.104  -04 1.979  +01   51.
 3.112  -04 2.530  +01   46.
 3.120  -04 2.573  +01   29.
 3.128  -04 2.484  +01   27.
 3.137  -04 2.550  +01   35.
 3.145  -04 3.095  +01   57.
 3.153  -04 1.842  +01   27.
 3.162  -04 3.237  +01   63.
 3.170  -04 2.851  +01   50.
 3.179  -04 2.985  +01   21.
 3.187  -04 2.345  +01   29.
 3.196  -04 1.519  +01   41.
 3.197  -04 1.523  +01   29.
 3.215  -04 2.196  +01   41.
 3.232  -04 2.423  +01   42.
 3.249  -04 1.942  +01   26.
 3.267  -04 1.581  +01   35.
 3.285  -04 2.307  +01   30.
 3.303  -04 2.628  +01   31.
 3.321  -04 3.283  +01   24.
 3.339  -04 3.057  +01   25.
 3.358  -04 2.726  +01   35.
 3.376  -04 3.464  +01   33.
 3.395  -04 3.427  +01   27.
 3.414  -04 2.344  +01   31.
 3.433  -04 2.805  +01   31.
 3.452  -04 1.311  +01   34.
 3.471  -04 1.302  +01   55.
 3.491  -04 2.476  +01   34.
 3.510  -04 2.449  +01   25.
 3.530  -04 1.379  +01   31.
 3.550  -04 2.288  +01   30.
 3.570  -04 2.427  +01   27.
 3.591  -04 2.424  +01   33.
 3.611  -04 1.762  +01   26.
 3.632  -04 2.490  +01   33.
 3.653  -04 1.647  +01   31.
 3.674  -04 1.534  +01   45.
 3.695  -04 2.027  +01   35.
 3.717  -04 1.880  +01   24.
 3.738  -04 1.886  +01   36.
 3.760  -04 1.229  +01   45.
 3.782  -04 2.520  +01   38.
 3.804  -04 2.627  +01   50.
 3.827  -04 2.368  +01   30.
 3.849  -04 1.453  +01   31.
 3.872  -04 1.982  +01   33.
 3.895  -04 1.123  +01   52.
 3.918  -04 1.520  +01   46.
 3.942  -04 1.915  +01   30.
 3.965  -04 2.343  +01   37.
 3.989  -04 2.382  +01   43.
 4.013  -04 1.557  +01   27.
 4.037  -04 1.217  +01   41.
 4.062  -04 2.825  +01   35.
 4.087  -04 1.685  +01   28.
 4.112  -04 1.828  +01   32.
 4.137  -04 1.622  +01   37.
 4.162  -04 1.474  +01   39.
 4.188  -04 1.310  +01   31.
 4.214  -04 9.296  +00   66.
 4.240  -04 1.343  +01   54.
 4.266  -04 1.811  +01   36.
 4.293  -04 1.546  +01   37.
 4.320  -04 1.632  +01   34.
 4.347  -04 2.570  +01   28.
 4.374  -04 1.105  +01   46.
 4.402  -04 1.520  +01   38.
 4.430  -04 2.139  +01   32.
 4.458  -04 2.086  +01   24.
 4.486  -04 1.628  +01   29.
 4.515  -04 2.222  +01   39.
 4.544  -04 1.557  +01   46.
 4.573  -04 1.673  +01   43.
 4.603  -04 2.832  +01   30.
 4.632  -04 2.148  +01   25.
 4.663  -04 1.203  +01   52.
 4.693  -04 8.807  +00   60.
 4.724  -04 2.103  +01   35.
 4.755  -04 1.439  +01   27.
 4.786  -04 2.741  +01   40.
 4.818  -04 1.827  +01   36.
 4.850  -04 1.973  +01   42.
 4.882  -04 1.807  +01   30.
 4.914  -04 1.884  +01   36.
 4.947  -04 2.697  +01   30.
 4.981  -04 1.247  +01   31.
 5.014  -04 9.982  +00   37.
 5.048  -04 1.312  +01   48.
 5.082  -04 1.293  +01   54.
 5.117  -04 2.195  +01   28.
 5.152  -04 1.492  +01   58.
 5.187  -04 1.823  +01   62.
 5.223  -04 1.399  +01   60.
 5.259  -04 9.993  +00   58.
 5.295  -04 1.082  +01   60.
 5.407  -04 1.189  +01   44.
 5.445  -04 1.384  +01   34.
 5.484  -04 1.522  +01   51.
 5.522  -04 1.967  +01   36.
 5.562  -04 7.324  +00  108.
 5.601  -04 6.714  +00   65.
 5.641  -04 1.537  +01   55.
 5.682  -04 1.107  +01   71.
 5.723  -04 1.133  +01   43.
 5.764  -04 2.346  +01   50.
 5.806  -04 5.069  +00  126.
 5.848  -04 1.437  +01   45.
 5.891  -04 1.241  +01   54.
 5.934  -04 1.616  +01   53.
 5.984  -04 1.349  +01   50.
 6.029  -04 1.629  +01   40.
 6.074  -04 1.579  +01   35.
 6.119  -04 9.330  +00   52.
 6.165  -04 1.170  +01   62.
 6.211  -04 1.256  +01   57.
 6.258  -04 1.714  +01   34.
 6.305  -04 1.615  +01   46.
 6.353  -04 1.121  +01   44.
 6.401  -04 1.174  +01   59.
 6.450  -04 1.119  +01   48.
 6.500  -04 1.220  +01   43.
 6.550  -04 1.018  +01   44.
 6.601  -04 5.195  +00   72.
 6.652  -04 4.136  +00   68.
 6.704  -04 6.199  +00   58.
 6.757  -04 1.006  +01   60.
 6.810  -04 1.531  +01   42.
 6.864  -04 1.080  +01   37.
 6.918  -04 1.541  +01   48.
 6.973  -04 1.891  +01   44.
 7.029  -04 2.039  +01   25.
 7.085  -04 1.830  +01   28.
 7.142  -04 1.958  +01   27.
 7.200  -04 1.014  +01   30.
 7.259  -04 9.574  +00   51.
 7.318  -04 5.902  +00   66.
 7.378  -04 1.552  +01   40.
 7.438  -04 1.667  +01   41.
 7.500  -04 2.151  +01   40.
 7.562  -04 1.493  +01   41.
 7.625  -04 1.652  +01   50.
 7.689  -04 1.374  +01   35.
 7.753  -04 1.579  +01   33.
 7.819  -04 1.978  +01   30.
 7.885  -04 1.113  +01   40.
 7.952  -04 1.336  +01   52.
 8.020  -04 6.758  +00   58.
 8.089  -04 1.114  +01   45.
 8.158  -04 1.145  +01   46.
 8.229  -04 1.665  +01   41.
 8.301  -04 1.421  +01   37.
 8.373  -04 1.653  +01   37.
 8.447  -04 1.516  +01   30.
 8.521  -04 1.349  +01   29.
 8.596  -04 1.184  +01   36.
 8.673  -04 8.031  +00   37.
 8.750  -04 1.742  +01   35.
 8.829  -04 2.072  +01   47.
 8.908  -04 1.271  +01   38.
 8.989  -04 1.450  +01   41.
 9.070  -04 9.748  +00   40.
 9.153  -04 1.791  +01   31.
 9.237  -04 1.079  +01   36.
 9.322  -04 1.982  +01   33.
 9.409  -04 1.490  +01   34.
 9.496  -04 1.549  +01   40.
 9.585  -04 1.599  +01   33.
 9.675  -04 1.091  +01   46.
 9.766  -04 1.799  +01   40.
 9.859  -04 1.172  +01   36.
 9.953  -04 1.674  +01   40.
 1.003  -03 1.024  +01   33.
 1.013  -03 1.555  +01   33.
 1.023  -03 1.178  +01   57.
 1.043  -03 1.176  +01   30.
 1.053  -03 1.798  +01   18.
 1.063  -03 1.330  +01   26.
 1.074  -03 1.528  +01   21.
 1.085  -03 2.294  +01   18.
 1.095  -03 1.146  +01   29.
 1.106  -03 1.094  +01   25.
 1.118  -03 1.433  +01   25.
 1.129  -03 1.608  +01   24.
 1.140  -03 2.001  +01   20.
 1.152  -03 1.761  +01   32.
 1.164  -03 2.227  +01   29.
 1.176  -03 2.177  +01   20.
 1.188  -03 2.175  +01   18.
 1.201  -03 1.623  +01   31.
 1.213  -03 8.564  +00   39.
 1.226  -03 1.606  +01   46.
 1.239  -03 1.254  +01   34.
 1.253  -03 1.763  +01   26.
 1.266  -03 1.703  +01   26.
 1.280  -03 1.268  +01   27.
 1.294  -03 2.056  +01   25.
 1.308  -03 2.453  +01   15.
 1.322  -03 1.583  +01   23.
 1.337  -03 1.438  +01   20.
 1.352  -03 1.255  +01   42.
 1.367  -03 9.533  +00   41.
 1.382  -03 1.822  +01   22.
 1.414  -03 9.065  +00   32.
 1.430  -03 1.396  +01   26.
 1.463  -03 1.650  +01   20.
 1.480  -03 7.900  +00   48.
 1.497  -03 1.040  +01   45.
 1.515  -03 2.503  +01   28.
 1.533  -03 9.418  +00  106.
 1.551  -03 1.502  +01   30.
 1.589  -03 1.423  +01   34.
 1.608  -03 1.377  +01   27.
 1.628  -03 1.266  +01   23.
 1.668  -03 1.460  +01   26.
 1.710  -03 2.007  +01   18.
 1.732  -03 1.119  +01   34.
 1.754  -03 1.211  +01   26.
 1.776  -03 1.105  +01   54.
 1.799  -03 1.083  +01   23.
 1.822  -03 1.006  +01   29.
 1.846  -03 1.221  +01   34.
 1.870  -03 1.139  +01   33.
 1.895  -03 8.093  +00   25.
 1.920  -03 1.286  +01   21.
 1.945  -03 1.313  +01   35.
 1.972  -03 1.059  +01   32.
 1.998  -03 9.733  +00   21.
 2.053  -03 9.413  +00   27.
 2.082  -03 1.323  +01   30.
 2.111  -03 9.428  +00   36.
 2.141  -03 7.754  +00   36.
 2.171  -03 9.588  +00   29.
 2.202  -03 1.087  +01   21.
 2.233  -03 5.951  +00   45.
 2.266  -03 1.066  +01   31.
 2.298  -03 9.303  +00   44.
 2.367  -03 6.638  +00   41.
 2.402  -03 4.746  +00   41.
 2.438  -03 1.195  +01   30.
 2.475  -03 1.321  +01   28.
 2.512  -03 9.270  +00   32.
 2.551  -03 1.001  +01   24.
 2.590  -03 8.663  +00   27.
 2.631  -03 8.515  +00   28.
 2.672  -03 4.256  +00  102.
 2.758  -03 8.489  +00   35.
 2.802  -03 1.038  +00  293.
 2.847  -03 3.458  +00  107.
 2.894  -03 1.027  +01   23.
 2.942  -03 1.250  +01   16.
 2.991  -03 9.162  +00   21.
 3.041  -03 1.010  +01   33.
 3.092  -03 6.055  +00   26.
 3.145  -03 6.626  +00   33.
 3.255  -03 8.119  +00   26.
 3.312  -03 1.004  +01   26.
 3.370  -03 6.455  +00   26.
 3.430  -03 9.701  +00   30.
 3.492  -03 9.274  +00   21.
 3.555  -03 4.641  +00   62.
 3.621  -03 6.335  +00   46.
 3.687  -03 1.127  +01   25.
 3.756  -03 8.008  +00   23.
 3.900  -03 1.426  +01   18.
 3.975  -03 5.811  +00   26.
 4.052  -03 8.871  +00   34.
 4.132  -03 1.165  +01   24.
 4.213  -03 7.813  +00   22.
 4.298  -03 7.977  +00   50.
 4.385  -03 3.804  +00   55.
 4.474  -03 8.734  +00   26.
 4.566  -03 6.922  +00   27.
 4.760  -03 7.941  +00   25.
 4.861  -03 6.056  +00   23.
 4.966  -03 6.902  +00   26.
 5.074  -03 5.449  +00   29.
 5.186  -03 6.879  +00   28.
 5.301  -03 4.943  +00   54.
 5.420  -03 5.429  +00   35.
 5.544  -03 5.341  +00   32.
 5.672  -03 4.307  +00   66.
 5.804  -03 5.307  +00   40.
 5.941  -03 6.420  +00   31.
 6.083  -03 5.901  +00   41.
 6.230  -03 6.864  +00   28.
 6.383  -03 5.791  +00   36.
 6.541  -03 4.267  +00   34.
 6.705  -03 4.890  +00   26.
 6.876  -03 5.442  +00   23.
 7.053  -03 2.730  +00   52.
 7.428  -03 2.633  -01  413.
 7.628  -03 4.960  +00   32.
 7.835  -03 4.555  +00   32.
 8.051  -03 4.334  +00   29.
 8.276  -03 3.968  +00   30.
 8.511  -03 2.986  +00   53.
 8.757  -03 2.539  +00   69.
 9.012  -03 1.022  +00  208.
 9.280  -03 3.734  +00   37.
 9.852  -03 6.483  +00   35.
 1.003  -02 7.544  +00   20.
 1.018  -02 5.879  +00   21.
 1.034  -02 5.927  +00   27.
 1.050  -02 7.438  +00   33.
 1.067  -02 4.257  +00   24.
 1.084  -02 3.169  +00   49.
 1.101  -02 2.072  +00   62.
 1.119  -02 3.565  +00   32.
 1.137  -02 2.686  +00   49.
 1.155  -02 5.078  +00   46.
 1.194  -02 2.588  +00   60.
 1.214  -02 4.207  +00   31.
 1.234  -02 2.139  +00   78.
 1.255  -02 2.333  +00   66.
 1.369  -02 4.529  +00   37.
 1.394  -02 2.654  +00   60.
 1.419  -02 4.524  +00   38.
 1.472  -02 4.889  +00   43.
 1.499  -02 6.366  +00   71.
 1.527  -02 3.993  +00   91.
 1.556  -02 4.001  +00   63.
 1.586  -02 2.152  +00   75.
 1.617  -02 3.038  +00   49.
 1.649  -02 2.796  +00   43.
 1.750  -02 3.010  +00   41.
 1.785  -02 3.587  +00   31.
 1.822  -02 2.748  +00   31.
 1.860  -02 2.756  +00   55.
 1.981  -02 3.574  +00   84.
 2.024  -02 4.338  +00   29.
 2.115  -02 5.167  +00   25.
 2.162  -02 3.427  +00   28.
 2.212  -02 4.637  +00   37.
 2.315  -02 4.537  +00   23.
 2.370  -02 4.070  +00   23.
 2.426  -02 4.129  +00   21.
 2.485  -02 4.786  +00   20.
 2.546  -02 4.306  +00   23.
 2.609  -02 2.903  +00   25.
 2.674  -02 4.090  +00   45.
 2.742  -02 2.961  +00   47.
 2.812  -02 3.301  +00   21.
 2.886  -02 2.984  +00   29.
 3.210  -02 5.795  +00   21.
 3.300  -02 4.750  +00   27.
 3.393  -02 4.310  +00   24.
 3.491  -02 3.021  +00   24.
 3.592  -02 3.874  +00   26.
 3.699  -02 3.902  +00   25.
 3.810  -02 3.635  +00   21.
 3.927  -02 4.205  +00   40.
 4.048  -02 3.872  +00   31.
 4.310  -02 4.264  +00   22.
 4.450  -02 3.873  +00   21.
 4.598  -02 3.036  +00   21.
 4.753  -02 3.644  +00   18.
 4.916  -02 3.019  +00   24.
 5.087  -02 3.792  +00   18.
 5.268  -02 3.572  +00   19.
 5.873  -02 3.053  +00   39.
 6.099  -02 3.570  +00   17.
 6.337  -02 4.348  +00   15.
 6.591  -02 4.862  +00   14.
 6.859  -02 4.470  +00   13.
 7.145  -02 4.372  +00   15.
 7.449  -02 4.448  +00   16.
 7.773  -02 5.454  +00   13.
 8.119  -02 3.611  +00   15.
 8.490  -02 4.057  +00   20.
 8.886  -02 3.662  +00   15.
 9.311  -02 3.301  +00   23.
 9.831  -02 2.864  +00   14.
 1.033  -01 2.740  +00   14.
 1.086  -01 2.867  +00   15.
 1.144  -01 3.004  +00   14.
 1.207  -01 2.735  +00   15.
 1.275  -01 3.154  +00   12.
 1.349  -01 2.871  +00   13.
 1.430  -01 3.041  +00   19.
 1.519  -01 2.802  +00   17.
 1.616  -01 3.703  +00   22.
 1.723  -01 3.785  +00   19.
 1.841  -01 3.264  +00   13.
 1.972  -01 3.265  +00   15.
 2.118  -01 2.958  +00   14.
 2.282  -01 3.321  +00   19.
 2.465  -01 2.623  +00   16.
 2.672  -01 2.581  +00   15.
 3.838  -01 1.665  +00   16.
 4.253  -01 1.908  +00   16.
 4.743  -01 2.375  +00   12.
 5.325  -01 2.347  +00   11.
 6.027  -01 2.365  +00   14.
 6.884  -01 1.240  +00   27.
 7.947  -01 3.391  +00   36.
 9.292  -01 1.981  +00   40.
ENDDATA           1862
ENDSUBENT         1873
ENDENTRY             3
