ENTRY            12553   20051110   20060315                  1338
SUBENT        12553001   20051110   20060315                  1338
BIB                  7         11
INSTITUTE  (1USAMTR,1USALAS)
REFERENCE  (C,66WASH,2,910(F-6),1966)
AUTHOR     (O.D.Simpson,R.G.Fluharty,M.S.Moore,N.H.Marshall,
           B.C.Diven,A.Hemmendinger)
TITLE      The fission cross section of Pu241 from 20-200eV as
            determined from a nuclear explosion.
INC-SOURCE (EXPLO) Nuclear explosion.
STATUS     (SCSRS)
HISTORY    (19760804T) Translated from SCISRS
           (19841024A) BIB correction.
           (20051110C) DR Format updated
ENDBIB              11
NOCOMMON             0          0
ENDSUBENT           14
SUBENT        12553002   19760804   20060315                  1338
BIB                  2          2
REACTION   (94-PU-241(N,F),,SIG)
METHOD     (TOF)      Time-of-flight
ENDBIB               2
NOCOMMON             0          0
DATA                 3       2554
EN         DATA       DATA-ERR
MEV        B          PER-CENT
  2.004E-05  5.335E+00   22.
  2.006E-05  5.899E+00   28.
  2.009E-05  6.143E+00   30.
  2.012E-05  6.605E+00   21.
  2.014E-05  5.778E+00   28.
  2.017E-05  5.753E+00   27.
  2.020E-05  5.499E+00   25.
  2.023E-05  7.046E+00   21.
  2.025E-05  7.357E+00   25.
  2.028E-05  8.252E+00   22.
  2.031E-05  8.588E+00   23.
  2.033E-05  1.195E+01   19.
  2.036E-05  1.356E+01   19.
  2.039E-05  1.243E+01   16.
  2.042E-05  9.849E+00   21.
  2.045E-05  1.131E+01   23.
  2.047E-05  1.189E+01   18.
  2.050E-05  1.008E+01   21.
  2.053E-05  1.178E+01   22.
  2.056E-05  1.597E+01   20.
  2.058E-05  2.411E+01   17.
  2.061E-05  3.436E+01   14.
  2.064E-05  4.585E+01   14.
  2.067E-05  5.828E+01   14.
  2.070E-05  7.187E+01   13.
  2.072E-05  7.429E+01   14.
  2.075E-05  7.090E+01   14.
  2.078E-05  6.308E+01   14.
  2.081E-05  5.156E+01   14.
  2.084E-05  4.018E+01   16.
  2.087E-05  2.670E+01   20.
  2.090E-05  1.816E+01   16.
  2.092E-05  1.541E+01   18.
  2.095E-05  1.422E+01   14.
  2.098E-05  1.270E+01   14.
  2.101E-05  1.118E+01   14.
  2.104E-05  1.012E+01   18.
  2.107E-05  1.008E+01   16.
  2.110E-05  8.938E+00   15.
  2.113E-05  8.403E+00   16.
  2.116E-05  9.022E+00   15.
  2.118E-05  7.256E+00   16.
  2.121E-05  7.518E+00   17.
  2.124E-05  7.044E+00   16.
  2.127E-05  5.998E+00   19.
  2.130E-05  5.787E+00   19.
  2.133E-05  5.343E+00   24.
  2.136E-05  5.449E+00   18.
  2.139E-05  5.796E+00   18.
  2.142E-05  6.201E+00   19.
  2.145E-05  4.990E+00   18.
  2.148E-05  4.916E+00   20.
  2.151E-05  4.317E+00   19.
  2.154E-05  4.863E+00   20.
  2.157E-05  4.872E+00   17.
  2.160E-05  6.110E+00   22.
  2.163E-05  8.200E+00   16.
  2.166E-05  7.122E+00   27.
  2.169E-05  3.928E+00   20.
  2.172E-05  3.892E+00   19.
  2.175E-05  3.888E+00   19.
  2.178E-05  4.053E+00   19.
  2.181E-05  5.021E+00   22.
  2.184E-05  6.955E+00   23.
  2.187E-05  8.666E+00   22.
  2.190E-05  1.044E+01   19.
  2.193E-05  1.255E+01   16.
  2.196E-05  1.377E+01   14.
  2.199E-05  1.328E+01   15.
  2.203E-05  1.251E+01   13.
  2.206E-05  1.032E+01   15.
  2.209E-05  9.312E+00   19.
  2.212E-05  1.106E+01   14.
  2.215E-05  9.990E+00   16.
  2.218E-05  1.008E+01   15.
  2.221E-05  8.753E+00   18.
  2.224E-05  8.996E+00   17.
  2.228E-05  8.839E+00   19.
  2.231E-05  8.653E+00   19.
  2.234E-05  9.760E+00   17.
  2.237E-05  9.632E+00   18.
  2.240E-05  9.183E+00   15.
  2.243E-05  9.197E+00   18.
  2.247E-05  9.721E+00   16.
  2.250E-05  1.073E+01   20.
  2.253E-05  1.214E+01   20.
  2.256E-05  1.362E+01   15.
  2.259E-05  1.585E+01   16.
  2.263E-05  2.060E+01   13.
  2.266E-05  2.551E+01   14.
  2.269E-05  3.263E+01   18.
  2.272E-05  4.272E+01   13.
  2.276E-05  5.277E+01   14.
  2.279E-05  6.443E+01   13.
  2.282E-05  8.545E+01   16.
  2.285E-05  1.025E+02   12.
  2.289E-05  1.111E+02   13.
  2.292E-05  1.237E+02   13.
  2.295E-05  1.325E+02   11.
  2.298E-05  1.354E+02   13.
  2.302E-05  1.339E+02   13.
  2.305E-05  1.272E+02   11.
  2.308E-05  1.142E+02   13.
  2.312E-05  1.114E+02   13.
  2.315E-05  1.020E+02   13.
  2.318E-05  8.874E+01   11.
  2.322E-05  7.904E+01   13.
  2.325E-05  7.491E+01   13.
  2.328E-05  6.673E+01   12.
  2.332E-05  6.022E+01   12.
  2.335E-05  5.596E+01   12.
  2.339E-05  5.422E+01   11.
  2.342E-05  5.025E+01   12.
  2.345E-05  5.069E+01   13.
  2.349E-05  5.167E+01   12.
  2.352E-05  5.308E+01   13.
  2.356E-05  5.808E+01   13.
  2.359E-05  6.213E+01   12.
  2.362E-05  6.766E+01   11.
  2.366E-05  7.345E+01   13.
  2.369E-05  7.398E+01   12.
  2.373E-05  7.631E+01   11.
  2.376E-05  7.467E+01   12.
  2.380E-05  7.642E+01   13.
  2.383E-05  7.902E+01   10.
  2.387E-05  8.372E+01   12.
  2.390E-05  9.489E+01   12.
  2.394E-05  1.201E+02   11.
  2.397E-05  1.432E+02   13.
  2.401E-05  1.616E+02   12.
  2.404E-05  1.866E+02   11.
  2.408E-05  2.065E+02   13.
  2.411E-05  1.968E+02   12.
  2.415E-05  1.694E+02   12.
  2.418E-05  1.206E+02   13.
  2.422E-05  9.525E+01   13.
  2.426E-05  6.656E+01   17.
  2.429E-05  4.666E+01   13.
  2.433E-05  3.539E+01   15.
  2.436E-05  2.968E+01   14.
  2.440E-05  2.730E+01   14.
  2.444E-05  2.492E+01   13.
  2.447E-05  2.438E+01   13.
  2.451E-05  2.500E+01   14.
  2.454E-05  2.225E+01   13.
  2.458E-05  2.105E+01   13.
  2.462E-05  1.919E+01   13.
  2.465E-05  1.692E+01   14.
  2.469E-05  1.545E+01   14.
  2.473E-05  1.488E+01   13.
  2.476E-05  1.342E+01   13.
  2.480E-05  1.272E+01   13.
  2.484E-05  1.180E+01   14.
  2.488E-05  1.247E+01   14.
  2.491E-05  1.142E+01   13.
  2.495E-05  1.081E+01   16.
  2.499E-05  1.059E+01   13.
  2.502E-05  9.380E+00   16.
  2.506E-05  1.007E+01   16.
  2.510E-05  1.057E+01   14.
  2.514E-05  1.066E+01   14.
  2.518E-05  1.093E+01   16.
  2.521E-05  1.164E+01   14.
  2.525E-05  1.240E+01   14.
  2.529E-05  1.345E+01   16.
  2.533E-05  1.419E+01   18.
  2.537E-05  1.493E+01   16.
  2.540E-05  1.643E+01   15.
  2.544E-05  1.759E+01   15.
  2.548E-05  1.941E+01   17.
  2.552E-05  2.221E+01   13.
  2.556E-05  2.506E+01   13.
  2.560E-05  2.786E+01   12.
  2.564E-05  3.294E+01   13.
  2.567E-05  3.275E+01   16.
  2.571E-05  3.734E+01   12.
  2.575E-05  4.200E+01   12.
  2.579E-05  4.623E+01   12.
  2.583E-05  5.113E+01   11.
  2.587E-05  5.910E+01   12.
  2.591E-05  6.628E+01   13.
  2.595E-05  7.781E+01   10.
  2.599E-05  8.829E+01   12.
  2.603E-05  1.075E+02   11.
  2.607E-05  1.252E+02   12.
  2.611E-05  1.471E+02   12.
  2.615E-05  1.782E+02   12.
  2.619E-05  2.220E+02   14.
  2.623E-05  2.769E+02   13.
  2.627E-05  3.384E+02   11.
  2.631E-05  3.901E+02   12.
  2.635E-05  4.230E+02   10.
  2.639E-05  4.475E+02   12.
  2.643E-05  4.516E+02   12.
  2.647E-05  4.204E+02   10.
  2.651E-05  3.793E+02   13.
  2.655E-05  3.150E+02   13.
  2.659E-05  2.600E+02   13.
  2.664E-05  2.040E+02   15.
  2.668E-05  1.422E+02   13.
  2.672E-05  1.139E+02   14.
  2.676E-05  8.189E+01   13.
  2.680E-05  6.460E+01   12.
  2.684E-05  4.678E+01   13.
  2.688E-05  3.612E+01   14.
  2.693E-05  2.855E+01   13.
  2.697E-05  2.218E+01   15.
  2.701E-05  1.835E+01   14.
  2.705E-05  1.454E+01   17.
  2.709E-05  1.216E+01   13.
  2.714E-05  1.143E+01   13.
  2.718E-05  1.102E+01   13.
  2.722E-05  1.060E+01   11.
  2.726E-05  1.078E+01   13.
  2.731E-05  1.107E+01   13.
  2.735E-05  1.232E+01   14.
  2.739E-05  1.397E+01   12.
  2.744E-05  1.497E+01   12.
  2.748E-05  1.612E+01   13.
  2.752E-05  1.684E+01   11.
  2.757E-05  2.028E+01   14.
  2.761E-05  1.989E+01   15.
  2.765E-05  2.260E+01   12.
  2.770E-05  2.395E+01   12.
  2.774E-05  2.426E+01   13.
  2.778E-05  2.600E+01   13.
  2.783E-05  2.643E+01   15.
  2.787E-05  3.001E+01   11.
  2.792E-05  3.410E+01   12.
  2.796E-05  3.598E+01   14.
  2.800E-05  3.906E+01   12.
  2.805E-05  4.198E+01   12.
  2.809E-05  4.670E+01   11.
  2.814E-05  4.965E+01   12.
  2.818E-05  5.734E+01   11.
  2.823E-05  6.470E+01   11.
  2.827E-05  7.329E+01   13.
  2.832E-05  7.903E+01   11.
  2.836E-05  8.715E+01   12.
  2.841E-05  9.957E+01   12.
  2.845E-05  1.135E+02   13.
  2.850E-05  1.252E+02   11.
  2.854E-05  1.463E+02   12.
  2.859E-05  1.707E+02   12.
  2.864E-05  1.935E+02   11.
  2.868E-05  2.206E+02   12.
  2.873E-05  2.399E+02   11.
  2.877E-05  2.577E+02   11.
  2.882E-05  2.604E+02   13.
  2.887E-05  2.567E+02   11.
  2.891E-05  2.480E+02   12.
  2.896E-05  2.413E+02   11.
  2.901E-05  2.253E+02   11.
  2.905E-05  2.096E+02   13.
  2.910E-05  1.995E+02   11.
  2.915E-05  1.792E+02   10.
  2.919E-05  1.675E+02   13.
  2.924E-05  1.651E+02   11.
  2.929E-05  1.596E+02   11.
  2.934E-05  1.609E+02   16.
  2.938E-05  1.557E+02   10.
  2.943E-05  1.555E+02   14.
  2.948E-05  1.495E+02   11.
  2.953E-05  1.332E+02   11.
  2.958E-05  1.149E+02   13.
  2.962E-05  9.373E+01   12.
  2.967E-05  6.346E+01   12.
  2.972E-05  4.652E+01   14.
  2.977E-05  3.423E+01   12.
  2.982E-05  2.653E+01   11.
  2.987E-05  2.344E+01   13.
  2.992E-05  2.257E+01   11.
  2.997E-05  2.250E+01   12.
  3.001E-05  2.402E+01   13.
  3.006E-05  2.365E+01   11.
  3.011E-05  2.416E+01   11.
  3.016E-05  2.403E+01   13.
  3.021E-05  2.497E+01   11.
  3.026E-05  2.574E+01   11.
  3.031E-05  2.697E+01   13.
  3.036E-05  2.789E+01   11.
  3.041E-05  3.042E+01   11.
  3.046E-05  3.371E+01   12.
  3.051E-05  3.516E+01   14.
  3.056E-05  3.788E+01   12.
  3.061E-05  4.699E+01   14.
  3.067E-05  5.934E+01   12.
  3.072E-05  6.910E+01   15.
  3.077E-05  9.365E+01   17.
  3.082E-05  1.259E+02   12.
  3.087E-05  1.587E+02   13.
  3.092E-05  1.857E+02   11.
  3.097E-05  2.084E+02   11.
  3.102E-05  2.076E+02   13.
  3.108E-05  1.990E+02   11.
  3.113E-05  1.671E+02   12.
  3.118E-05  1.193E+02   13.
  3.123E-05  9.390E+01   14.
  3.128E-05  7.967E+01   14.
  3.134E-05  6.093E+01   11.
  3.139E-05  5.025E+01   11.
  3.144E-05  4.523E+01   13.
  3.150E-05  3.902E+01   11.
  3.155E-05  3.602E+01   11.
  3.160E-05  3.196E+01   11.
  3.165E-05  3.105E+01   14.
  3.171E-05  2.869E+01   11.
  3.176E-05  2.655E+01   11.
  3.182E-05  2.529E+01   12.
  3.187E-05  2.429E+01   11.
  3.192E-05  2.352E+01   12.
  3.198E-05  2.347E+01   12.
  3.203E-05  2.204E+01   12.
  3.209E-05  2.245E+01   11.
  3.214E-05  2.351E+01   18.
  3.220E-05  2.140E+01   12.
  3.225E-05  2.163E+01   11.
  3.230E-05  2.076E+01   12.
  3.236E-05  2.079E+01   12.
  3.242E-05  2.122E+01   13.
  3.247E-05  2.211E+01   14.
  3.253E-05  2.097E+01   12.
  3.258E-05  2.093E+01   12.
  3.264E-05  2.062E+01   11.
  3.269E-05  2.060E+01   12.
  3.275E-05  2.100E+01   19.
  3.281E-05  2.038E+01   12.
  3.286E-05  2.082E+01   11.
  3.292E-05  2.197E+01   11.
  3.298E-05  2.279E+01   11.
  3.303E-05  2.481E+01   11.
  3.309E-05  2.869E+01   13.
  3.315E-05  3.032E+01   11.
  3.320E-05  3.294E+01   10.
  3.326E-05  3.600E+01   11.
  3.332E-05  3.487E+01   11.
  3.338E-05  3.136E+01   11.
  3.343E-05  2.821E+01   11.
  3.349E-05  2.703E+01   14.
  3.355E-05  2.830E+01   11.
  3.361E-05  3.258E+01   11.
  3.367E-05  4.268E+01   14.
  3.373E-05  4.893E+01   11.
  3.378E-05  4.751E+01   11.
  3.384E-05  4.237E+01   10.
  3.390E-05  3.557E+01   11.
  3.396E-05  3.275E+01   10.
  3.402E-05  3.273E+01   13.
  3.408E-05  3.224E+01   11.
  3.414E-05  3.293E+01   11.
  3.420E-05  3.339E+01   11.
  3.426E-05  3.529E+01   10.
  3.432E-05  3.747E+01   12.
  3.438E-05  3.874E+01   12.
  3.444E-05  4.091E+01   11.
  3.450E-05  4.387E+01   11.
  3.456E-05  4.590E+01   11.
  3.462E-05  5.011E+01   11.
  3.468E-05  5.222E+01   12.
  3.475E-05  5.487E+01   11.
  3.481E-05  5.992E+01   13.
  3.487E-05  5.979E+01   11.
  3.493E-05  6.449E+01   11.
  3.499E-05  6.472E+01   11.
  3.505E-05  5.941E+01   11.
  3.512E-05  5.270E+01   11.
  3.518E-05  4.637E+01   11.
  3.524E-05  4.099E+01   11.
  3.530E-05  3.570E+01   11.
  3.537E-05  3.019E+01   11.
  3.543E-05  2.770E+01   11.
  3.549E-05  2.428E+01   11.
  3.556E-05  2.086E+01   11.
  3.562E-05  1.811E+01   11.
  3.568E-05  1.642E+01   12.
  3.575E-05  1.444E+01   11.
  3.581E-05  1.272E+01   11.
  3.588E-05  1.143E+01   11.
  3.594E-05  1.006E+01   11.
  3.601E-05  1.039E+01   11.
  3.607E-05  1.029E+01   11.
  3.614E-05  1.048E+01   10.
  3.620E-05  1.014E+01   11.
  3.627E-05  8.174E+00   10.
  3.633E-05  6.242E+00   14.
  3.640E-05  4.256E+00   16.
  3.646E-05  2.850E+00   15.
  3.653E-05  2.002E+00   12.
  3.660E-05  1.650E+00   12.
  3.666E-05  1.484E+00   11.
  3.673E-05  1.461E+00   15.
  3.680E-05  1.671E+00   19.
  3.686E-05  1.941E+00   14.
  3.693E-05  2.262E+00   19.
  3.700E-05  2.880E+00   18.
  3.706E-05  3.858E+00   15.
  3.713E-05  5.138E+00   11.
  3.720E-05  6.294E+00   11.
  3.727E-05  7.797E+00   12.
  3.734E-05  9.428E+00   11.
  3.740E-05  1.071E+01   11.
  3.747E-05  1.203E+01   11.
  3.754E-05  1.304E+01   11.
  3.761E-05  1.370E+01   11.
  3.768E-05  1.491E+01   11.
  3.775E-05  1.648E+01   11.
  3.782E-05  1.869E+01   11.
  3.789E-05  2.224E+01   11.
  3.796E-05  2.724E+01   11.
  3.803E-05  3.533E+01   10.
  3.810E-05  3.951E+01   11.
  3.817E-05  3.811E+01   11.
  3.824E-05  2.941E+01   12.
  3.831E-05  2.163E+01   13.
  3.838E-05  1.621E+01   10.
  3.845E-05  1.416E+01   11.
  3.853E-05  1.418E+01   10.
  3.860E-05  1.495E+01   12.
  3.867E-05  1.570E+01   11.
  3.874E-05  1.789E+01   11.
  3.881E-05  1.974E+01   12.
  3.889E-05  2.328E+01   17.
  3.896E-05  2.981E+01   17.
  3.903E-05  3.927E+01   20.
  3.911E-05  5.445E+01   20.
  3.918E-05  7.511E+01   19.
  3.925E-05  9.903E+01   12.
  3.933E-05  1.083E+02   10.
  3.940E-05  1.002E+02   11.
  3.947E-05  8.063E+01   11.
  3.955E-05  6.362E+01   10.
  3.962E-05  6.236E+01   12.
  3.970E-05  7.326E+01   18.
  3.977E-05  1.012E+02   16.
  3.985E-05  1.132E+02   12.
  3.992E-05  1.036E+02   11.
  4.000E-05  7.705E+01   11.
  4.008E-05  5.385E+01   12.
  4.012E-05  4.185E+01   11.
  4.020E-05  3.703E+01   12.
  4.027E-05  3.601E+01   12.
  4.035E-05  3.888E+01   11.
  4.043E-05  3.936E+01   12.
  4.051E-05  3.982E+01   13.
  4.058E-05  4.319E+01   11.
  4.066E-05  4.501E+01   11.
  4.074E-05  4.600E+01   11.
  4.082E-05  4.546E+01   11.
  4.089E-05  4.553E+01   11.
  4.097E-05  4.280E+01   12.
  4.105E-05  4.063E+01   12.
  4.113E-05  3.785E+01   12.
  4.121E-05  3.313E+01   11.
  4.129E-05  2.869E+01   11.
  4.137E-05  2.401E+01   12.
  4.145E-05  2.011E+01   11.
  4.153E-05  1.706E+01   12.
  4.161E-05  1.532E+01   11.
  4.169E-05  1.307E+01   12.
  4.177E-05  1.127E+01   12.
  4.185E-05  9.868E+00   11.
  4.193E-05  8.649E+00   12.
  4.201E-05  7.957E+00   11.
  4.210E-05  7.600E+00   13.
  4.218E-05  7.941E+00   12.
  4.226E-05  7.920E+00   16.
  4.234E-05  9.422E+00   18.
  4.242E-05  1.127E+01   18.
  4.251E-05  1.442E+01   15.
  4.259E-05  1.664E+01   12.
  4.267E-05  1.875E+01   10.
  4.276E-05  1.852E+01   12.
  4.284E-05  1.614E+01   10.
  4.293E-05  1.227E+01   12.
  4.301E-05  9.556E+00   11.
  4.310E-05  8.311E+00   11.
  4.318E-05  9.150E+00   15.
  4.327E-05  1.115E+01   16.
  4.335E-05  1.433E+01   13.
  4.344E-05  1.515E+01   11.
  4.352E-05  1.191E+01   16.
  4.361E-05  6.687E+00   32.
  4.369E-05  2.072E+00   28.
  4.378E-05  9.067E-01   18.
  4.387E-05  6.268E-01   12.
  4.396E-05  5.463E-01   17.
  4.404E-05  5.204E-01   21.
  4.413E-05  6.736E-01   21.
  4.422E-05  8.739E-01   25.
  4.431E-05  1.117E+00   21.
  4.440E-05  1.387E+00   16.
  4.448E-05  1.237E+00   14.
  4.457E-05  1.011E+00   13.
  4.466E-05  9.537E-01   19.
  4.475E-05  9.612E-01   19.
  4.484E-05  1.048E+00   17.
  4.493E-05  1.076E+00   19.
  4.502E-05  1.185E+00   23.
  4.511E-05  1.405E+00   22.
  4.520E-05  1.751E+00   18.
  4.530E-05  2.121E+00   21.
  4.539E-05  2.310E+00   21.
  4.548E-05  2.791E+00   20.
  4.557E-05  3.591E+00   21.
  4.566E-05  4.657E+00   16.
  4.576E-05  5.301E+00   17.
  4.585E-05  7.588E+00   16.
  4.594E-05  1.001E+01   20.
  4.604E-05  1.507E+01   19.
  4.613E-05  2.333E+01   27.
  4.622E-05  3.560E+01   25.
  4.632E-05  5.568E+01   18.
  4.641E-05  7.921E+01   13.
  4.651E-05  8.653E+01   11.
  4.660E-05  7.728E+01   10.
  4.670E-05  5.886E+01   11.
  4.679E-05  4.313E+01   12.
  4.689E-05  3.477E+01   11.
  4.699E-05  3.301E+01   11.
  4.708E-05  3.275E+01   12.
  4.718E-05  3.543E+01   11.
  4.728E-05  3.902E+01   12.
  4.737E-05  4.372E+01   14.
  4.747E-05  5.071E+01   18.
  4.757E-05  6.796E+01   16.
  4.767E-05  9.573E+01   23.
  4.777E-05  1.478E+02   20.
  4.787E-05  1.915E+02   12.
  4.797E-05  2.217E+02   13.
  4.807E-05  2.219E+02   12.
  4.817E-05  2.048E+02   11.
  4.827E-05  1.626E+02   12.
  4.837E-05  1.208E+02   14.
  4.847E-05  8.968E+01   12.
  4.857E-05  6.796E+01   13.
  4.867E-05  5.318E+01   11.
  4.877E-05  4.306E+01   11.
  4.887E-05  3.295E+01   12.
  4.898E-05  2.667E+01   11.
  4.908E-05  2.317E+01   11.
  4.918E-05  1.967E+01   11.
  4.929E-05  1.724E+01   12.
  4.939E-05  1.582E+01   12.
  4.950E-05  1.489E+01   11.
  4.960E-05  1.438E+01   11.
  4.970E-05  1.441E+01   11.
  4.981E-05  1.550E+01   11.
  4.992E-05  1.842E+01   13.
  5.002E-05  2.236E+01   12.
  5.013E-05  2.738E+01   11.
  5.023E-05  2.901E+01   11.
  5.034E-05  2.899E+01   11.
  5.045E-05  2.390E+01   11.
  5.056E-05  1.802E+01   12.
  5.066E-05  1.321E+01   13.
  5.077E-05  1.015E+01   12.
  5.088E-05  7.887E+00   12.
  5.099E-05  6.134E+00   11.
  5.110E-05  5.159E+00   12.
  5.121E-05  4.016E+00   11.
  5.132E-05  2.971E+00   13.
  5.143E-05  2.097E+00   12.
  5.154E-05  1.774E+00   13.
  5.165E-05  1.884E+00   15.
  5.176E-05  2.514E+00   18.
  5.187E-05  3.202E+00   18.
  5.199E-05  4.311E+00   14.
  5.210E-05  4.847E+00   11.
  5.221E-05  4.024E+00   13.
  5.232E-05  3.522E+00   12.
  5.244E-05  3.401E+00   11.
  5.255E-05  3.179E+00   13.
  5.267E-05  2.651E+00   13.
  5.278E-05  2.001E+00   14.
  5.290E-05  1.655E+00   15.
  5.301E-05  1.548E+00   11.
  5.313E-05  1.327E+00   13.
  5.324E-05  1.123E+00   14.
  5.336E-05  9.330E-01   15.
  5.348E-05  9.021E-01   14.
  5.360E-05  8.162E-01   19.
  5.371E-05  7.749E-01   16.
  5.383E-05  9.850E-01   18.
  5.395E-05  1.667E+00   19.
  5.407E-05  2.015E+00   13.
  5.419E-05  2.236E+00   12.
  5.431E-05  2.192E+00   14.
  5.443E-05  2.242E+00   12.
  5.455E-05  2.131E+00   13.
  5.467E-05  2.132E+00   14.
  5.479E-05  2.143E+00   13.
  5.491E-05  2.128E+00   15.
  5.504E-05  2.327E+00   13.
  5.516E-05  2.279E+00   15.
  5.528E-05  2.416E+00   15.
  5.540E-05  2.708E+00   14.
  5.553E-05  2.925E+00   12.
  5.565E-05  2.877E+00   13.
  5.578E-05  2.902E+00   13.
  5.590E-05  2.874E+00   14.
  5.603E-05  2.961E+00   14.
  5.615E-05  3.075E+00   13.
  5.628E-05  3.171E+00   15.
  5.641E-05  3.517E+00   15.
  5.653E-05  3.619E+00   15.
  5.666E-05  4.120E+00   16.
  5.679E-05  4.351E+00   15.
  5.692E-05  5.179E+00   12.
  5.705E-05  5.622E+00   13.
  5.718E-05  7.008E+00   12.
  5.731E-05  8.998E+00   13.
  5.744E-05  1.359E+01   14.
  5.757E-05  1.844E+01   13.
  5.770E-05  2.487E+01   14.
  5.783E-05  3.161E+01   16.
  5.796E-05  4.101E+01   13.
  5.809E-05  5.285E+01   10.
  5.823E-05  5.779E+01   11.
  5.836E-05  5.740E+01   11.
  5.850E-05  5.431E+01   10.
  5.863E-05  5.512E+01   12.
  5.876E-05  5.825E+01   11.
  5.890E-05  6.738E+01   11.
  5.904E-05  7.114E+01   11.
  5.917E-05  7.177E+01   11.
  5.931E-05  6.220E+01   12.
  5.945E-05  4.625E+01   12.
  5.958E-05  3.414E+01   12.
  5.972E-05  2.907E+01   11.
  5.986E-05  3.511E+01   17.
  6.000E-05  5.530E+01   20.
  6.019E-05  9.555E+01   21.
  6.033E-05  1.571E+02   14.
  6.047E-05  1.807E+02   11.
  6.061E-05  1.238E+02   25.
  6.075E-05  4.969E+01   20.
  6.089E-05  2.581E+01   17.
  6.104E-05  1.704E+01   11.
  6.118E-05  1.487E+01   11.
  6.132E-05  1.773E+01   15.
  6.147E-05  2.815E+01   18.
  6.161E-05  4.785E+01   16.
  6.176E-05  8.077E+01   16.
  6.190E-05  1.126E+02   13.
  6.205E-05  1.316E+02   11.
  6.220E-05  1.234E+02   10.
  6.234E-05  1.097E+02   11.
  6.249E-05  9.033E+01   13.
  6.264E-05  7.173E+01   13.
  6.279E-05  5.451E+01   11.
  6.294E-05  4.611E+01   11.
  6.309E-05  3.988E+01   11.
  6.324E-05  3.390E+01   11.
  6.339E-05  3.021E+01   11.
  6.354E-05  2.652E+01   12.
  6.369E-05  2.230E+01   11.
  6.385E-05  1.918E+01   12.
  6.400E-05  1.832E+01   11.
  6.415E-05  1.967E+01   11.
  6.431E-05  2.128E+01   11.
  6.446E-05  2.364E+01   11.
  6.462E-05  2.579E+01   13.
  6.477E-05  2.933E+01   14.
  6.493E-05  4.168E+01   15.
  6.509E-05  6.482E+01   15.
  6.525E-05  1.007E+02   16.
  6.540E-05  1.423E+02   15.
  6.556E-05  1.716E+02   11.
  6.572E-05  1.489E+02   12.
  6.588E-05  9.424E+01   15.
  6.604E-05  6.931E+01   11.
  6.620E-05  7.723E+01   12.
  6.637E-05  9.335E+01   10.
  6.653E-05  7.878E+01   14.
  6.669E-05  4.079E+01   18.
  6.685E-05  2.365E+01   17.
  6.702E-05  1.572E+01   14.
  6.718E-05  1.268E+01   15.
  6.735E-05  1.189E+01   14.
  6.752E-05  1.108E+01   16.
  6.768E-05  1.180E+01   13.
  6.785E-05  1.816E+01   17.
  6.802E-05  3.152E+01   15.
  6.819E-05  3.392E+01   11.
  6.836E-05  2.281E+01   16.
  6.852E-05  1.476E+01   12.
  6.870E-05  1.352E+01   11.
  6.887E-05  1.740E+01   16.
  6.904E-05  2.381E+01   12.
  6.921E-05  2.187E+01   17.
  6.938E-05  1.215E+01   16.
  6.956E-05  8.433E+00   11.
  6.973E-05  7.640E+00   11.
  6.991E-05  7.391E+00   12.
  7.008E-05  7.352E+00   12.
  7.026E-05  7.335E+00   11.
  7.044E-05  7.513E+00   11.
  7.061E-05  8.053E+00   11.
  7.079E-05  9.147E+00   11.
  7.097E-05  1.101E+01   11.
  7.115E-05  1.404E+01   11.
  7.133E-05  1.902E+01   12.
  7.151E-05  2.459E+01   13.
  7.169E-05  3.263E+01   11.
  7.188E-05  3.846E+01   11.
  7.206E-05  4.022E+01   11.
  7.224E-05  3.490E+01   14.
  7.243E-05  2.074E+01   20.
  7.261E-05  1.103E+01   21.
  7.280E-05  5.072E+00   19.
  7.298E-05  3.380E+00   11.
  7.317E-05  3.588E+00   14.
  7.336E-05  5.473E+00   16.
  7.355E-05  8.403E+00   18.
  7.374E-05  1.226E+01   11.
  7.393E-05  1.058E+01   11.
  7.412E-05  8.419E+00   11.
  7.431E-05  8.767E+00   12.
  7.450E-05  1.257E+01   15.
  7.470E-05  2.034E+01   16.
  7.489E-05  3.025E+01   13.
  7.509E-05  3.689E+01   14.
  7.528E-05  5.669E+01   15.
  7.548E-05  9.944E+01   16.
  7.567E-05  1.325E+02   11.
  7.587E-05  1.011E+02   17.
  7.607E-05  5.036E+01   23.
  7.627E-05  3.341E+01   11.
  7.647E-05  3.421E+01   11.
  7.667E-05  4.085E+01   14.
  7.687E-05  5.532E+01   12.
  7.708E-05  5.442E+01   12.
  7.728E-05  3.358E+01   19.
  7.748E-05  2.313E+01   11.
  7.769E-05  2.061E+01   11.
  7.789E-05  1.961E+01   11.
  7.810E-05  1.777E+01   11.
  7.831E-05  1.463E+01   12.
  7.852E-05  1.238E+01   11.
  7.873E-05  1.374E+01   12.
  7.894E-05  1.882E+01   15.
  7.915E-05  2.628E+01   14.
  7.936E-05  3.793E+01   14.
  7.957E-05  5.459E+01   15.
  7.978E-05  9.244E+01   21.
  8.000E-05  1.238E+02   11.
  8.021E-05  1.028E+02   14.
  8.035E-05  6.855E+01   13.
  8.046E-05  6.086E+01   13.
  8.056E-05  5.921E+01   14.
  8.067E-05  6.605E+01   12.
  8.078E-05  7.729E+01   13.
  8.089E-05  8.130E+01   15.
  8.100E-05  9.880E+01   17.
  8.111E-05  1.289E+02   19.
  8.122E-05  1.656E+02   11.
  8.133E-05  1.916E+02   10.
  8.144E-05  2.017E+02   11.
  8.155E-05  1.692E+02   19.
  8.166E-05  1.149E+02   12.
  8.177E-05  9.687E+01   12.
  8.188E-05  8.189E+01   11.
  8.199E-05  6.919E+01   11.
  8.210E-05  6.193E+01    9.9
  8.222E-05  5.812E+01   11.
  8.233E-05  5.555E+01   10.
  8.244E-05  5.539E+01     .0
  8.255E-05  5.852E+01   11.
  8.266E-05  6.346E+01   12.
  8.278E-05  6.727E+01   14.
  8.289E-05  8.022E+01   15.
  8.300E-05  9.849E+01   13.
  8.312E-05  1.097E+02   13.
  8.323E-05  9.673E+01   21.
  8.334E-05  6.151E+01   20.
  8.346E-05  4.084E+01   19.
  8.357E-05  2.635E+01   15.
  8.369E-05  2.045E+01   11.
  8.380E-05  2.023E+01   11.
  8.392E-05  1.896E+01   10.
  8.403E-05  1.932E+01   11.
  8.415E-05  2.079E+01   11.
  8.426E-05  2.148E+01   13.
  8.438E-05  2.543E+01   13.
  8.450E-05  2.922E+01   12.
  8.461E-05  3.291E+01   18.
  8.473E-05  4.012E+01   20.
  8.485E-05  5.044E+01   16.
  8.496E-05  7.786E+01   15.
  8.508E-05  7.858E+01   19.
  8.520E-05  1.045E+02   15.
  8.532E-05  1.307E+02   10.
  8.543E-05  1.422E+02   11.
  8.555E-05  1.352E+02   10.
  8.567E-05  1.244E+02   11.
  8.579E-05  1.077E+02   13.
  8.591E-05  8.269E+01   11.
  8.603E-05  6.906E+01   10.
  8.615E-05  6.478E+01   10.
  8.627E-05  6.191E+01   10.
  8.639E-05  6.371E+01   13.
  8.651E-05  9.469E+01   14.
  8.663E-05  1.163E+02   13.
  8.675E-05  1.344E+02   13.
  8.687E-05  1.357E+02   15.
  8.699E-05  1.283E+02   12.
  8.712E-05  1.123E+02   17.
  8.724E-05  8.073E+01   14.
  8.736E-05  6.114E+01   13.
  8.748E-05  5.663E+01   11.
  8.761E-05  5.836E+01   10.
  8.773E-05  6.259E+01   11.
  8.785E-05  6.211E+01   11.
  8.798E-05  5.281E+01   13.
  8.810E-05  4.039E+01   15.
  8.822E-05  3.053E+01   11.
  8.835E-05  2.498E+01    9.8
  8.847E-05  2.468E+01   11.
  8.860E-05  2.750E+01   10.
  8.872E-05  3.103E+01   10.
  8.885E-05  3.289E+01   11.
  8.897E-05  3.487E+01   10.
  8.910E-05  3.428E+01   11.
  8.922E-05  3.372E+01   10.
  8.935E-05  3.101E+01   11.
  8.948E-05  2.765E+01   11.
  8.961E-05  2.355E+01   11.
  8.973E-05  2.086E+01   10.
  8.986E-05  1.743E+01   12.
  8.999E-05  1.610E+01   10.
  9.012E-05  1.691E+01   12.
  9.024E-05  2.000E+01   12.
  9.037E-05  2.524E+01   11.
  9.050E-05  3.113E+01   10.
  9.063E-05  3.321E+01   13.
  9.076E-05  2.757E+01   17.
  9.089E-05  1.892E+01   19.
  9.102E-05  1.400E+01   17.
  9.115E-05  9.280E+00   17.
  9.128E-05  6.799E+00   16.
  9.141E-05  5.563E+00   10.
  9.154E-05  4.682E+00   11.
  9.167E-05  4.638E+00   13.
  9.181E-05  3.750E+00   17.
  9.194E-05  2.850E+00   13.
  9.207E-05  2.271E+00   16.
  9.220E-05  1.868E+00   12.
  9.234E-05  2.038E+00   18.
  9.247E-05  2.444E+00   17.
  9.260E-05  2.688E+00   16.
  9.274E-05  3.246E+00   13.
  9.287E-05  3.402E+00   12.
  9.300E-05  4.255E+00   13.
  9.314E-05  4.518E+00   13.
  9.327E-05  5.584E+00   15.
  9.341E-05  6.980E+00   13.
  9.354E-05  8.254E+00   11.
  9.368E-05  1.036E+01   10.
  9.382E-05  1.036E+01   11.
  9.395E-05  9.749E+00   11.
  9.409E-05  8.179E+00   11.
  9.423E-05  7.559E+00   11.
  9.436E-05  7.341E+00   11.
  9.450E-05  7.819E+00   11.
  9.464E-05  8.733E+00   12.
  9.478E-05  1.179E+01   14.
  9.491E-05  1.427E+01   14.
  9.505E-05  1.703E+01   14.
  9.519E-05  1.835E+01   13.
  9.533E-05  1.872E+01   16.
  9.547E-05  1.741E+01   17.
  9.561E-05  1.800E+01   21.
  9.575E-05  1.722E+01   13.
  9.589E-05  1.827E+01   14.
  9.603E-05  2.002E+01   13.
  9.617E-05  2.090E+01   11.
  9.632E-05  2.051E+01   10.
  9.646E-05  2.093E+01   10.
  9.660E-05  2.190E+01   12.
  9.674E-05  2.392E+01   13.
  9.689E-05  2.507E+01   15.
  9.703E-05  3.720E+01   13.
  9.717E-05  4.636E+01   13.
  9.732E-05  5.400E+01   13.
  9.746E-05  6.263E+01   13.
  9.760E-05  7.350E+01   13.
  9.775E-05  8.765E+01   13.
  9.789E-05  1.180E+02   14.
  9.804E-05  1.254E+02   14.
  9.818E-05  1.316E+02   11.
  9.833E-05  1.389E+02   17.
  9.848E-05  1.053E+02   28.
  9.862E-05  4.764E+01   25.
  9.877E-05  3.704E+01   20.
  9.892E-05  2.730E+01   11.
  9.907E-05  2.364E+01   17.
  9.921E-05  2.684E+01   20.
  9.936E-05  3.449E+01   21.
  9.951E-05  4.070E+01   12.
  9.966E-05  4.812E+01   10.
  9.981E-05  4.810E+01   13.
  9.996E-05  4.278E+01   12.
  1.001E-04  3.650E+01   11.
  1.003E-04  3.139E+01   12.
  1.004E-04  2.720E+01   10.
  1.006E-04  2.479E+01   10.
  1.007E-04  2.324E+01   11.
  1.009E-04  2.170E+01   10.
  1.010E-04  2.364E+01   14.
  1.012E-04  2.432E+01   11.
  1.013E-04  2.923E+01   10.
  1.015E-04  3.143E+01   11.
  1.016E-04  2.678E+01   14.
  1.018E-04  2.183E+01   10.
  1.019E-04  2.170E+01   10.
  1.021E-04  2.202E+01   10.
  1.022E-04  2.096E+01   10.
  1.024E-04  2.035E+01   11.
  1.026E-04  1.772E+01   11.
  1.027E-04  1.662E+01   12.
  1.029E-04  1.432E+01   10.
  1.030E-04  1.305E+01   10.
  1.032E-04  1.403E+01   10.
  1.033E-04  1.604E+01   11.
  1.035E-04  1.857E+01   12.
  1.037E-04  1.550E+01   20.
  1.038E-04  9.899E+00   24.
  1.040E-04  7.913E+00   18.
  1.041E-04  4.554E+00   14.
  1.043E-04  4.451E+00   16.
  1.044E-04  3.985E+00   12.
  1.046E-04  3.392E+00   15.
  1.048E-04  2.875E+00   13.
  1.049E-04  2.435E+00   13.
  1.051E-04  2.169E+00   12.
  1.053E-04  2.009E+00   13.
  1.054E-04  1.969E+00   14.
  1.056E-04  2.170E+00   14.
  1.057E-04  2.374E+00   18.
  1.059E-04  2.949E+00   24.
  1.061E-04  3.181E+00   27.
  1.062E-04  4.203E+00   17.
  1.064E-04  4.523E+00   21.
  1.066E-04  5.987E+00   13.
  1.067E-04  5.802E+00   14.
  1.069E-04  7.485E+00   14.
  1.071E-04  8.650E+00   14.
  1.072E-04  1.059E+01   16.
  1.074E-04  1.404E+01   25.
  1.076E-04  1.518E+01   20.
  1.077E-04  2.382E+01   13.
  1.079E-04  2.107E+01   14.
  1.081E-04  1.796E+01   13.
  1.082E-04  1.703E+01   14.
  1.084E-04  1.720E+01   13.
  1.086E-04  1.783E+01   17.
  1.087E-04  2.182E+01   15.
  1.089E-04  2.625E+01   11.
  1.091E-04  2.990E+01   11.
  1.092E-04  2.596E+01   12.
  1.094E-04  1.455E+01   16.
  1.096E-04  1.333E+01   17.
  1.098E-04  1.108E+01   15.
  1.099E-04  8.327E+00   14.
  1.101E-04  6.361E+00   12.
  1.103E-04  5.586E+00   12.
  1.105E-04  5.186E+00   14.
  1.106E-04  4.266E+00   16.
  1.108E-04  3.344E+00   14.
  1.110E-04  2.951E+00   15.
  1.112E-04  2.328E+00   12.
  1.113E-04  2.275E+00   13.
  1.115E-04  2.348E+00   15.
  1.117E-04  2.427E+00   20.
  1.119E-04  2.782E+00   24.
  1.120E-04  3.435E+00   33.
  1.122E-04  4.118E+00   24.
  1.124E-04  4.590E+00   22.
  1.126E-04  5.513E+00   23.
  1.128E-04  7.344E+00   28.
  1.129E-04  9.730E+00   17.
  1.131E-04  1.257E+01   12.
  1.133E-04  1.194E+01   11.
  1.135E-04  8.963E+00   11.
  1.137E-04  8.046E+00   12.
  1.138E-04  7.911E+00   11.
  1.140E-04  8.691E+00   11.
  1.142E-04  9.608E+00   15.
  1.144E-04  1.025E+01   13.
  1.146E-04  1.181E+01   12.
  1.148E-04  1.528E+01   13.
  1.149E-04  1.633E+01   14.
  1.151E-04  1.684E+01   15.
  1.153E-04  1.744E+01   14.
  1.155E-04  1.782E+01   14.
  1.157E-04  1.885E+01   14.
  1.159E-04  1.792E+01   10.
  1.161E-04  2.089E+01   11.
  1.162E-04  2.359E+01   12.
  1.164E-04  2.638E+01   12.
  1.166E-04  2.886E+01   13.
  1.168E-04  3.565E+01   12.
  1.170E-04  4.284E+01   12.
  1.172E-04  3.180E+01   15.
  1.174E-04  2.413E+01   19.
  1.176E-04  1.926E+01   20.
  1.178E-04  1.093E+01   17.
  1.180E-04  7.529E+00   24.
  1.181E-04  4.069E+00   13.
  1.183E-04  3.956E+00   16.
  1.185E-04  4.626E+00   14.
  1.187E-04  4.844E+00   21.
  1.189E-04  5.972E+00   15.
  1.191E-04  6.127E+00   16.
  1.193E-04  7.016E+00   14.
  1.195E-04  7.917E+00   16.
  1.197E-04  9.353E+00   20.
  1.199E-04  1.065E+01   12.
  1.201E-04  1.324E+01   16.
  1.203E-04  1.466E+01   15.
  1.205E-04  1.654E+01   15.
  1.205E-04  1.395E+01   22.
  1.207E-04  1.846E+01   13.
  1.209E-04  2.259E+01   12.
  1.211E-04  2.718E+01   13.
  1.213E-04  3.170E+01   14.
  1.215E-04  3.821E+01   15.
  1.217E-04  4.625E+01   14.
  1.219E-04  6.345E+01   13.
  1.221E-04  7.018E+01   12.
  1.223E-04  6.194E+01   13.
  1.225E-04  4.880E+01   15.
  1.227E-04  3.435E+01   13.
  1.229E-04  3.240E+01   14.
  1.231E-04  2.960E+01   14.
  1.233E-04  3.345E+01   19.
  1.235E-04  2.223E+01   20.
  1.237E-04  1.425E+01   11.
  1.240E-04  1.236E+01   13.
  1.242E-04  8.990E+00   13.
  1.244E-04  7.355E+00   14.
  1.246E-04  5.801E+00   11.
  1.248E-04  5.427E+00   11.
  1.250E-04  5.268E+00   12.
  1.252E-04  5.476E+00   12.
  1.254E-04  5.810E+00   18.
  1.256E-04  6.946E+00   12.
  1.258E-04  8.657E+00   12.
  1.260E-04  1.076E+01   14.
  1.263E-04  1.013E+01   11.
  1.265E-04  1.148E+01   10.
  1.267E-04  1.313E+01   11.
  1.269E-04  1.624E+01    9.9
  1.271E-04  1.874E+01   10.
  1.273E-04  2.304E+01   10.
  1.275E-04  2.693E+01   11.
  1.278E-04  3.150E+01   10.
  1.280E-04  3.458E+01   11.
  1.282E-04  4.358E+01   16.
  1.284E-04  4.657E+01   14.
  1.286E-04  4.010E+01   13.
  1.289E-04  3.317E+01   13.
  1.291E-04  3.066E+01   14.
  1.293E-04  3.165E+01   13.
  1.295E-04  3.364E+01   14.
  1.297E-04  3.890E+01   14.
  1.300E-04  4.570E+01   14.
  1.302E-04  5.692E+01   13.
  1.304E-04  7.234E+01   13.
  1.306E-04  8.738E+01   12.
  1.309E-04  7.601E+01   20.
  1.311E-04  4.536E+01   20.
  1.313E-04  3.226E+01   12.
  1.315E-04  2.632E+01   10.
  1.318E-04  2.260E+01   11.
  1.320E-04  2.325E+01    9.8
  1.322E-04  2.529E+01    9.7
  1.324E-04  2.962E+01   10.
  1.327E-04  3.279E+01     .0
  1.329E-04  3.718E+01    9.9
  1.331E-04  3.946E+01   10.
  1.334E-04  4.245E+01   10.
  1.336E-04  5.314E+01   11.
  1.338E-04  4.041E+01   13.
  1.341E-04  2.896E+01   10.
  1.343E-04  2.777E+01   12.
  1.345E-04  2.448E+01   11.
  1.348E-04  2.294E+01   11.
  1.350E-04  2.178E+01   13.
  1.352E-04  2.103E+01   10.
  1.355E-04  1.950E+01   10.
  1.357E-04  1.607E+01    9.9
  1.359E-04  1.661E+01   10.
  1.362E-04  1.606E+01   13.
  1.364E-04  1.998E+01   12.
  1.366E-04  1.952E+01   10.
  1.369E-04  1.891E+01   10.
  1.371E-04  1.920E+01   10.
  1.374E-04  2.139E+01   11.
  1.376E-04  2.449E+01   13.
  1.379E-04  3.125E+01   14.
  1.381E-04  4.102E+01   11.
  1.383E-04  4.348E+01   10.
  1.386E-04  3.632E+01    9.8
  1.388E-04  3.693E+01   10.
  1.391E-04  3.515E+01    9.9
  1.393E-04  3.566E+01   10.
  1.396E-04  4.185E+01   10.
  1.398E-04  4.869E+01   14.
  1.401E-04  5.357E+01   15.
  1.403E-04  4.993E+01   13.
  1.406E-04  4.568E+01   13.
  1.408E-04  4.545E+01   15.
  1.411E-04  4.607E+01   13.
  1.413E-04  5.182E+01   13.
  1.416E-04  6.547E+01   15.
  1.418E-04  8.060E+01   13.
  1.421E-04  8.239E+01   13.
  1.423E-04  7.548E+01   15.
  1.426E-04  4.697E+01   15.
  1.428E-04  3.648E+01   15.
  1.431E-04  2.304E+01   20.
  1.434E-04  1.295E+01   14.
  1.436E-04  1.271E+01   12.
  1.439E-04  1.386E+01     .0
  1.441E-04  1.560E+01   15.
  1.444E-04  2.130E+01   13.
  1.446E-04  2.880E+01   14.
  1.449E-04  3.466E+01   12.
  1.452E-04  3.523E+01   12.
  1.454E-04  3.770E+01   16.
  1.457E-04  4.963E+01   13.
  1.460E-04  5.914E+01   12.
  1.462E-04  5.455E+01   18.
  1.465E-04  3.721E+01   12.
  1.468E-04  3.223E+01   11.
  1.470E-04  2.652E+01   15.
  1.473E-04  2.139E+01     .0
  1.476E-04  2.023E+01     .0
  1.478E-04  2.010E+01   14.
  1.481E-04  1.999E+01   18.
  1.484E-04  2.383E+01   14.
  1.486E-04  2.880E+01   11.
  1.489E-04  3.026E+01   10.
  1.492E-04  2.666E+01   13.
  1.495E-04  2.867E+01   12.
  1.497E-04  3.401E+01    9.9
  1.500E-04  3.372E+01   12.
  1.503E-04  2.720E+01   13.
  1.506E-04  2.744E+01   12.
  1.508E-04  3.227E+01   10.
  1.511E-04  3.283E+01   10.
  1.514E-04  3.166E+01    9.4
  1.517E-04  3.216E+01   13.
  1.520E-04  3.348E+01    9.8
  1.522E-04  3.290E+01   10.
  1.525E-04  3.376E+01    9.4
  1.528E-04  3.460E+01   13.
  1.531E-04  3.776E+01   15.
  1.534E-04  4.738E+01   11.
  1.537E-04  5.265E+01   11.
  1.539E-04  3.823E+01   16.
  1.542E-04  3.156E+01   12.
  1.545E-04  2.530E+01   14.
  1.548E-04  1.844E+01   17.
  1.551E-04  1.587E+01   10.
  1.554E-04  1.925E+01   13.
  1.557E-04  1.645E+01   11.
  1.560E-04  1.304E+01   12.
  1.563E-04  1.375E+01   10.
  1.566E-04  1.216E+01   12.
  1.569E-04  1.111E+01   16.
  1.571E-04  1.334E+01   13.
  1.574E-04  1.570E+01   15.
  1.577E-04  1.881E+01   16.
  1.580E-04  2.211E+01   15.
  1.583E-04  2.565E+01   18.
  1.586E-04  3.352E+01   17.
  1.589E-04  3.974E+01    9.8
  1.592E-04  3.403E+01     .0
  1.595E-04  3.203E+01    9.5
  1.598E-04  2.999E+01    9.9
  1.601E-04  2.579E+01    9.8
  1.605E-04  2.494E+01   11.
  1.608E-04  2.264E+01   13.
  1.608E-04  2.580E+01   16.
  1.611E-04  1.631E+01   10.
  1.614E-04  1.763E+01   10.
  1.618E-04  1.520E+01   11.
  1.621E-04  1.280E+01   11.
  1.624E-04  1.366E+01   11.
  1.627E-04  1.431E+01    9.9
  1.630E-04  1.669E+01   10.
  1.633E-04  1.661E+01   10.
  1.636E-04  1.765E+01    9.7
  1.639E-04  1.845E+01   10.
  1.642E-04  2.119E+01    9.7
  1.646E-04  2.176E+01   11.
  1.649E-04  1.964E+01    9.7
  1.652E-04  1.810E+01     .0
  1.655E-04  1.505E+01   11.
  1.658E-04  1.391E+01   11.
  1.662E-04  1.163E+01   14.
  1.665E-04  1.051E+01   15.
  1.668E-04  1.133E+01   14.
  1.671E-04  1.364E+01   11.
  1.675E-04  1.318E+01   11.
  1.678E-04  1.471E+01   11.
  1.681E-04  1.752E+01   14.
  1.684E-04  2.227E+01   11.
  1.688E-04  2.140E+01   11.
  1.691E-04  1.621E+01   14.
  1.694E-04  2.045E+01   12.
  1.698E-04  1.934E+01   12.
  1.701E-04  1.658E+01   11.
  1.704E-04  1.925E+01   12.
  1.708E-04  1.977E+01   11.
  1.711E-04  2.079E+01   11.
  1.714E-04  2.092E+01   12.
  1.718E-04  2.551E+01   12.
  1.721E-04  2.863E+01   15.
  1.724E-04  3.582E+01   13.
  1.728E-04  4.883E+01   13.
  1.731E-04  6.098E+01   13.
  1.735E-04  6.867E+01   17.
  1.738E-04  7.799E+01   14.
  1.742E-04  9.244E+01   14.
  1.745E-04  8.690E+01   13.
  1.748E-04  8.390E+01   12.
  1.752E-04  7.499E+01   13.
  1.755E-04  6.515E+01   14.
  1.759E-04  5.403E+01   13.
  1.762E-04  4.708E+01   13.
  1.766E-04  3.888E+01    9.8
  1.769E-04  3.291E+01    9.6
  1.773E-04  2.411E+01   12.
  1.777E-04  1.881E+01    9.7
  1.780E-04  1.699E+01   10.
  1.784E-04  1.387E+01   12.
  1.787E-04  1.385E+01   12.
  1.791E-04  1.495E+01   11.
  1.794E-04  1.532E+01   11.
  1.798E-04  1.647E+01   10.
  1.802E-04  1.813E+01    9.9
  1.805E-04  1.770E+01   12.
  1.809E-04  1.943E+01   14.
  1.813E-04  2.295E+01   10.
  1.816E-04  2.441E+01   12.
  1.820E-04  2.866E+01   12.
  1.824E-04  3.548E+01   15.
  1.827E-04  4.235E+01   11.
  1.831E-04  3.787E+01   13.
  1.835E-04  3.696E+01   13.
  1.838E-04  3.849E+01   15.
  1.842E-04  2.390E+01   20.
  1.846E-04  1.325E+01   17.
  1.850E-04  1.085E+01   14.
  1.854E-04  1.012E+01   16.
  1.857E-04  1.072E+01   14.
  1.861E-04  1.359E+01   12.
  1.865E-04  1.451E+01   11.
  1.869E-04  1.711E+01   13.
  1.873E-04  2.194E+01   17.
  1.876E-04  2.490E+01   11.
  1.880E-04  2.915E+01   13.
  1.884E-04  3.294E+01   13.
  1.888E-04  3.890E+01   11.
  1.892E-04  4.372E+01    9.7
  1.896E-04  4.706E+01   12.
  1.900E-04  4.765E+01    9.7
  1.904E-04  4.937E+01   10.
  1.908E-04  5.254E+01    9.7
  1.912E-04  4.915E+01    9.5
  1.916E-04  4.981E+01   10.
  1.920E-04  5.175E+01   13.
  1.924E-04  5.399E+01   14.
  1.928E-04  5.426E+01   13.
  1.932E-04  5.300E+01   16.
  1.936E-04  5.154E+01   19.
  1.940E-04  5.163E+01   16.
  1.944E-04  4.802E+01   11.
  1.948E-04  4.239E+01   10.
  1.952E-04  5.237E+01   10.
  1.956E-04  6.388E+01   11.
  1.960E-04  6.452E+01    9.4
  1.964E-04  6.337E+01    9.5
  1.968E-04  7.246E+01    9.9
  1.973E-04  6.520E+01    9.7
  1.977E-04  5.168E+01   14.
  1.981E-04  4.750E+01    9.3
  1.985E-04  4.564E+01   11.
  1.989E-04  5.628E+01    9.3
  1.994E-04  5.407E+01    9.7
  1.998E-04  5.315E+01    9.3
  2.002E-04  5.974E+01    9.4
  2.006E-04  6.223E+01    9.3
  2.011E-04  5.865E+01    9.3
  2.011E-04  6.658E+01   19.
  2.015E-04  5.448E+01    9.2
  2.019E-04  5.441E+01    9.6
  2.024E-04  6.810E+01   10.
  2.028E-04  5.931E+01   13.
  2.032E-04  4.545E+01   14.
  2.037E-04  6.999E+01   17.
  2.041E-04  5.137E+01   37.
  2.046E-04  2.129E+01   19.
  2.050E-04  1.612E+01   15.
  2.054E-04  2.225E+01   17.
  2.059E-04  2.596E+01   11.
  2.063E-04  2.203E+01   15.
  2.068E-04  2.697E+01   19.
  2.072E-04  2.959E+01   12.
  2.077E-04  2.057E+01   13.
  2.081E-04  2.035E+01   11.
  2.086E-04  2.195E+01   12.
  2.090E-04  2.294E+01   11.
  2.095E-04  2.348E+01   11.
  2.099E-04  2.372E+01   12.
  2.104E-04  2.697E+01   10.
  2.108E-04  2.757E+01   12.
  2.113E-04  2.823E+01   13.
  2.118E-04  2.821E+01   13.
  2.122E-04  2.899E+01   12.
  2.127E-04  3.294E+01   12.
  2.132E-04  3.784E+01   13.
  2.136E-04  3.878E+01   10.
  2.141E-04  4.563E+01   11.
  2.146E-04  4.646E+01    9.9
  2.150E-04  4.889E+01   11.
  2.155E-04  5.771E+01   15.
  2.160E-04  6.381E+01   11.
  2.165E-04  5.844E+01    9.5
  2.170E-04  6.094E+01    9.6
  2.174E-04  6.494E+01    9.5
  2.179E-04  6.372E+01   10.
  2.184E-04  5.936E+01    9.4
  2.189E-04  6.489E+01   11.
  2.194E-04  4.842E+01   28.
  2.199E-04  2.306E+01   13.
  2.204E-04  2.540E+01   13.
  2.208E-04  1.762E+01   21.
  2.213E-04  1.508E+01   16.
  2.218E-04  1.634E+01   12.
  2.223E-04  1.714E+01   14.
  2.228E-04  1.764E+01   10.
  2.233E-04  1.771E+01   11.
  2.238E-04  1.908E+01   11.
  2.243E-04  2.085E+01    9.8
  2.248E-04  2.261E+01   13.
  2.253E-04  2.675E+01   14.
  2.259E-04  2.718E+01    9.8
  2.264E-04  2.588E+01   13.
  2.269E-04  3.229E+01    9.6
  2.274E-04  3.510E+01    9.7
  2.279E-04  3.064E+01   11.
  2.284E-04  2.938E+01    9.7
  2.289E-04  2.928E+01   17.
  2.295E-04  4.151E+01    9.7
  2.300E-04  3.161E+01   18.
  2.305E-04  3.295E+01   17.
  2.310E-04  5.007E+01   14.
  2.316E-04  3.994E+01   15.
  2.321E-04  3.412E+01   11.
  2.326E-04  3.532E+01    9.8
  2.332E-04  3.467E+01   15.
  2.337E-04  2.518E+01   15.
  2.342E-04  4.177E+01   14.
  2.348E-04  4.056E+01   22.
  2.353E-04  2.166E+01   20.
  2.359E-04  2.493E+01   11.
  2.364E-04  2.197E+01   15.
  2.369E-04  2.349E+01   14.
  2.375E-04  3.172E+01    9.9
  2.380E-04  2.953E+01    9.5
  2.386E-04  2.828E+01   11.
  2.392E-04  2.601E+01   14.
  2.397E-04  3.234E+01   11.
  2.403E-04  3.701E+01   12.
  2.408E-04  3.430E+01   10.
  2.414E-04  3.503E+01   12.
  2.418E-04  4.472E+01   17.
  2.424E-04  5.131E+01   10.
  2.430E-04  3.976E+01   11.
  2.435E-04  3.957E+01    9.3
  2.441E-04  3.855E+01   12.
  2.447E-04  4.664E+01   18.
  2.452E-04  6.319E+01   11.
  2.458E-04  4.617E+01   14.
  2.464E-04  4.767E+01   14.
  2.470E-04  2.405E+01   12.
  2.476E-04  2.128E+01   11.
  2.482E-04  2.579E+01   21.
  2.487E-04  2.676E+01   15.
  2.493E-04  1.927E+01   23.
  2.499E-04  4.718E+01   22.
  2.505E-04  3.222E+01   36.
  2.511E-04  1.823E+01   19.
  2.517E-04  1.439E+01   17.
  2.523E-04  1.511E+01   13.
  2.529E-04  1.520E+01   14.
  2.535E-04  1.559E+01   15.
  2.541E-04  1.932E+01   12.
  2.547E-04  2.035E+01   11.
  2.554E-04  2.217E+01   11.
  2.560E-04  2.490E+01   15.
  2.566E-04  3.559E+01   16.
  2.572E-04  3.068E+01   13.
  2.578E-04  3.199E+01   12.
  2.584E-04  3.317E+01   11.
  2.591E-04  2.732E+01   20.
  2.597E-04  6.302E+01   31.
  2.603E-04  6.035E+01   43.
  2.610E-04  2.358E+01   15.
  2.616E-04  3.068E+01   23.
  2.622E-04  1.522E+01   26.
  2.629E-04  1.231E+01   18.
  2.635E-04  1.105E+01   14.
  2.642E-04  1.029E+01   17.
  2.648E-04  1.409E+01   17.
  2.654E-04  1.863E+01   23.
  2.661E-04  1.926E+01   19.
  2.668E-04  1.883E+01   15.
  2.674E-04  2.421E+01   17.
  2.681E-04  3.151E+01   16.
  2.687E-04  2.957E+01   13.
  2.694E-04  2.818E+01   14.
  2.701E-04  4.053E+01   20.
  2.707E-04  4.920E+01   15.
  2.714E-04  4.562E+01   10.
  2.721E-04  3.691E+01   11.
  2.727E-04  4.358E+01   18.
  2.734E-04  5.480E+01   19.
  2.741E-04  2.630E+01   19.
  2.748E-04  2.417E+01   11.
  2.755E-04  2.604E+01   13.
  2.762E-04  3.029E+01   13.
  2.768E-04  3.233E+01   19.
  2.775E-04  3.993E+01   10.
  2.782E-04  4.122E+01   15.
  2.789E-04  4.678E+01   15.
  2.796E-04  2.834E+01   18.
  2.803E-04  2.417E+01   11.
  2.810E-04  2.298E+01   16.
  2.818E-04  2.238E+01   16.
  2.820E-04  2.923E+01   16.
  2.827E-04  2.058E+01   13.
  2.834E-04  2.190E+01   15.
  2.842E-04  2.870E+01   11.
  2.849E-04  3.266E+01   25.
  2.856E-04  3.463E+01   13.
  2.863E-04  3.998E+01   25.
  2.871E-04  2.373E+01   16.
  2.878E-04  2.108E+01   19.
  2.885E-04  1.921E+01   18.
  2.893E-04  1.975E+01   20.
  2.900E-04  1.373E+01   25.
  2.908E-04  1.486E+01   23.
  2.915E-04  2.224E+01   16.
  2.923E-04  2.361E+01   17.
  2.930E-04  2.075E+01   17.
  2.938E-04  1.964E+01   17.
  2.945E-04  2.107E+01   16.
  2.953E-04  2.553E+01   16.
  2.960E-04  2.964E+01   12.
  2.968E-04  2.393E+01   12.
  2.976E-04  2.058E+01   21.
  2.984E-04  2.459E+01   26.
  2.991E-04  5.987E+01   26.
  2.999E-04  4.915E+01   34.
  3.007E-04  2.581E+01   13.
  3.015E-04  2.616E+01   19.
  3.023E-04  2.046E+01   18.
  3.031E-04  2.248E+01   27.
  3.038E-04  3.937E+01   19.
  3.046E-04  1.702E+01   29.
  3.054E-04  1.013E+01   16.
  3.062E-04  9.299E+00   19.
  3.071E-04  1.055E+01   18.
  3.079E-04  1.305E+01   19.
  3.087E-04  2.202E+01   18.
  3.095E-04  1.729E+01   27.
  3.103E-04  1.349E+01   18.
  3.111E-04  1.344E+01   16.
  3.120E-04  1.543E+01   16.
  3.128E-04  1.500E+01   17.
  3.136E-04  1.758E+01   17.
  3.145E-04  2.183E+01   20.
  3.153E-04  3.421E+01   18.
  3.161E-04  2.965E+01   28.
  3.170E-04  1.907E+01   23.
  3.178E-04  2.202E+01   26.
  3.187E-04  2.935E+01   10.
  3.196E-04  3.257E+01   12.
  3.199E-04  6.185E+01   12.
  3.207E-04  6.519E+01   15.
  3.216E-04  6.842E+01   13.
  3.225E-04  6.581E+01   14.
  3.233E-04  4.724E+01   28.
  3.242E-04  3.409E+01   39.
  3.251E-04  4.609E+01   17.
  3.260E-04  3.223E+01   27.
  3.269E-04  2.648E+01   18.
  3.277E-04  3.795E+01   18.
  3.286E-04  3.096E+01   21.
  3.295E-04  2.922E+01   13.
  3.304E-04  3.160E+01   12.
  3.313E-04  3.240E+01   12.
  3.322E-04  2.957E+01   14.
  3.331E-04  2.686E+01   13.
  3.340E-04  1.616E+01   17.
  3.350E-04  9.552E+00   14.
  3.359E-04  8.565E+00   14.
  3.368E-04  9.545E+00   14.
  3.377E-04  7.804E+00   17.
  3.387E-04  8.298E+00   14.
  3.396E-04  1.090E+01   14.
  3.405E-04  1.456E+01   14.
  3.415E-04  1.638E+01   14.
  3.424E-04  1.630E+01   13.
  3.434E-04  2.530E+01   15.
  3.443E-04  3.452E+01   14.
  3.453E-04  2.406E+01   14.
  3.463E-04  1.686E+01   16.
  3.472E-04  1.641E+01   13.
  3.482E-04  2.350E+01   16.
  3.492E-04  3.803E+01   13.
  3.501E-04  2.939E+01   17.
  3.511E-04  1.521E+01   14.
  3.521E-04  1.777E+01   16.
  3.531E-04  2.319E+01   14.
  3.541E-04  1.701E+01   13.
  3.551E-04  1.493E+01   13.
  3.561E-04  1.342E+01   13.
  3.571E-04  1.254E+01   14.
  3.581E-04  1.237E+01   17.
  3.591E-04  1.775E+01   17.
  3.602E-04  2.845E+01   14.
  3.612E-04  2.287E+01   14.
  3.622E-04  1.667E+01   14.
  3.633E-04  1.094E+01   16.
  3.643E-04  1.117E+01   15.
  3.653E-04  1.518E+01   14.
  3.664E-04  1.465E+01   13.
  3.674E-04  1.298E+01   13.
  3.685E-04  1.262E+01   16.
  3.696E-04  1.263E+01   13.
  3.706E-04  1.445E+01   15.
  3.717E-04  1.566E+01   16.
  3.728E-04  2.210E+01   18.
  3.738E-04  2.933E+01   20.
  3.749E-04  4.188E+01   24.
  3.760E-04  4.608E+01   15.
  3.771E-04  4.893E+01   17.
  3.782E-04  3.285E+01   22.
  3.793E-04  2.482E+01   21.
  3.804E-04  2.208E+01   14.
  3.815E-04  2.697E+01   14.
  3.827E-04  2.810E+01   20.
  3.838E-04  2.293E+01   14.
  3.849E-04  2.687E+01   17.
  3.860E-04  3.251E+01   16.
  3.872E-04  3.968E+01   15.
  3.883E-04  1.720E+01   42.
  3.895E-04  1.003E+01   16.
  3.906E-04  1.130E+01   13.
  3.918E-04  1.622E+01   14.
  3.929E-04  2.059E+01   14.
  3.941E-04  2.330E+01   14.
  3.953E-04  2.036E+01   13.
  3.965E-04  2.150E+01   13.
  3.976E-04  1.734E+01   13.
  3.988E-04  1.614E+01   19.
  4.000E-04  2.300E+01   21.
  4.012E-04  3.599E+01   14.
  4.024E-04  3.778E+01   13.
  4.037E-04  2.774E+01   16.
  4.049E-04  1.952E+01   14.
  4.061E-04  1.780E+01   15.
  4.073E-04  2.116E+01   19.
  4.086E-04  2.744E+01   15.
  4.098E-04  1.972E+01   15.
  4.110E-04  1.610E+01   16.
  4.123E-04  1.445E+01   17.
  4.135E-04  1.849E+01   14.
  4.148E-04  2.285E+01   14.
  4.161E-04  1.881E+01   15.
  4.173E-04  1.569E+01   20.
  4.186E-04  1.893E+01   14.
  4.199E-04  2.058E+01   21.
  4.212E-04  1.532E+01   15.
  4.225E-04  1.830E+01   14.
  4.238E-04  2.782E+01   14.
  4.251E-04  3.494E+01   14.
  4.264E-04  2.938E+01   17.
  4.278E-04  2.391E+01   14.
  4.291E-04  1.992E+01   14.
  4.304E-04  2.075E+01   14.
  4.318E-04  2.892E+01   16.
  4.331E-04  5.599E+01   16.
  4.345E-04  6.101E+01   15.
  4.358E-04  4.849E+01   14.
  4.372E-04  3.851E+01   18.
  4.386E-04  2.750E+01   20.
  4.399E-04  2.156E+01   17.
  4.413E-04  1.674E+01   16.
  4.427E-04  1.392E+01   14.
  4.441E-04  1.054E+01   18.
  4.455E-04  1.235E+01   14.
  4.469E-04  1.357E+01   20.
  4.483E-04  1.557E+01   14.
  4.498E-04  1.448E+01   17.
  4.512E-04  1.470E+01   15.
  4.526E-04  1.468E+01   14.
  4.541E-04  1.418E+01   18.
  4.555E-04  1.951E+01   13.
  4.570E-04  1.905E+01   18.
  4.585E-04  1.983E+01   14.
  4.599E-04  2.305E+01   23.
  4.614E-04  2.342E+01   15.
  4.629E-04  2.797E+01   14.
  4.644E-04  2.758E+01   13.
  4.659E-04  2.649E+01   17.
  4.674E-04  4.099E+01   24.
  4.689E-04  5.063E+01   16.
  4.704E-04  3.678E+01   26.
  4.720E-04  1.702E+01   29.
  4.735E-04  1.514E+01   16.
  4.751E-04  1.238E+01   13.
  4.766E-04  1.218E+01   15.
  4.782E-04  1.108E+01   21.
  4.798E-04  1.779E+01   24.
  4.813E-04  2.223E+01   15.
  4.829E-04  1.050E+01   23.
  4.845E-04  6.944E+00   20.
  4.861E-04  9.646E+00   16.
  4.877E-04  9.533E+00   16.
  4.893E-04  6.956E+00   23.
  4.910E-04  8.680E+00   17.
  4.926E-04  1.057E+01   17.
  4.942E-04  1.095E+01   19.
  4.959E-04  1.175E+01   14.
  4.975E-04  1.320E+01   15.
  4.992E-04  1.066E+01   13.
  5.009E-04  9.821E+00   16.
  5.026E-04  1.091E+01   19.
  5.043E-04  1.604E+01   19.
  5.060E-04  2.320E+01   13.
  5.077E-04  2.478E+01   15.
  5.094E-04  2.278E+01   14.
  5.111E-04  1.910E+01   14.
  5.128E-04  2.186E+01   13.
  5.146E-04  2.301E+01   14.
  5.163E-04  1.669E+01   15.
  5.181E-04  1.295E+01   14.
  5.199E-04  1.287E+01   15.
  5.217E-04  1.960E+01   15.
  5.234E-04  2.642E+01   15.
  5.252E-04  2.550E+01   14.
  5.271E-04  1.995E+01   16.
  5.289E-04  2.860E+01   15.
  5.307E-04  3.901E+01   15.
  5.325E-04  3.245E+01   16.
  5.344E-04  2.507E+01   14.
  5.362E-04  2.017E+01   14.
  5.381E-04  1.776E+01   11.
  5.400E-04  1.581E+01   14.
  5.419E-04  1.252E+01   15.
  5.437E-04  9.578E+00   14.
  5.457E-04  1.058E+01   17.
  5.476E-04  9.928E+00   15.
  5.495E-04  1.055E+01   14.
  5.514E-04  9.955E+00   22.
  5.534E-04  1.300E+01   14.
  5.553E-04  1.434E+01   15.
  5.573E-04  1.207E+01   15.
  5.593E-04  8.197E+00   21.
  5.613E-04  8.688E+00   14.
  5.633E-04  1.060E+01   16.
  5.653E-04  1.194E+01   21.
  5.673E-04  1.599E+01   14.
  5.693E-04  2.059E+01   13.
  5.713E-04  1.842E+01   14.
  5.734E-04  1.643E+01   14.
  5.755E-04  1.630E+01   14.
  5.775E-04  1.479E+01   14.
  5.796E-04  1.114E+01   15.
  5.817E-04  1.095E+01   37.
  5.838E-04  1.817E+01   14.
  5.859E-04  2.227E+01   19.
  5.881E-04  2.915E+01   13.
  5.902E-04  2.460E+01   15.
  5.924E-04  1.667E+01   21.
  5.945E-04  2.021E+01   14.
  5.967E-04  1.696E+01   17.
  6.007E-04  1.326E+01   14.
  6.029E-04  1.002E+01   15.
  6.051E-04  7.511E+00   15.
  6.074E-04  8.560E+00   14.
  6.096E-04  1.144E+01   14.
  6.119E-04  1.097E+01   16.
  6.141E-04  7.919E+00   18.
  6.164E-04  7.290E+00   13.
  6.187E-04  7.484E+00   16.
  6.210E-04  9.832E+00   14.
  6.234E-04  1.654E+01   15.
  6.257E-04  1.830E+01   13.
  6.281E-04  1.380E+01   15.
  6.304E-04  8.456E+00   28.
  6.328E-04  9.592E+00   21.
  6.352E-04  1.173E+01   15.
  6.376E-04  1.316E+01   14.
  6.400E-04  1.251E+01   16.
  6.424E-04  1.355E+01   14.
  6.449E-04  1.400E+01   16.
  6.473E-04  1.183E+01   17.
  6.498E-04  1.186E+01   13.
  6.523E-04  1.387E+01   15.
  6.548E-04  1.381E+01   13.
  6.573E-04  1.259E+01   16.
  6.599E-04  1.509E+01   14.
  6.624E-04  1.701E+01   14.
  6.650E-04  1.581E+01   15.
  6.676E-04  1.074E+01   22.
  6.701E-04  7.656E+00   16.
  6.727E-04  5.338E+00   16.
  6.754E-04  5.276E+00   18.
  6.780E-04  5.383E+00   17.
  6.807E-04  6.484E+00   15.
  6.833E-04  6.537E+00   15.
  6.860E-04  7.466E+00   14.
  6.887E-04  1.004E+01   16.
  6.914E-04  1.323E+01   17.
  6.942E-04  9.926E+00   18.
  6.969E-04  1.150E+01   14.
  6.997E-04  1.273E+01   16.
  7.025E-04  1.181E+01   14.
  7.053E-04  1.118E+01   14.
  7.081E-04  7.440E+00   18.
  7.109E-04  7.682E+00   17.
  7.138E-04  8.490E+00   14.
  7.166E-04  8.988E+00   14.
  7.195E-04  8.969E+00   15.
  7.224E-04  8.954E+00   15.
  7.253E-04  1.071E+01   15.
  7.283E-04  1.751E+01   17.
  7.312E-04  1.111E+01   25.
  7.342E-04  1.100E+01   15.
  7.372E-04  9.844E+00   15.
  7.402E-04  9.555E+00   15.
  7.432E-04  8.305E+00   16.
  7.463E-04  8.812E+00   17.
  7.493E-04  8.084E+00   15.
  7.524E-04  7.950E+00   16.
  7.555E-04  7.535E+00   16.
  7.586E-04  7.796E+00   15.
  7.618E-04  5.164E+00   20.
  7.649E-04  6.461E+00   22.
  7.681E-04  8.558E+00   15.
  7.713E-04  9.576E+00   14.
  7.745E-04  7.759E+00   22.
  7.778E-04  8.874E+00   17.
  7.810E-04  9.919E+00   13.
  7.843E-04  1.352E+01   15.
  7.876E-04  1.580E+01   14.
  7.909E-04  1.375E+01   13.
  7.943E-04  1.074E+01   14.
  7.976E-04  9.486E+00   14.
  8.010E-04  1.101E+01   14.
  8.044E-04  1.366E+01   14.
  8.079E-04  1.084E+01   14.
  8.113E-04  1.158E+01   14.
  8.148E-04  1.029E+01   14.
  8.183E-04  9.268E+00   15.
  8.218E-04  8.385E+00   15.
  8.254E-04  8.424E+00   14.
  8.289E-04  5.360E+00   16.
  8.325E-04  3.917E+00   17.
  8.361E-04  4.152E+00   19.
  8.398E-04  5.997E+00   16.
  8.434E-04  7.268E+00   15.
  8.471E-04  7.596E+00   15.
  8.508E-04  7.384E+00   16.
  8.545E-04  7.462E+00   18.
  8.583E-04  8.924E+00   15.
  8.621E-04  1.212E+01   16.
  8.659E-04  1.121E+01   14.
  8.697E-04  1.058E+01   13.
  8.736E-04  1.357E+01   15.
  8.775E-04  1.337E+01   15.
  8.814E-04  9.558E+00   16.
  8.853E-04  1.180E+01   14.
  8.893E-04  1.192E+01   16.
  8.932E-04  9.855E+00   15.
  8.973E-04  7.232E+00   25.
  9.013E-04  8.362E+00   15.
  9.054E-04  8.449E+00   16.
  9.095E-04  9.406E+00   21.
  9.136E-04  1.253E+01   14.
  9.177E-04  1.654E+01   14.
  9.219E-04  1.421E+01   15.
  9.261E-04  1.159E+01   25.
  9.304E-04  9.298E+00   26.
  9.346E-04  9.317E+00   14.
  9.389E-04  1.024E+01   15.
  9.433E-04  8.923E+00   17.
  9.476E-04  9.384E+00   15.
  9.520E-04  9.360E+00   14.
  9.564E-04  8.341E+00   14.
  9.609E-04  8.271E+00   13.
  9.654E-04  6.699E+00   16.
  9.699E-04  8.314E+00   14.
  9.744E-04  9.046E+00   14.
  9.790E-04  1.019E+01   14.
  9.836E-04  7.768E+00   15.
  9.883E-04  9.866E+00   15.
  9.929E-04  1.101E+01   14.
  9.976E-04  1.233E+01   13.
  1.001E-03  1.411E+01   13.
  1.006E-03  1.325E+01   16.
  1.011E-03  1.169E+01   13.
  1.016E-03  1.262E+01   14.
  1.020E-03  1.124E+01   13.
  1.025E-03  8.803E+00   15.
  1.030E-03  1.091E+01   14.
  1.035E-03  1.139E+01   14.
  1.040E-03  1.169E+01   21.
  1.045E-03  1.271E+01   14.
  1.050E-03  1.399E+01   14.
  1.056E-03  1.533E+01   14.
  1.061E-03  1.658E+01   14.
  1.066E-03  1.352E+01   15.
  1.071E-03  1.165E+01   14.
  1.076E-03  1.127E+01   14.
  1.082E-03  1.303E+01   14.
  1.087E-03  1.075E+01   15.
  1.092E-03  8.013E+00   14.
  1.098E-03  6.894E+00   13.
  1.103E-03  8.347E+00   15.
  1.109E-03  1.038E+01   14.
  1.114E-03  9.166E+00   18.
  1.120E-03  7.633E+00   17.
  1.126E-03  7.575E+00   14.
  1.131E-03  8.635E+00   14.
  1.137E-03  1.001E+01   14.
  1.143E-03  1.069E+01   13.
  1.149E-03  1.043E+01   15.
  1.155E-03  8.890E+00   16.
  1.160E-03  9.482E+00   13.
  1.166E-03  1.080E+01   14.
  1.172E-03  1.124E+01   14.
  1.178E-03  1.017E+01   16.
  1.185E-03  1.079E+01   17.
  1.191E-03  1.048E+01   14.
  1.197E-03  9.693E+00   16.
  1.203E-03  7.413E+00   15.
  1.209E-03  6.221E+00   14.
  1.216E-03  5.248E+00   14.
  1.222E-03  5.122E+00   16.
  1.229E-03  4.628E+00   16.
  1.235E-03  6.246E+00   14.
  1.242E-03  8.320E+00   14.
  1.248E-03  7.875E+00   16.
  1.255E-03  8.888E+00   13.
  1.261E-03  7.268E+00   19.
  1.268E-03  8.707E+00   16.
  1.275E-03  1.065E+01   15.
  1.282E-03  1.268E+01   14.
  1.289E-03  1.145E+01   13.
  1.296E-03  9.370E+00   17.
  1.303E-03  8.704E+00   14.
  1.310E-03  7.264E+00   13.
  1.317E-03  6.146E+00   19.
  1.324E-03  7.406E+00   14.
  1.331E-03  8.741E+00   14.
  1.339E-03  9.943E+00   13.
  1.346E-03  8.172E+00   20.
  1.354E-03  6.089E+00   20.
  1.361E-03  5.365E+00   14.
  1.369E-03  5.545E+00   14.
  1.376E-03  6.278E+00   13.
  1.384E-03  7.256E+00   14.
  1.392E-03  7.400E+00   13.
  1.400E-03  8.510E+00   14.
  1.407E-03  1.106E+01   14.
  1.415E-03  1.145E+01   17.
  1.423E-03  1.083E+01   14.
  1.432E-03  8.492E+00   15.
  1.440E-03  8.904E+00   13.
  1.448E-03  8.974E+00   14.
  1.456E-03  8.341E+00   14.
  1.465E-03  7.553E+00   14.
  1.473E-03  7.775E+00   14.
  1.482E-03  7.226E+00   13.
  1.490E-03  7.937E+00   18.
  1.499E-03  9.007E+00   15.
  1.508E-03  9.437E+00   14.
  1.516E-03  9.132E+00   14.
  1.525E-03  8.220E+00   15.
  1.534E-03  8.222E+00   14.
  1.543E-03  8.813E+00   14.
  1.552E-03  1.017E+01   15.
  1.562E-03  1.160E+01   17.
  1.571E-03  1.121E+01   14.
  1.580E-03  1.077E+01   14.
  1.590E-03  9.550E+00   14.
  1.599E-03  7.833E+00   14.
  1.609E-03  7.114E+00   14.
  1.619E-03  6.882E+00   14.
  1.629E-03  7.225E+00   14.
  1.639E-03  7.391E+00   16.
  1.649E-03  7.705E+00   14.
  1.659E-03  7.354E+00   15.
  1.669E-03  7.443E+00   14.
  1.679E-03  8.095E+00   13.
  1.689E-03  9.410E+00   16.
  1.700E-03  9.123E+00   14.
  1.710E-03  8.788E+00   13.
  1.721E-03  7.924E+00   13.
  1.732E-03  7.843E+00   15.
  1.743E-03  7.932E+00   14.
  1.754E-03  8.029E+00   19.
  1.765E-03  7.619E+00   13.
  1.776E-03  7.715E+00   16.
  1.787E-03  6.858E+00   14.
  1.799E-03  6.157E+00   15.
  1.810E-03  6.233E+00   14.
  1.822E-03  5.822E+00   14.
  1.834E-03  6.229E+00   16.
  1.845E-03  6.158E+00   13.
  1.857E-03  6.730E+00   13.
  1.869E-03  7.225E+00   14.
  1.882E-03  8.116E+00   14.
  1.894E-03  6.839E+00   19.
  1.906E-03  6.376E+00   13.
  1.919E-03  7.047E+00   15.
  1.932E-03  7.415E+00   13.
  1.944E-03  7.280E+00   14.
  1.957E-03  6.317E+00   13.
  1.970E-03  6.024E+00   16.
  1.984E-03  6.364E+00   14.
  1.997E-03  6.063E+00   14.
  2.010E-03  6.133E+00   14.
  2.024E-03  5.981E+00   14.
  2.038E-03  6.132E+00   13.
  2.052E-03  6.484E+00   14.
  2.066E-03  7.476E+00   13.
  2.080E-03  6.767E+00   13.
  2.094E-03  5.966E+00   14.
  2.109E-03  5.795E+00   14.
  2.123E-03  5.983E+00   14.
  2.138E-03  6.150E+00   14.
  2.153E-03  5.691E+00   14.
  2.168E-03  5.442E+00   14.
  2.183E-03  5.179E+00   13.
  2.199E-03  5.930E+00   15.
  2.214E-03  6.227E+00   13.
  2.230E-03  7.056E+00   13.
  2.246E-03  6.839E+00   16.
  2.262E-03  6.391E+00   14.
  2.278E-03  6.180E+00   15.
  2.295E-03  6.788E+00   14.
  2.311E-03  6.786E+00   15.
  2.328E-03  7.113E+00   15.
  2.345E-03  6.365E+00   13.
  2.362E-03  5.708E+00   14.
  2.379E-03  5.439E+00   15.
  2.397E-03  5.329E+00   16.
  2.415E-03  5.816E+00   14.
  2.433E-03  7.323E+00   17.
  2.451E-03  7.699E+00   15.
  2.469E-03  8.200E+00   14.
  2.488E-03  7.401E+00   14.
  2.506E-03  6.064E+00   14.
  2.525E-03  5.986E+00   15.
  2.544E-03  6.340E+00   14.
  2.564E-03  6.339E+00   14.
  2.583E-03  6.688E+00   14.
  2.603E-03  7.117E+00   14.
  2.623E-03  6.446E+00   13.
  2.644E-03  5.017E+00   17.
  2.664E-03  3.747E+00   15.
  2.685E-03  3.993E+00   14.
  2.706E-03  4.708E+00   13.
  2.727E-03  5.113E+00   14.
  2.749E-03  5.364E+00   14.
  2.809E-03  1.022E+01   19.
  2.820E-03  6.815E+00   20.
  2.831E-03  9.858E+00   16.
  2.843E-03  7.790E+00   22.
  2.854E-03  6.689E+00   20.
  2.865E-03  6.387E+00   20.
  2.889E-03  9.449E+00   25.
  2.900E-03  5.892E+00   17.
  2.912E-03  6.708E+00   24.
  2.924E-03  7.177E+00   17.
  2.936E-03  7.328E+00   23.
  2.948E-03  6.668E+00   23.
  2.960E-03  8.043E+00   23.
  2.972E-03  9.381E+00   26.
  2.984E-03  7.490E+00   17.
  2.996E-03  7.174E+00   33.
  3.009E-03  9.324E+00   17.
  3.021E-03  7.989E+00   14.
  3.033E-03  8.371E+00   29.
  3.046E-03  9.505E+00   25.
  3.059E-03  9.703E+00   18.
  3.084E-03  7.427E+00   16.
  3.097E-03  6.410E+00   18.
  3.110E-03  7.235E+00   29.
  3.123E-03  5.155E+00   16.
  3.136E-03  7.248E+00   32.
  3.149E-03  8.395E+00   15.
  3.163E-03  6.645E+00   20.
  3.176E-03  6.646E+00   13.
  3.189E-03  6.854E+00   18.
  3.203E-03  8.070E+00   16.
  3.217E-03  9.147E+00   14.
  3.230E-03  5.723E+00   22.
  3.258E-03  9.337E+00   19.
  3.286E-03  7.249E+00   16.
  3.314E-03  5.757E+00   21.
  3.329E-03  4.229E+00   20.
  3.343E-03  6.494E+00   14.
  3.358E-03  4.973E+00   14.
  3.372E-03  6.075E+00   28.
  3.387E-03  4.837E+00   26.
  3.402E-03  5.928E+00   14.
  3.417E-03  6.671E+00   22.
  3.432E-03  8.351E+00   28.
  3.447E-03  5.742E+00   26.
  3.462E-03  5.670E+00   20.
  3.478E-03  4.331E+00   16.
  3.493E-03  3.878E+00   19.
  3.508E-03  4.483E+00   17.
  3.524E-03  4.602E+00   17.
  3.540E-03  4.821E+00   14.
  3.556E-03  7.021E+00   15.
  3.572E-03  7.676E+00   22.
  3.588E-03  4.731E+00   37.
  3.604E-03  5.133E+00   19.
  3.620E-03  4.499E+00   27.
  3.636E-03  5.236E+00   33.
  3.653E-03  8.714E+00   16.
  3.670E-03  6.226E+00   32.
  3.686E-03  6.028E+00   14.
  3.703E-03  7.655E+00   14.
  3.720E-03  6.062E+00   13.
  3.737E-03  5.315E+00   13.
  3.754E-03  4.953E+00   17.
  3.772E-03  6.516E+00   32.
  3.789E-03  7.958E+00   14.
  3.807E-03  6.122E+00   17.
  3.824E-03  5.005E+00   19.
  3.842E-03  4.688E+00   29.
  3.896E-03  6.634E+00   13.
  3.914E-03  5.331E+00   12.
  3.933E-03  6.154E+00   17.
  3.951E-03  5.984E+00   20.
  3.970E-03  3.707E+00   18.
  3.989E-03  3.639E+00   37.
  4.008E-03  4.593E+00   25.
  4.027E-03  5.796E+00   23.
  4.046E-03  2.440E+00   25.
  4.066E-03  3.896E+00   19.
  4.085E-03  5.240E+00   22.
  4.105E-03  6.145E+00   39.
  4.124E-03  4.717E+00   19.
  4.144E-03  4.901E+00   22.
  4.164E-03  4.968E+00   28.
  4.185E-03  8.804E+00   56.
  4.205E-03  5.201E+00   33.
  4.226E-03  4.657E+00   17.
  4.246E-03  4.030E+00   18.
  4.288E-03  8.001E+00   14.
  4.309E-03  6.114E+00   28.
  4.330E-03  6.398E+00   30.
  4.352E-03  4.891E+00   17.
  4.374E-03  4.606E+00   19.
  4.395E-03  4.170E+00   18.
  4.417E-03  3.927E+00   16.
  4.439E-03  3.390E+00   26.
  4.462E-03  3.608E+00   20.
  4.484E-03  4.432E+00   23.
  4.507E-03  5.165E+00   20.
  4.529E-03  4.801E+00   23.
  4.552E-03  5.486E+00   17.
  4.575E-03  5.033E+00   25.
  4.599E-03  3.769E+00   21.
  4.622E-03  4.775E+00   19.
  4.646E-03  7.239E+00   15.
  4.670E-03  4.920E+00   12.
  4.718E-03  5.406E+00   27.
  4.742E-03  4.241E+00   33.
  4.767E-03  3.618E+00   21.
  4.792E-03  4.714E+00   15.
  4.817E-03  3.572E+00   14.
  4.842E-03  5.915E+00   16.
  4.867E-03  5.145E+00   16.
  4.893E-03  5.535E+00   35.
  4.918E-03  5.418E+00   15.
  4.944E-03  6.665E+00   18.
  4.971E-03  5.127E+00   25.
  4.997E-03  6.151E+00   20.
  5.024E-03  5.461E+00   27.
  5.050E-03  2.999E+00   33.
  5.077E-03  5.088E+00   17.
  5.105E-03  3.716E+00   17.
  5.132E-03  3.008E+00   27.
  5.160E-03  3.898E+00   20.
  5.188E-03  3.172E+00   38.
  5.216E-03  4.922E+00   24.
  5.244E-03  5.738E+00   26.
  5.273E-03  5.333E+00   33.
  5.302E-03  4.777E+00   20.
  5.331E-03  4.185E+00   21.
  5.360E-03  4.096E+00   18.
  5.390E-03  3.652E+00   23.
  5.419E-03  5.549E+00   20.
  5.449E-03  3.878E+00   27.
  5.480E-03  5.153E+00   12.
  5.510E-03  5.047E+00   17.
  5.541E-03  3.954E+00   26.
  5.572E-03  4.233E+00   22.
  5.604E-03  3.659E+00   16.
  5.635E-03  3.643E+00   20.
  5.667E-03  3.519E+00   19.
  5.699E-03  4.151E+00   22.
  5.732E-03  2.999E+00   20.
  5.764E-03  3.542E+00   23.
  5.797E-03  4.088E+00   13.
  5.864E-03  4.822E+00   14.
  5.898E-03  5.054E+00   15.
  5.932E-03  4.681E+00   16.
  5.966E-03  4.335E+00   34.
  6.001E-03  4.715E+00   15.
  6.036E-03  3.866E+00   25.
  6.071E-03  4.631E+00   21.
  6.107E-03  4.949E+00   32.
  6.143E-03  4.261E+00   17.
  6.179E-03  6.013E+00   29.
  6.216E-03  5.877E+00   22.
  6.253E-03  4.387E+00   18.
  6.290E-03  4.183E+00   19.
  6.328E-03  4.639E+00   24.
  6.366E-03  5.186E+00   21.
  6.404E-03  4.915E+00   19.
  6.443E-03  4.828E+00   17.
  6.482E-03  4.377E+00   24.
  6.521E-03  4.590E+00   17.
  6.561E-03  4.457E+00   17.
  6.601E-03  3.989E+00   26.
  6.641E-03  4.957E+00   20.
  6.682E-03  4.313E+00   23.
  6.723E-03  4.359E+00   17.
  6.765E-03  4.181E+00   19.
  6.807E-03  4.107E+00   16.
  6.849E-03  4.265E+00   17.
  6.892E-03  3.635E+00   17.
  6.935E-03  3.953E+00   21.
  6.978E-03  4.020E+00   19.
  7.022E-03  4.197E+00   16.
  7.067E-03  3.754E+00   24.
  7.111E-03  3.814E+00   16.
  7.157E-03  4.193E+00   25.
  7.202E-03  3.569E+00   11.
  7.248E-03  2.990E+00   14.
  7.295E-03  3.154E+00   31.
  7.342E-03  5.515E+00   14.
  7.389E-03  4.706E+00   17.
  7.486E-03  3.712E+00   17.
  7.535E-03  4.384E+00   16.
  7.584E-03  3.543E+00   25.
  7.634E-03  3.134E+00   23.
  7.684E-03  3.273E+00   21.
  7.735E-03  3.589E+00   17.
  7.786E-03  2.848E+00   14.
  7.838E-03  3.275E+00   18.
  7.890E-03  3.431E+00   28.
  7.943E-03  3.875E+00   41.
  7.997E-03  2.720E+00   17.
  8.051E-03  3.064E+00   17.
  8.105E-03  2.827E+00   18.
  8.160E-03  3.804E+00   19.
  8.216E-03  4.801E+00   16.
  8.272E-03  3.486E+00   21.
  8.329E-03  3.726E+00   21.
  8.386E-03  3.319E+00   17.
  8.444E-03  5.687E+00   16.
  8.503E-03  3.958E+00   31.
  8.562E-03  4.198E+00   21.
  8.622E-03  3.393E+00   19.
  8.682E-03  3.337E+00   24.
  8.743E-03  2.831E+00   21.
  8.805E-03  3.640E+00   32.
  8.867E-03  4.055E+00   24.
  8.930E-03  4.063E+00   13.
  8.994E-03  3.912E+00   15.
  9.058E-03  3.224E+00   17.
  9.123E-03  2.647E+00   20.
  9.189E-03  2.742E+00   25.
  9.256E-03  2.748E+00   20.
  9.323E-03  3.621E+00   15.
  9.391E-03  2.493E+00   24.
  9.460E-03  3.826E+00   14.
  9.529E-03  3.390E+00   15.
  9.599E-03  3.415E+00   14.
  9.670E-03  3.434E+00   13.
  9.742E-03  2.839E+00   16.
  9.888E-03  3.047E+00   15.
  9.963E-03  3.882E+00   15.
  9.996E-03  4.385E+00   16.
  1.004E-02  5.083E+00   17.
  1.009E-02  4.619E+00   19.
  1.013E-02  3.579E+00   16.
  1.018E-02  2.816E+00   20.
  1.022E-02  3.967E+00   15.
  1.027E-02  3.013E+00   16.
  1.032E-02  4.241E+00   26.
  1.037E-02  4.625E+00   15.
  1.041E-02  5.120E+00   19.
  1.046E-02  3.818E+00   29.
  1.051E-02  2.964E+00   17.
  1.056E-02  3.544E+00   15.
  1.061E-02  3.953E+00   16.
  1.066E-02  3.300E+00   17.
  1.071E-02  3.673E+00   16.
  1.076E-02  2.798E+00   16.
  1.081E-02  2.935E+00   23.
  1.086E-02  3.908E+00   18.
  1.091E-02  3.222E+00   17.
  1.096E-02  3.186E+00   29.
  1.101E-02  3.876E+00   18.
  1.106E-02  3.195E+00   30.
  1.112E-02  4.301E+00   20.
  1.117E-02  3.808E+00   18.
  1.122E-02  4.718E+00   14.
  1.128E-02  3.179E+00   30.
  1.133E-02  3.682E+00   15.
  1.138E-02  4.897E+00   18.
  1.144E-02  4.020E+00   23.
  1.149E-02  4.738E+00   16.
  1.155E-02  3.964E+00   33.
  1.161E-02  3.804E+00   14.
  1.166E-02  3.640E+00   15.
  1.172E-02  3.769E+00   16.
  1.178E-02  4.056E+00   23.
  1.195E-02  2.176E+00   17.
  1.201E-02  2.191E+00   19.
  1.207E-02  2.139E+00   18.
  1.213E-02  2.730E+00   15.
  1.219E-02  2.515E+00   16.
  1.225E-02  2.645E+00   18.
  1.231E-02  3.321E+00   22.
  1.237E-02  3.957E+00   17.
  1.244E-02  3.897E+00   17.
  1.250E-02  2.995E+00   15.
  1.256E-02  3.546E+00   14.
  1.262E-02  2.759E+00   18.
  1.269E-02  3.074E+00   28.
  1.275E-02  3.185E+00   18.
  1.282E-02  2.837E+00   21.
  1.302E-02  3.395E+00   29.
  1.315E-02  2.333E+00   18.
  1.322E-02  3.028E+00   22.
  1.329E-02  3.479E+00   16.
  1.336E-02  3.269E+00   19.
  1.343E-02  2.700E+00   34.
  1.364E-02  3.070E+00   17.
  1.371E-02  2.825E+00   19.
  1.378E-02  2.407E+00   30.
  1.386E-02  3.473E+00   17.
  1.393E-02  3.958E+00   15.
  1.400E-02  4.927E+00   16.
  1.408E-02  3.779E+00   18.
  1.415E-02  3.996E+00   21.
  1.423E-02  4.157E+00   19.
  1.431E-02  4.298E+00   17.
  1.438E-02  3.926E+00   15.
  1.446E-02  3.140E+00   15.
  1.454E-02  2.869E+00   20.
  1.462E-02  3.814E+00   20.
  1.470E-02  2.866E+00   24.
  1.478E-02  3.273E+00   17.
  1.486E-02  4.431E+00   20.
  1.494E-02  4.188E+00   17.
  1.503E-02  3.684E+00   21.
  1.511E-02  3.826E+00   35.
  1.519E-02  5.223E+00   17.
  1.528E-02  4.263E+00   20.
  1.536E-02  3.015E+00   25.
  1.545E-02  3.414E+00   21.
  1.554E-02  2.843E+00   22.
  1.562E-02  3.577E+00   18.
  1.571E-02  3.762E+00   17.
  1.580E-02  3.989E+00   15.
  1.589E-02  3.141E+00   19.
  1.598E-02  2.663E+00   22.
  1.607E-02  2.594E+00   18.
  1.617E-02  2.299E+00   18.
  1.626E-02  2.516E+00   36.
  1.635E-02  3.286E+00   25.
  1.645E-02  3.939E+00   23.
  1.654E-02  2.984E+00   15.
  1.664E-02  3.243E+00   26.
  1.674E-02  2.860E+00   31.
  1.683E-02  4.236E+00   26.
  1.693E-02  3.852E+00   15.
  1.703E-02  4.157E+00   14.
  1.713E-02  3.283E+00   16.
  1.723E-02  3.661E+00   13.
  1.734E-02  4.373E+00   16.
  1.744E-02  2.922E+00   21.
  1.754E-02  2.860E+00   15.
  1.765E-02  3.372E+00   15.
  1.775E-02  4.124E+00   16.
  1.786E-02  3.054E+00   15.
  1.797E-02  3.109E+00   17.
  1.808E-02  3.106E+00   17.
  1.819E-02  2.743E+00   15.
  1.830E-02  2.694E+00   16.
  1.841E-02  2.781E+00   14.
  1.852E-02  3.389E+00   15.
  1.864E-02  2.298E+00   13.
  1.875E-02  2.599E+00   18.
  1.887E-02  2.263E+00   16.
  1.899E-02  2.315E+00   33.
  1.910E-02  3.322E+00   13.
  1.922E-02  3.309E+00   16.
  1.934E-02  3.754E+00   14.
  1.947E-02  3.591E+00   15.
  1.959E-02  2.954E+00   23.
  1.996E-02  2.955E+00   18.
  2.009E-02  2.840E+00   17.
  2.022E-02  2.855E+00   21.
  2.035E-02  3.376E+00   21.
  2.048E-02  3.982E+00   14.
  2.062E-02  4.233E+00   17.
  2.075E-02  4.797E+00   15.
  2.088E-02  3.973E+00   17.
  2.102E-02  3.327E+00   16.
  2.116E-02  3.251E+00   18.
  2.130E-02  3.895E+00   14.
  2.144E-02  2.757E+00   17.
  2.158E-02  1.950E+00   19.
  2.172E-02  2.276E+00   17.
  2.187E-02  2.174E+00   15.
  2.202E-02  2.633E+00   14.
  2.216E-02  2.584E+00   16.
  2.231E-02  3.048E+00   18.
  2.246E-02  3.036E+00   14.
  2.262E-02  3.026E+00   30.
  2.277E-02  3.062E+00   13.
  2.293E-02  4.619E+00   20.
  2.308E-02  3.598E+00   15.
  2.324E-02  3.770E+00   15.
  2.340E-02  3.198E+00   16.
  2.356E-02  3.033E+00   15.
  2.373E-02  3.335E+00   16.
  2.389E-02  4.120E+00   25.
  2.406E-02  4.938E+00   26.
  2.423E-02  4.516E+00   24.
  2.440E-02  3.825E+00   18.
  2.457E-02  3.334E+00   17.
  2.475E-02  3.813E+00   16.
  2.492E-02  2.914E+00   17.
  2.510E-02  3.453E+00   16.
  2.528E-02  3.371E+00   14.
  2.547E-02  3.528E+00   15.
  2.565E-02  3.563E+00   15.
  2.584E-02  3.464E+00   15.
  2.602E-02  3.597E+00   17.
  2.621E-02  2.611E+00   15.
  2.641E-02  2.682E+00   14.
  2.660E-02  2.956E+00   13.
  2.680E-02  2.448E+00   15.
  2.700E-02  2.888E+00   16.
  2.720E-02  2.785E+00   14.
  2.740E-02  2.455E+00   15.
  2.761E-02  2.344E+00   14.
  2.781E-02  2.232E+00   13.
  2.802E-02  2.186E+00   14.
  2.824E-02  2.409E+00   13.
  2.845E-02  2.628E+00   12.
  2.867E-02  2.489E+00   16.
  2.889E-02  2.255E+00   14.
  2.911E-02  2.250E+00   14.
  2.934E-02  2.853E+00   13.
  2.957E-02  3.160E+00   13.
  2.980E-02  2.583E+00   14.
  3.003E-02  2.561E+00   14.
  3.027E-02  2.892E+00   12.
  3.050E-02  2.928E+00   19.
  3.075E-02  2.521E+00   13.
  3.099E-02  2.442E+00   13.
  3.124E-02  2.081E+00   15.
  3.200E-02  3.273E+00   24.
  3.226E-02  2.708E+00   12.
  3.252E-02  2.467E+00   14.
  3.279E-02  3.164E+00   15.
  3.306E-02  2.934E+00   17.
  3.333E-02  3.195E+00   15.
  3.360E-02  2.928E+00   14.
  3.388E-02  2.806E+00   14.
  3.417E-02  2.524E+00   14.
  3.445E-02  2.264E+00   17.
  3.474E-02  2.308E+00   15.
  3.504E-02  2.607E+00   12.
  3.534E-02  2.278E+00   14.
  3.564E-02  2.491E+00   13.
  3.594E-02  2.631E+00   13.
  3.625E-02  2.734E+00   16.
  3.657E-02  2.693E+00   14.
  3.688E-02  2.768E+00   13.
  3.720E-02  2.761E+00   15.
  3.753E-02  2.910E+00   21.
  3.786E-02  2.866E+00   13.
  3.819E-02  2.800E+00   14.
  3.853E-02  2.894E+00   13.
  3.888E-02  2.670E+00   13.
  3.923E-02  2.972E+00   13.
  3.958E-02  2.735E+00   13.
  3.994E-02  2.508E+00   13.
  4.030E-02  2.808E+00   13.
  4.067E-02  2.520E+00   14.
  4.104E-02  2.778E+00   13.
  4.142E-02  2.633E+00   13.
  4.180E-02  1.998E+00   14.
  4.219E-02  3.200E+00   24.
  4.258E-02  3.191E+00   18.
  4.298E-02  3.009E+00   14.
  4.339E-02  2.506E+00   20.
  4.380E-02  2.849E+00   17.
  4.421E-02  3.145E+00   12.
  4.464E-02  2.714E+00   13.
  4.506E-02  2.674E+00   13.
  4.550E-02  2.357E+00   13.
  4.594E-02  2.194E+00   13.
  4.639E-02  2.310E+00   13.
  4.684E-02  2.565E+00   13.
  4.730E-02  2.538E+00   16.
  4.777E-02  2.235E+00   15.
  4.825E-02  2.469E+00   12.
  4.873E-02  2.615E+00   13.
  4.922E-02  2.210E+00   18.
  4.972E-02  1.980E+00   13.
  5.022E-02  2.077E+00   13.
  5.073E-02  2.259E+00   13.
  5.125E-02  2.315E+00   12.
  5.178E-02  2.375E+00   16.
  5.232E-02  2.075E+00   13.
  5.286E-02  2.117E+00   12.
  5.341E-02  1.997E+00   12.
  5.398E-02  2.015E+00   12.
  5.455E-02  2.242E+00   13.
  5.513E-02  1.989E+00   13.
  5.572E-02  1.868E+00   12.
  5.632E-02  1.869E+00   13.
  5.692E-02  2.074E+00   12.
  5.754E-02  2.232E+00   14.
  6.012E-02  2.116E+00   14.
  6.079E-02  2.063E+00   14.
  6.148E-02  2.123E+00   14.
  6.217E-02  2.163E+00   14.
  6.288E-02  2.343E+00   14.
  6.360E-02  2.685E+00   13.
  6.433E-02  2.659E+00   18.
  6.507E-02  2.399E+00   15.
  6.583E-02  2.418E+00   15.
  6.660E-02  2.296E+00   18.
  6.738E-02  2.329E+00   15.
  6.818E-02  1.875E+00   16.
  6.899E-02  2.547E+00   17.
  6.982E-02  2.668E+00   14.
  7.066E-02  2.200E+00   15.
  7.152E-02  2.826E+00   16.
  7.239E-02  2.809E+00   14.
  7.328E-02  2.634E+00   14.
  7.419E-02  2.639E+00   15.
  7.511E-02  2.637E+00   17.
  7.605E-02  2.810E+00   17.
  7.701E-02  2.207E+00   13.
  7.798E-02  2.225E+00   18.
  7.898E-02  2.392E+00   12.
  7.999E-02  2.328E+00   14.
  8.103E-02  2.410E+00   17.
  8.208E-02  2.786E+00   16.
  8.316E-02  2.522E+00   17.
  8.425E-02  2.634E+00   17.
  8.537E-02  2.837E+00   14.
  8.651E-02  2.719E+00   17.
  8.767E-02  2.974E+00   14.
  8.886E-02  2.403E+00   14.
  9.007E-02  2.582E+00   17.
  9.131E-02  2.434E+00   15.
  9.257E-02  2.638E+00   17.
  9.386E-02  2.737E+00   16.
  9.518E-02  2.371E+00   14.
  9.652E-02  2.042E+00   14.
  9.789E-02  2.034E+00   16.
  9.929E-02  2.177E+00   18.
  1.004E-01  1.991E+00   17.
  1.018E-01  1.933E+00   14.
  1.033E-01  1.973E+00   14.
  1.048E-01  1.948E+00   11.
  1.064E-01  2.094E+00   11.
  1.080E-01  1.861E+00   11.
  1.096E-01  2.021E+00   11.
  1.113E-01  2.057E+00   11.
  1.130E-01  2.025E+00   14.
  1.147E-01  2.199E+00   11.
  1.165E-01  2.389E+00   12.
  1.183E-01  2.164E+00   12.
  1.202E-01  2.319E+00   11.
  1.221E-01  1.974E+00   11.
  1.241E-01  1.964E+00   12.
  1.261E-01  1.644E+00   11.
  1.281E-01  2.123E+00   12.
  1.302E-01  2.118E+00   12.
  1.324E-01  2.149E+00   11.
  1.346E-01  2.021E+00   11.
  1.369E-01  1.997E+00   12.
  1.392E-01  2.129E+00   11.
  1.416E-01  2.137E+00   16.
  1.491E-01  2.222E+00   17.
  1.518E-01  1.837E+00   17.
  1.545E-01  2.182E+00   24.
  1.573E-01  2.089E+00   22.
  3.550E-01  1.502E+00   15.
  3.648E-01  1.729E+00   15.
  3.751E-01  1.723E+00   15.
  3.859E-01  1.750E+00   20.
  3.971E-01  1.751E+00   15.
  4.088E-01  1.603E+00   20.
  4.211E-01  1.553E+00   16.
  4.339E-01  1.522E+00   20.
  4.473E-01  1.601E+00   15.
  4.613E-01  1.492E+00   14.
  4.761E-01  1.541E+00   21.
  4.915E-01  1.301E+00   14.
  5.077E-01  1.317E+00   21.
  5.248E-01  1.396E+00   15.
  5.427E-01  1.495E+00   15.
  5.615E-01  1.314E+00   15.
  5.814E-01  1.413E+00   13.
  6.024E-01  1.229E+00   19.
  6.245E-01  1.383E+00   13.
  6.479E-01  1.456E+00   13.
  6.726E-01  1.535E+00   19.
  6.988E-01  1.325E+00   12.
  7.265E-01  1.344E+00   14.
  8.562E-01  1.506E+00   14.
  8.941E-01  1.562E+00   14.
  9.346E-01  1.653E+00   12.
  9.780E-01  1.688E+00   14.
ENDDATA           2556
ENDSUBENT         2563
SUBENT        12553003     841024
BIB                  5          8
REACTION  1(94-PU-241(N,0),,EN)
          2(94-PU-241(N,EL),,WID/RED,,RM/2G)
          3(94-PU-241(N,F),1,WID,,RM)
          4(94-PU-241(N,F),2,WID,,RM)
ANALYSIS   (MLA) MULTI-LEVEL ANALYSIS
ASSUMED    (ASSUM,94-PU-241(N,G),,WID,,RM)
FLAG       (1.)  WEAK  RESONANCES
HISTORY    (841024A) DATA SORTED.
ENDBIB               8
COMMON               2          3
MOMENTUM L ASSUM
NO-DIM     MILLI-EV
  0.        40.
ENDCOMMON            3
DATA                 5         56
DATA      1DATA      2DATA      3DATA      4FLAG
EV         MILLI-EV   MILLI-EV   MILLI-EV   NO-DIM
 14.73       1.6100                135.
 20.38       0.0300                 10.
 20.70       0.1700                 35.
 21.05       0.0130               -300.
 21.70       0.0000      150.                1.0
 21.85       0.0100                -20.
 22.50       0.0001                200.      1.0
 22.99       0.2450                280.
 23.66       0.1400      450.
 24.04       0.2600                -70.
 24.57       0.0130     -100.
 24.72       0.0040                250.
 25.64       0.0010      -50.                1.0
 26.32       1.0400                270.
 27.27       0.0010                750.      1.0
 27.34       0.0080      300.
 28.68       1.0600      750.
 29.59       0.0880      -50.
 30.05       0.0000                -20.
 30.91       0.4700                220.
 32.38       0.0030                 50.
 33.27       0.0440               -150.
 33.37       0.0100       50.
 33.65       0.0630               -100.
 34.15       0.0200                300.      1.0
 34.72       0.3400     -900.
 36.00       0.0340      500.
 36.65       0.0000      900.                1.0
 37.37       0.0370               -500.
 38.08       0.0900                230.
 38.40       0.0200                 10.      1.0
 38.50       0.0120      400.                1.0
 39.22       0.2500               -160.
 39.80       0.2600                 50.
 40.30       0.0010                -50.      1.0
 40.88       0.3800    -1200.
 42.16       0.0050       50.
 42.57       0.0530               -250.
 43.37       0.0340                 50.
 43.85       0.0000                 20.      1.0
 44.30       0.0070                  5.
 46.38       0.3100     -280.
 47.05       0.0200      300.
 47.95       1.0500                480.
 50.14       0.0900      300.
 50.90       0.0050     -300.                1.0
 51.90       0.0050       50.
 52.60       0.0010     -200.                1.0
 53.40       0.0000                300.      1.0
 54.15       0.0030                500.
 55.40       0.0026      300.
 58.02       0.3200     -700.
 59.18       0.2900      550.
 60.26       0.7200               -160.
 61.30       0.0100       50.                1.0
 62.08       0.8600     -650.
ENDDATA             58
ENDSUBENT           75
ENDENTRY             3
