ENTRY            10303   20020823   20020925
SUBENT        10303001   20020823   20020925
BIB                  8         17
INSTITUTE  (1USAIRT)
REFERENCE  (C,75WASH,1,232,197503)
           (R,INTEL-RT-7011-001,197402)
AUTHOR     (S.J.Friesenhahn,V.J.Orphan,A.D.Carlson,M.P.Fricke,
            W.M.Lopez)
TITLE      Measurements of the 6Li and 10B Partial Cross Sections
            from 1 to 1500 keV.
FACILITY   (LINAC) Electron linear accelerator
METHOD     (TOF) Time-of-flight. 230-m flight path.
STATUS     (APRVD) Approved by A.Carlson, 5 August 1985.
HISTORY    (19730129C)
           (19740302A) Data superseded. Reference changed.
           (19770201U) BIB corrections.
           (19830118A) Converted to REACTION formalism
           (19841205A) BIB correction.
           (19850625A) Data in SAN 007 normalized.
           (20020823A) Updated to new date formats, lower case.
ENDBIB              17
NOCOMMON             0          0
ENDSUBENT           20
SUBENT        10303002   20020823   20020925
BIB                  2          2
REACTION   (5-B-10(N,A)3-LI-7,,SIG)
STATUS     (SPSDD,10303004)
ENDBIB               2
NOCOMMON             0          0
NODATA               0          0
ENDSUBENT            6
SUBENT        10303003   20020823   20020925
BIB                  2          2
REACTION   (5-B-10(N,A)3-LI-7,PAR,SIG,G)
STATUS     (SPSDD,10303008)
ENDBIB               2
COMMON               1          3
E
KEV
 478.0
ENDCOMMON            3
NODATA               0          0
ENDSUBENT           10
SUBENT        10303004   20020823   20020925
BIB                  6         10
REACTION   (5-B-10(N,A)3-LI-7,,SIG)
DETECTOR   (IOCH) 10B ionization chamber.
           (PROPC) CH4 proportional counter for flux measurement.
MONITOR    (1-H-1(N,EL)1-H-1,,SIG)
            Normalized to 611.1 b*rt-eV at 3.5-4.5 keV.
ERR-ANALYS (ERR-S) Statistical error.
           (ERR-1) Systematic error.
STATUS     Data taken from private comm., S.Friesenhahn, January
            1975.
HISTORY    (19840824A) EN heading changed to EN-MIN and EN-MAX
ENDBIB              10
NOCOMMON             0          0
DATA                 5        152
EN-MIN     EN-MAX     DATA       ERR-S      ERR-1
EV         EV         B          B          PER-CENT
 2.3500E+03 2.4432E+03 1.2311E+01 4.9837E-01 4.2
 2.4432E+03 2.5243E+03 1.1729E+01 4.8146E-01
 2.5243E+03 2.6095E+03 1.2413E+01 4.8635E-01
 2.6095E+03 2.6991E+03 1.1807E+01 4.6921E-01
 2.6991E+03 2.7933E+03 1.1865E+01 4.6339E-01
 2.7933E+03 2.8926E+03 1.1855E+01 4.5650E-01
 2.8926E+03 2.9820E+03 1.1230E+01 4.7543E-01
 2.9820E+03 3.0756E+03 1.2286E+01 4.8795E-01
 3.0756E+03 3.1737E+03 9.6720E+00 4.3491E-01
 3.1737E+03 3.2765E+03 1.1105E+01 4.5481E-01
 3.2765E+03 3.3845E+03 1.0520E+01 4.3835E-01
 3.3845E+03 3.4978E+03 1.0730E+01 4.3590E-01
 3.4978E+03 3.6169E+03 1.0626E+01 4.2879E-01
 3.6169E+03 3.7423E+03 9.5725E+00 4.0527E-01
 3.7423E+03 3.8742E+03 9.8060E+00 4.0424E-01
 3.8742E+03 4.0133E+03 9.8085E+00 3.9922E-01
 4.0133E+03 4.1599E+03 9.2071E+00 3.8377E-01
 4.1599E+03 4.2884E+03 9.3700E+00 4.1888E-01
 4.2884E+03 4.4229E+03 9.6645E+00 4.1992E-01
 4.4229E+03 4.5638E+03 9.2185E+00 4.0734E-01
 4.5638E+03 4.7116E+03 8.6029E+00 3.9147E-01
 4.7116E+03 4.8667E+03 8.3423E+00 3.8222E-01
 4.8667E+03 5.0296E+03 8.6981E+00 3.8419E-01
 5.0296E+03 5.2007E+03 8.3143E+00 3.7225E-01
 5.2007E+03 5.3808E+03 8.3023E+00 3.6713E-01
 5.3808E+03 5.5704E+03 8.1980E+00 3.6050E-01
 5.5704E+03 5.7702E+03 7.5977E+00 3.4523E-01
 5.7702E+03 5.9809E+03 8.2808E+00 3.5376E-01
 5.9809E+03 6.2034E+03 8.5424E+00 3.5409E-01
 6.2034E+03 6.4385E+03 7.0247E+00 3.2248E-01
 6.4385E+03 6.6364E+03 7.2244E+00 3.6068E-01
 6.6364E+03 6.8435E+03 7.7847E+00 3.6824E-01
 6.8435E+03 7.0605E+03 7.4682E+00 3.5803E-01
 7.0605E+03 7.2879E+03 6.8110E+00 3.4096E-01
 7.2879E+03 7.5266E+03 7.0083E+00 3.4116E-01
 7.5266E+03 7.7771E+03 6.9470E+00 3.3628E-01
 7.7771E+03 8.0404E+03 7.2534E+00 3.3905E-01
 8.0404E+03 8.3173E+03 6.2445E+00 3.1563E-01
 8.3173E+03 8.6087E+03 6.8743E+00 3.2454E-01
 8.6087E+03 8.9157E+03 6.4094E+00 3.1187E-01
 8.9157E+03 9.2394E+03 6.3083E+00 3.0735E-01
 9.2394E+03 9.5811E+03 6.4315E+00 3.0664E-01
 9.5811E+03 9.9421E+03 6.5219E+00 3.0523E-01
 9.9421E+03 1.0324E+04 5.5873E+00 2.8410E-01 2.8
 1.0324E+04 1.0728E+04 5.3313E+00 2.7615E-01
 1.0728E+04 1.1157E+04 5.2870E+00 2.7158E-01
 1.1157E+04 1.1611E+04 5.7019E+00 2.7569E-01
 1.1611E+04 1.1971E+04 5.5044E+00 3.1024E-01
 1.1971E+04 1.2347E+04 5.1252E+00 2.9874E-01
 1.2347E+04 1.2741E+04 5.2947E+00 2.9942E-01
 1.2741E+04 1.3155E+04 5.4325E+00 2.9891E-01
 1.3155E+04 1.3589E+04 4.8244E+00 2.8199E-01
 1.3589E+04 1.4045E+04 5.1179E+00 2.8495E-01
 1.4045E+04 1.4525E+04 4.3718E+00 2.6569E-01
 1.4525E+04 1.5029E+04 4.8023E+00 2.7305E-01
 1.5029E+04 1.5560E+04 4.6196E+00 2.6650E-01
 1.5560E+04 1.6119E+04 5.2853E+00 2.7774E-01
 1.6119E+04 1.6710E+04 4.1339E+00 2.5060E-01
 1.6710E+04 1.7333E+04 4.6931E+00 2.6053E-01
 1.7333E+04 1.7992E+04 4.0206E+00 2.4316E-01
 1.7992E+04 1.8690E+04 4.0837E+00 2.4156E-01
 1.8690E+04 1.9428E+04 4.6421E+00 2.4987E-01
 1.9428E+04 2.0211E+04 4.0772E+00 2.3511E-01
 2.0211E+04 2.1043E+04 4.1029E+00 2.3159E-01
 2.1043E+04 2.1927E+04 3.6230E+00 2.1755E-01
 2.1927E+04 2.2868E+04 3.9734E+00 2.2080E-01
 2.2868E+04 2.3871E+04 4.3389E+00 2.2524E-01
 2.3871E+04 2.4941E+04 3.7769E+00 2.1063E-01
 2.4941E+04 2.6085E+04 3.8831E+00 2.0896E-01
 2.6085E+04 2.6892E+04 3.5819E+00 2.4523E-01
 2.6892E+04 2.7737E+04 3.4205E+00 2.3881E-01
 2.7737E+04 2.8622E+04 3.6276E+00 2.4075E-01
 2.8622E+04 2.9551E+04 3.8055E+00 2.4188E-01
 2.9551E+04 3.0525E+04 3.1889E+00 2.2436E-01
 3.0525E+04 3.1548E+04 3.1228E+00 2.1988E-01
 3.1548E+04 3.2624E+04 3.4579E+00 2.2406E-01
 3.2624E+04 3.3756E+04 3.5588E+00 2.2238E-01
 3.3756E+04 3.4947E+04 3.5256E+00 2.1745E-01
 3.4947E+04 3.6203E+04 3.2233E+00 2.0637E-01
 3.6203E+04 3.7528E+04 3.2939E+00 2.0439E-01
 3.7528E+04 3.8927E+04 3.2409E+00 2.0019E-01
 3.8927E+04 4.0405E+04 3.2276E+00 2.0477E-01
 4.0405E+04 4.1970E+04 2.8466E+00 1.8674E-01
 4.1970E+04 4.3627E+04 2.8681E+00 1.8527E-01
 4.3627E+04 4.5384E+04 2.8156E+00 1.7768E-01
 4.5384E+04 4.7249E+04 3.0247E+00 1.8167E-01
 4.7249E+04 4.9232E+04 2.8818E+00 1.7590E-01 3.8
 4.9232E+04 5.1342E+04 2.6201E+00 1.6248E-01
 5.1342E+04 5.3591E+04 2.6525E+00 1.5905E-01
 5.3591E+04 5.5991E+04 2.6481E+00 1.5728E-01
 5.5991E+04 5.8556E+04 2.8612E+00 1.5588E-01
 5.8556E+04 6.1302E+04 2.7585E+00 1.4982E-01
 6.1302E+04 6.4245E+04 2.3449E+00 1.3824E-01
 6.4245E+04 6.7405E+04 2.5875E+00 1.3769E-01
 6.7405E+04 7.0804E+04 2.7157E+00 1.3833E-01
 7.0804E+04 7.4468E+04 2.4496E+00 1.2942E-01
 7.4468E+04 7.8422E+04 2.2324E+00 1.1575E-01
 7.8422E+04 8.2701E+04 2.6520E+00 1.2486E-01
 8.2701E+04 8.7339E+04 2.5579E+00 1.2034E-01
 8.7339E+04 9.2379E+04 2.1915E+00 1.0846E-01
 9.2379E+04 9.7868E+04 2.2288E+00 1.0433E-01
 9.7868E+04 1.0386E+05 2.3718E+00 1.0363E-01 3.3
 1.0386E+05 1.0707E+05 2.2371E+00 1.3577E-01
 1.0707E+05 1.1042E+05 2.1660E+00 1.3014E-01
 1.1042E+05 1.1394E+05 2.2000E+00 1.2739E-01
 1.1394E+05 1.1763E+05 1.9235E+00 1.1844E-01
 1.1763E+05 1.2149E+05 2.3752E+00 1.3017E-01
 1.2149E+05 1.2556E+05 2.1695E+00 1.1889E-01
 1.2556E+05 1.2983E+05 2.3337E+00 1.1939E-01
 1.2983E+05 1.3432E+05 1.7762E+00 1.0302E-01
 1.3432E+05 1.3905E+05 1.6917E+00 9.9706E-02
 1.3905E+05 1.4403E+05 1.8649E+00 1.0347E-01
 1.4403E+05 1.4929E+05 2.0328E+00 1.0464E-01
 1.4929E+05 1.5483E+05 1.7384E+00 9.3485E-02
 1.5483E+05 1.6070E+05 1.7107E+00 8.9010E-02
 1.6070E+05 1.6690E+05 1.8375E+00 8.8967E-02
 1.6690E+05 1.7347E+05 1.7032E+00 8.3747E-02
 1.7347E+05 1.8044E+05 1.7417E+00 8.0310E-02
 1.8044E+05 1.8783E+05 1.6850E+00 7.9131E-02
 1.8783E+05 1.9569E+05 1.5802E+00 7.4080E-02
 1.9569E+05 2.0405E+05 1.5846E+00 7.1206E-02
 2.0405E+05 2.1296E+05 1.4279E+00 6.5298E-02
 2.1296E+05 2.2246E+05 1.4768E+00 6.4071E-02
 2.2246E+05 2.3262E+05 1.3536E+00 5.9608E-02
 2.3262E+05 2.4349E+05 1.3391E+00 5.7047E-02
 2.4349E+05 2.5513E+05 1.2779E+00 5.4269E-02
 2.5513E+05 2.6764E+05 1.2487E+00 5.1409E-02
 2.6764E+05 2.8108E+05 1.1657E+00 4.8719E-02
 2.8108E+05 2.9557E+05 1.2454E+00 4.8224E-02
 2.9557E+05 3.1120E+05 1.1360E+00 4.4234E-02
 3.1120E+05 3.2811E+05 9.9592E-01 4.0038E-02
 3.2811E+05 3.4643E+05 1.0774E+00 3.9646E-02
 3.4643E+05 3.6633E+05 9.5000E-01 3.5696E-02
 3.6633E+05 3.8800E+05 9.7990E-01 3.5409E-02
 3.8800E+05 4.1165E+05 1.0199E+00 3.6259E-02
 4.1165E+05 4.3753E+05 1.0425E+00 3.8598E-02
 4.3753E+05 4.6593E+05 9.2016E-01 3.1708E-02
 4.6593E+05 4.9719E+05 9.5371E-01 3.0260E-02
 4.9719E+05 5.3170E+05 9.1499E-01 2.8759E-02
 5.3170E+05 5.6994E+05 7.8505E-01 2.5347E-02
 5.6994E+05 6.1245E+05 6.5027E-01 2.1832E-02
 6.1245E+05 6.5990E+05 5.7583E-01 2.0365E-02
 6.5990E+05 7.1308E+05 4.5439E-01 1.7476E-02
 7.1308E+05 7.7297E+05 3.8158E-01 1.6032E-02
 7.7297E+05 8.4073E+05 3.4589E-01 1.5086E-02
 8.4073E+05 9.1780E+05 3.1221E-01 1.4378E-02
 9.1780E+05 1.0060E+06 2.9852E-01 1.4877E-02 3.4
 1.0060E+06 1.1075E+06 2.4213E-01 1.3026E-02
 1.1075E+06 1.2252E+06 2.6427E-01 1.3594E-02
 1.2252E+06 1.3628E+06 2.9653E-01 1.4903E-02
 1.3628E+06 1.5248E+06 3.8532E-01 1.7490E-02 3.6
 1.5248E+06 1.7176E+06 6.5540E-01 2.6074E-02
ENDDATA            154
ENDSUBENT          169
SUBENT        10303005   20020823   20020925
BIB                  6         11
REACTION   (3-LI-6(N,T)2-HE-4,,SIG)
DETECTOR   (IOCH) 6Li ionization chamber
           (PROPC) CH4 proportional counter for flux measurement.
MONITOR    (1-H-1(N,EL)1-H-1,,SIG)
            Normalized to 148.9 b*rt-eV at 3.5-4.5 keV.
ERR-ANALYS (ERR-S) Statistical error.
           (ERR-1) Systematic error.
STATUS     Data taken from private comm., S.Friesenhahn, January
            1975.
HISTORY    (19840824A) EN heading changed to EN-MIN and EN-MAX
           (19850625A) BIB correction
ENDBIB              11
NOCOMMON             0          0
DATA                 5        152
EN-MIN     EN-MAX     DATA       ERR-S      ERR-1
EV         EV         B          B          PER-CENT
 2.3500E+03 2.4326E+03 3.2432E+00 9.5087E-02 4.2
 2.4326E+03 2.5133E+03 3.1120E+00 9.2169E-02
 2.5133E+03 2.5981E+03 3.1452E+00 9.1252E-02
 2.5981E+03 2.6873E+03 2.9493E+00 8.7611E-02
 2.6873E+03 2.7812E+03 2.9938E+00 8.6849E-02
 2.7812E+03 2.8800E+03 2.8847E+00 8.4241E-02
 2.8800E+03 2.9690E+03 2.8497E+00 8.9318E-02
 2.9690E+03 3.0622E+03 2.9019E+00 8.8876E-02
 3.0622E+03 3.1599E+03 2.6300E+00 8.4187E-02
 3.1599E+03 3.2623E+03 2.6480E+00 8.3266E-02
 3.2623E+03 3.3697E+03 2.6982E+00 8.2732E-02
 3.3697E+03 3.4826E+03 2.6665E+00 8.1167E-02
 3.4826E+03 3.6012E+03 2.5061E+00 7.8148E-02
 3.6012E+03 3.7260E+03 2.5323E+00 7.7544E-02
 3.7260E+03 3.8573E+03 2.4199E+00 7.5145E-02
 3.8573E+03 3.9958E+03 2.5087E+00 7.5283E-02
 3.9958E+03 4.1418E+03 2.3273E+00 7.2076E-02
 4.1418E+03 4.2697E+03 2.3568E+00 7.8571E-02
 4.2697E+03 4.4037E+03 2.0395E+00 7.3340E-02
 4.4037E+03 4.5440E+03 2.1972E+00 7.4743E-02
 4.5440E+03 4.6911E+03 2.2022E+00 7.3989E-02
 4.6911E+03 4.8455E+03 2.1014E+00 7.1792E-02
 4.8455E+03 5.0077E+03 2.0882E+00 7.0778E-02
 5.0077E+03 5.1781E+03 2.1746E+00 7.0993E-02
 5.1781E+03 5.3574E+03 2.0523E+00 6.8426E-02
 5.3574E+03 5.5462E+03 2.0108E+00 6.6976E-02
 5.5462E+03 5.7451E+03 2.0691E+00 6.6960E-02
 5.7451E+03 5.9549E+03 1.9736E+00 6.4993E-02
 5.9549E+03 6.1764E+03 1.8444E+00 6.2494E-02
 6.1764E+03 6.4105E+03 1.8475E+00 6.1743E-02
 6.4105E+03 6.6075E+03 1.8214E+00 6.7872E-02
 6.6075E+03 6.8138E+03 1.8285E+00 6.7349E-02
 6.8138E+03 7.0298E+03 1.7318E+00 6.5184E-02
 7.0298E+03 7.2563E+03 1.7111E+00 6.4156E-02
 7.2563E+03 7.4939E+03 1.6520E+00 6.2561E-02
 7.4939E+03 7.7434E+03 1.6727E+00 6.2216E-02
 7.7434E+03 8.0055E+03 1.6088E+00 6.0712E-02
 8.0055E+03 8.2812E+03 1.6418E+00 6.0542E-02
 8.2812E+03 8.5713E+03 1.7495E+00 6.1366E-02
 8.5713E+03 8.8770E+03 1.6027E+00 5.8615E-02
 8.8770E+03 9.1994E+03 1.5601E+00 5.7611E-02
 9.1994E+03 9.5396E+03 1.5533E+00 5.7015E-02
 9.5396E+03 9.8990E+03 1.3275E+00 5.3222E-02
 9.8990E+03 1.0279E+04 1.4089E+00 5.3813E-02 2.8
 1.0279E+04 1.0682E+04 1.5607E+00 5.5355E-02
 1.0682E+04 1.1108E+04 1.3541E+00 5.1850E-02
 1.1108E+04 1.1561E+04 1.3560E+00 5.1113E-02
 1.1561E+04 1.1919E+04 1.3043E+00 5.7475E-02
 1.1919E+04 1.2294E+04 1.3330E+00 5.7358E-02
 1.2294E+04 1.2686E+04 1.2540E+00 5.5570E-02
 1.2686E+04 1.3098E+04 1.3837E+00 5.6919E-02
 1.3098E+04 1.3531E+04 1.2966E+00 5.4866E-02
 1.3531E+04 1.3985E+04 1.2185E+00 5.2965E-02
 1.3985E+04 1.4462E+04 1.2803E+00 5.3371E-02
 1.4462E+04 1.4964E+04 1.2313E+00 5.2331E-02
 1.4964E+04 1.5493E+04 1.1333E+00 5.0311E-02
 1.5493E+04 1.6050E+04 1.1116E+00 4.9453E-02
 1.6050E+04 1.6638E+04 1.1558E+00 4.9602E-02
 1.6638E+04 1.7258E+04 1.1578E+00 4.9405E-02
 1.7258E+04 1.7915E+04 1.1652E+00 4.8875E-02
 1.7915E+04 1.8609E+04 1.1088E+00 4.7448E-02
 1.8609E+04 1.9344E+04 1.1136E+00 4.6879E-02
 1.9344E+04 2.0124E+04 1.1051E+00 4.6150E-02
 2.0124E+04 2.0952E+04 1.1202E+00 4.5600E-02
 2.0952E+04 2.1833E+04 1.0407E+00 4.3656E-02
 2.1833E+04 2.2770E+04 1.0198E+00 4.2548E-02
 2.2770E+04 2.3768E+04 1.0456E+00 4.2535E-02
 2.3768E+04 2.4834E+04 1.0088E+00 4.1313E-02
 2.4834E+04 2.5973E+04 9.9750E-01 4.0394E-02
 2.5973E+04 2.6777E+04 9.6258E-01 4.8268E-02
 2.6777E+04 2.7618E+04 9.1992E-01 4.7107E-02
 2.7618E+04 2.8499E+04 8.4296E-01 4.5203E-02
 2.8499E+04 2.9424E+04 8.4696E-01 4.4680E-02
 2.9424E+04 3.0394E+04 8.8812E-01 4.4740E-02
 3.0394E+04 3.1413E+04 8.3084E-01 4.3251E-02
 3.1413E+04 3.2484E+04 8.4432E-01 4.2771E-02
 3.2484E+04 3.3611E+04 8.9097E-01 4.2731E-02
 3.3611E+04 3.4798E+04 7.8062E-01 4.0127E-02
 3.4798E+04 3.6048E+04 7.0116E-01 3.7966E-02
 3.6048E+04 3.7368E+04 7.6868E-01 3.8484E-02
 3.7368E+04 3.8760E+04 7.3844E-01 3.7497E-02
 3.8760E+04 4.0233E+04 8.3054E-01 4.1380E-02
 4.0233E+04 4.1790E+04 8.3158E-01 3.9244E-02
 4.1790E+04 4.3441E+04 7.5024E-01 3.7227E-02
 4.3441E+04 4.5190E+04 7.4768E-01 3.5905E-02
 4.5190E+04 4.7048E+04 7.0918E-01 3.4945E-02
 4.7048E+04 4.9022E+04 7.7480E-01 3.6030E-02 3.8
 4.9022E+04 5.1124E+04 6.8036E-01 3.2855E-02
 5.1124E+04 5.3364E+04 7.1083E-01 3.2478E-02
 5.3364E+04 5.5754E+04 7.3751E-01 3.2679E-02
 5.5754E+04 5.8308E+04 6.9751E-01 3.0639E-02
 5.8308E+04 6.1042E+04 6.7551E-01 2.9322E-02
 6.1042E+04 6.3973E+04 7.6370E-01 3.0727E-02
 6.3973E+04 6.7120E+04 6.9789E-01 2.8159E-02
 6.7120E+04 7.0505E+04 7.1101E-01 2.7937E-02
 7.0505E+04 7.4153E+04 6.8979E-01 2.6991E-02
 7.4153E+04 7.8091E+04 6.5450E-01 2.4627E-02
 7.8091E+04 8.2352E+04 7.1457E-01 2.5554E-02
 8.2352E+04 8.6972E+04 7.0490E-01 2.4968E-02
 8.6972E+04 9.1991E+04 7.2238E-01 2.4524E-02
 9.1991E+04 9.7457E+04 7.6157E-01 2.3956E-02
 9.7457E+04 1.0343E+05 7.3861E-01 2.2780E-02 3.3
 1.0343E+05 1.0662E+05 7.0496E-01 2.9635E-02
 1.0662E+05 1.0996E+05 7.7892E-01 3.0262E-02
 1.0996E+05 1.1346E+05 7.1827E-01 2.8241E-02
 1.1346E+05 1.1713E+05 7.4535E-01 2.8374E-02
 1.1713E+05 1.2099E+05 8.2386E-01 2.9822E-02
 1.2099E+05 1.2503E+05 8.1050E-01 2.8333E-02
 1.2503E+05 1.2929E+05 8.1535E-01 2.7501E-02
 1.2929E+05 1.3376E+05 8.2929E-01 2.7222E-02
 1.3376E+05 1.3847E+05 9.0279E-01 2.8285E-02
 1.3847E+05 1.4343E+05 9.5856E-01 2.9146E-02
 1.4343E+05 1.4867E+05 1.0152E+00 2.9408E-02
 1.4867E+05 1.5419E+05 1.0587E+00 2.9106E-02
 1.5419E+05 1.6003E+05 1.1491E+00 2.9478E-02
 1.6003E+05 1.6621E+05 1.2244E+00 2.9703E-02
 1.6621E+05 1.7275E+05 1.3775E+00 3.1319E-02
 1.7275E+05 1.7969E+05 1.4733E+00 3.1212E-02
 1.7969E+05 1.8706E+05 1.7656E+00 3.5456E-02
 1.8706E+05 1.9488E+05 1.9039E+00 3.6267E-02
 1.9488E+05 2.0321E+05 2.1567E+00 3.8403E-02
 2.0321E+05 2.1208E+05 2.5193E+00 4.1865E-02
 2.1208E+05 2.2155E+05 2.9796E+00 4.6301E-02
 2.2155E+05 2.3167E+05 3.3493E+00 4.9640E-02
 2.3167E+05 2.4249E+05 3.6828E+00 5.1803E-02
 2.4249E+05 2.5409E+05 3.7662E+00 5.1866E-02
 2.5409E+05 2.6655E+05 3.5511E+00 4.7631E-02
 2.6655E+05 2.7994E+05 3.1760E+00 4.3230E-02
 2.7994E+05 2.9437E+05 2.4870E+00 3.4171E-02
 2.9437E+05 3.0994E+05 1.9262E+00 2.7286E-02
 3.0994E+05 3.2678E+05 1.5107E+00 2.2198E-02
 3.2678E+05 3.4504E+05 1.1753E+00 1.7894E-02
 3.4504E+05 3.6486E+05 9.9552E-01 1.5539E-02
 3.6486E+05 3.8645E+05 8.6457E-01 1.3965E-02
 3.8645E+05 4.1001E+05 7.6741E-01 1.3108E-02
 4.1001E+05 4.3579E+05 6.8604E-01 1.4340E-02
 4.3579E+05 4.6408E+05 5.3508E-01 1.0679E-02
 4.6408E+05 4.9522E+05 4.8830E-01 9.3336E-03 3.9
 4.9522E+05 5.2961E+05 4.4588E-01 8.5418E-03
 5.2961E+05 5.6770E+05 4.2159E-01 7.9059E-03
 5.6770E+05 6.1005E+05 3.9548E-01 7.2160E-03
 6.1005E+05 6.5733E+05 3.7859E-01 6.9530E-03
 6.5733E+05 7.1033E+05 3.4197E-01 6.2590E-03
 7.1033E+05 7.7000E+05 3.1727E-01 6.0110E-03
 7.7000E+05 8.3752E+05 3.0427E-01 5.8657E-03
 8.3752E+05 9.1432E+05 2.9066E-01 5.7958E-03
 9.1432E+05 1.0022E+06 3.0839E-01 6.5116E-03 7.5
 1.0022E+06 1.1034E+06 2.7039E-01 5.9855E-03
 1.1034E+06 1.2207E+06 2.5797E-01 6.0532E-03
 1.2207E+06 1.3578E+06 2.7360E-01 6.9334E-03
 1.3578E+06 1.5193E+06 2.8684E-01 7.6676E-03 9.2
 1.5193E+06 1.7114E+06 2.6891E-01 7.6185E-03
ENDDATA            154
ENDSUBENT          170
SUBENT        10303006   20020823   20020925
BIB                  6         11
REACTION   ((3-LI-6(N,T)2-HE-4,,SIG)/(5-B-10(N,A)3-LI-7,,SIG))
DETECTOR   (IOCH) 6Li and 10B ionization chambers.
           (PROPC) CH4 proportional counter.
MONITOR    (1-H-1(N,EL)1-H-1,,SIG)
            Ratio normalized to 0.2436 at 3.5-4.5 keV.
ERR-ANALYS (ERR-S) Statistical error.
           (ERR-1) Systematic error.
STATUS     Data taken from private comm., S.Friesenhahn, January
            1975.
HISTORY    (19840824A) EN heading changed to EN-MIN and EN-MAX
           (19850625A) BIB correction
ENDBIB              11
NOCOMMON             0          0
DATA                 5        179
EN-MIN     EN-MAX     DATA       ERR-S      ERR-1
EV         EV         NO-DIM     NO-DIM     PER-CENT
 1.0300E+03 1.0333E+03 2.4635E-01 1.0092E-02
 1.0333E+03 1.0651E+03 2.4817E-01 1.1044E-02
 1.0651E+03 1.0985E+03 2.4131E-01 1.0646E-02
 1.0985E+03 1.1335E+03 2.4427E-01 1.0785E-02
 1.1335E+03 1.1701E+03 2.6491E-01 1.1548E-02
 1.1701E+03 1.2086E+03 2.4512E-01 1.1043E-02
 1.2086E+03 1.2490E+03 2.6099E-01 1.1561E-02
 1.2490E+03 1.2871E+03 2.4277E-01 1.1420E-02
 1.2871E+03 1.3270E+03 2.4896E-01 1.1291E-02
 1.3270E+03 1.3688E+03 2.5240E-01 1.1613E-02
 1.3688E+03 1.4126E+03 2.5686E-01 1.1742E-02
 1.4126E+03 1.4585E+03 2.3417E-01 1.0741E-02
 1.4585E+03 1.5067E+03 2.3508E-01 1.0902E-02
 1.5067E+03 1.5573E+03 2.7500E-01 1.2727E-02
 1.5573E+03 1.6105E+03 2.3524E-01 1.0694E-02
 1.6105E+03 1.6601E+03 2.5100E-01 1.2105E-02
 1.6601E+03 1.7120E+03 2.4430E-01 1.1607E-02
 1.7120E+03 1.7665E+03 2.4539E-01 1.1631E-02
 1.7665E+03 1.8235E+03 2.3778E-01 1.1039E-02
 1.8235E+03 1.8834E+03 2.3911E-01 1.0998E-02
 1.8834E+03 1.9463E+03 2.5862E-01 1.1951E-02
 1.9463E+03 2.0123E+03 2.5407E-01 1.1820E-02
 2.0123E+03 2.0818E+03 2.4793E-01 1.1704E-02
 2.0818E+03 2.1456E+03 2.6680E-01 1.3476E-02
 2.1456E+03 2.2124E+03 2.7280E-01 1.3802E-02
 2.2124E+03 2.2823E+03 2.5701E-01 1.3026E-02
 2.2823E+03 2.3557E+03 2.5637E-01 1.2926E-02
 2.3557E+03 2.4326E+03 2.6247E-01 1.3119E-02
 2.4326E+03 2.5133E+03 2.6319E-01 1.3322E-02
 2.5133E+03 2.5981E+03 2.5510E-01 1.2437E-02
 2.5981E+03 2.6873E+03 2.4779E-01 1.2294E-02
 2.6873E+03 2.7812E+03 2.5214E-01 1.2267E-02
 2.7812E+03 2.8800E+03 2.4303E-01 1.1745E-02
 2.8800E+03 2.9690E+03 2.5155E-01 1.3251E-02
 2.9690E+03 3.0622E+03 2.3914E-01 1.1994E-02
 3.0622E+03 3.1599E+03 2.6322E-01 1.4529E-02
 3.1599E+03 3.2623E+03 2.4314E-01 1.2554E-02
 3.2623E+03 3.3697E+03 2.5426E-01 1.3154E-02
 3.3697E+03 3.4826E+03 2.4884E-01 1.2632E-02
 3.4826E+03 3.6012E+03 2.3522E-01 1.1995E-02
 3.6012E+03 3.7260E+03 2.6068E-01 1.3621E-02
 3.7260E+03 3.8573E+03 2.4722E-01 1.2759E-02
 3.8573E+03 3.9958E+03 2.5543E-01 1.2917E-02
 3.9958E+03 4.1418E+03 2.5050E-01 1.3008E-02
 4.1418E+03 4.2697E+03 2.5177E-01 1.4041E-02
 4.2697E+03 4.4037E+03 2.1174E-01 1.1942E-02
 4.4037E+03 4.5440E+03 2.3641E-01 1.3184E-02
 4.5440E+03 4.6911E+03 2.5319E-01 1.4321E-02
 4.6911E+03 4.8455E+03 2.5053E-01 1.4318E-02
 4.8455E+03 5.0077E+03 2.4115E-01 1.3426E-02
 5.0077E+03 5.1781E+03 2.5964E-01 1.4387E-02
 5.1781E+03 5.3574E+03 2.4684E-01 1.3670E-02
 5.3574E+03 5.5462E+03 2.4452E-01 1.3489E-02
 5.5462E+03 5.7451E+03 2.6943E-01 1.5030E-02
 5.7451E+03 5.9549E+03 2.4071E-01 1.2984E-02
 5.9549E+03 6.1764E+03 2.1645E-01 1.1588E-02
 6.1764E+03 6.4105E+03 2.5693E-01 1.4589E-02
 6.4105E+03 6.6075E+03 2.5275E-01 1.5746E-02
 6.6075E+03 6.8138E+03 2.3723E-01 1.4222E-02
 6.8138E+03 7.0298E+03 2.3023E-01 1.4033E-02
 7.0298E+03 7.2563E+03 2.4772E-01 1.5494E-02
 7.2563E+03 7.4939E+03 2.3637E-01 1.4578E-02
 7.4939E+03 7.7434E+03 2.4015E-01 1.4660E-02
 7.7434E+03 8.0055E+03 2.2283E-01 1.3387E-02
 8.0055E+03 8.2812E+03 2.5767E-01 1.6121E-02
 8.2812E+03 8.5713E+03 2.5751E-01 1.5146E-02
 8.5713E+03 8.8770E+03 2.4753E-01 1.5067E-02
 8.8770E+03 9.1994E+03 2.4651E-01 1.5070E-02
 9.1994E+03 9.5396E+03 2.4175E-01 1.4546E-02
 9.5396E+03 9.8990E+03 2.0363E-01 1.2548E-02
 9.8990E+03 1.0279E+04 2.4749E-01 1.5739E-02
 1.0279E+04 1.0682E+04 2.9074E-01 1.8252E-02
 1.0682E+04 1.1108E+04 2.5553E-01 1.6371E-02
 1.1108E+04 1.1561E+04 2.3967E-01 1.4694E-02
 1.1561E+04 1.1919E+04 2.3558E-01 1.6854E-02
 1.1919E+04 1.2294E+04 2.5715E-01 1.8630E-02
 1.2294E+04 1.2686E+04 2.3761E-01 1.7072E-02
 1.2686E+04 1.3098E+04 2.5528E-01 1.7538E-02
 1.3098E+04 1.3531E+04 2.6425E-01 1.9068E-02
 1.3531E+04 1.3985E+04 2.3973E-01 1.6933E-02
 1.3985E+04 1.4462E+04 2.8675E-01 2.1132E-02
 1.4462E+04 1.4964E+04 2.5937E-01 1.8412E-02
 1.4964E+04 1.5493E+04 2.4376E-01 1.7744E-02
 1.5493E+04 1.6050E+04 2.1392E-01 1.4729E-02
 1.6050E+04 1.6638E+04 2.7155E-01 2.0169E-02
 1.6638E+04 1.7258E+04 2.5047E-01 1.7538E-02
 1.7258E+04 1.7915E+04 2.8442E-01 2.0934E-02
 1.7915E+04 1.8609E+04 2.7165E-01 1.9832E-02
 1.8609E+04 1.9344E+04 2.4338E-01 1.6631E-02
 1.9344E+04 2.0124E+04 2.6689E-01 1.9002E-02
 2.0124E+04 2.0952E+04 2.7288E-01 1.8990E-02
 2.0952E+04 2.1833E+04 2.8312E-01 2.0738E-02
 2.1833E+04 2.2770E+04 2.5897E-01 1.7996E-02
 2.2770E+04 2.3768E+04 2.4304E-01 1.6029E-02
 2.3768E+04 2.4834E+04 2.6314E-01 1.8206E-02
 2.4834E+04 2.5973E+04 2.5730E-01 1.7329E-02
 2.5973E+04 2.6777E+04 2.6587E-01 2.2562E-02
 2.6777E+04 2.7618E+04 2.6682E-01 2.3102E-02
 2.7618E+04 2.8499E+04 2.3406E-01 1.9971E-02
 2.8499E+04 2.9424E+04 2.2377E-01 1.8484E-02
 2.9424E+04 3.0394E+04 2.7192E-01 2.3530E-02
 3.0394E+04 3.1413E+04 2.6493E-01 2.3198E-02
 3.1413E+04 3.2484E+04 2.4739E-01 2.0347E-02
 3.2484E+04 3.3611E+04 2.5096E-01 1.9768E-02
 3.3611E+04 3.4798E+04 2.2083E-01 1.7731E-02
 3.4798E+04 3.6048E+04 2.1487E-01 1.8018E-02
 3.6048E+04 3.7368E+04 2.3367E-01 1.8630E-02
 3.7368E+04 3.8760E+04 2.2708E-01 1.8158E-02
 3.8760E+04 4.0233E+04 2.5623E-01 1.9369E-02
 4.0233E+04 4.1790E+04 2.8928E-01 2.2291E-02
 4.1790E+04 4.3441E+04 2.6081E-01 2.0315E-02
 4.3441E+04 4.5190E+04 2.6432E-01 2.0054E-02
 4.5190E+04 4.7048E+04 2.3732E-01 1.7295E-02
 4.7048E+04 4.9022E+04 2.6635E-01 1.9177E-02 0.1
 4.9022E+04 5.1124E+04 2.5665E-01 1.9069E-02
 5.1124E+04 5.3364E+04 2.6888E-01 1.9098E-02
 5.3364E+04 5.5754E+04 2.7803E-01 1.9380E-02
 5.5754E+04 5.8308E+04 2.4545E-01 1.6117E-02
 5.8308E+04 6.1042E+04 2.4426E-01 1.5944E-02
 6.1042E+04 6.3973E+04 3.2075E-01 2.1563E-02
 6.3973E+04 6.7120E+04 2.7235E-01 1.7047E-02
 6.7120E+04 7.0505E+04 2.6113E-01 1.5723E-02
 7.0505E+04 7.4153E+04 2.7978E-01 1.7256E-02
 7.4153E+04 7.8091E+04 2.9056E-01 1.7527E-02
 7.8091E+04 8.2352E+04 2.7336E-01 1.5010E-02
 8.2352E+04 8.6972E+04 2.7371E-01 1.4975E-02
 8.6972E+04 9.1991E+04 3.2547E-01 1.8256E-02
 9.1991E+04 9.7457E+04 3.4015E-01 1.7956E-02
 9.7457E+04 1.0343E+05 3.1422E-01 1.5608E-02 0.2
 1.0343E+05 1.0662E+05 3.1210E-01 2.1852E-02
 1.0662E+05 1.0996E+05 3.5769E-01 2.4239E-02
 1.0996E+05 1.1346E+05 3.2674E-01 2.1658E-02
 1.1346E+05 1.1713E+05 3.8068E-01 2.6188E-02
 1.1713E+05 1.2099E+05 3.5735E-01 2.2015E-02
 1.2099E+05 1.2503E+05 3.6742E-01 2.2527E-02
 1.2503E+05 1.2929E+05 3.5319E-01 2.0299E-02
 1.2929E+05 1.3376E+05 4.5185E-01 2.8573E-02
 1.3376E+05 1.3847E+05 5.3005E-01 3.3553E-02
 1.3847E+05 1.4343E+05 5.1973E-01 3.0944E-02
 1.4343E+05 1.4867E+05 5.0364E-01 2.7809E-02
 1.4867E+05 1.5419E+05 5.9727E-01 3.3953E-02
 1.5419E+05 1.6003E+05 6.6953E-01 3.6507E-02
 1.6003E+05 1.6621E+05 6.7169E-01 3.3988E-02
 1.6621E+05 1.7275E+05 8.0121E-01 4.0661E-02
 1.7275E+05 1.7969E+05 8.4574E-01 4.0115E-02
 1.7969E+05 1.8706E+05 1.0464E+00 4.9821E-02
 1.8706E+05 1.9488E+05 1.1915E+00 5.6421E-02
 1.9488E+05 2.0321E+05 1.3605E+00 6.1325E-02
 2.0321E+05 2.1208E+05 1.7441E+00 7.9471E-02
 2.1208E+05 2.2155E+05 2.0223E+00 8.6891E-02
 2.2155E+05 2.3167E+05 2.4514E+00 1.0660E-01
 2.3167E+05 2.4249E+05 2.7422E+00 1.1509E-01
 2.4249E+05 2.5409E+05 2.9331E+00 1.2259E-01
 2.5409E+05 2.6655E+05 2.8312E+00 1.1485E-01
 2.6655E+05 2.7994E+05 2.7088E+00 1.1170E-01
 2.7994E+05 2.9437E+05 2.0032E+00 7.6928E-02
 2.9437E+05 3.0994E+05 1.6824E+00 6.5408E-02
 3.0994E+05 3.2678E+05 1.4992E+00 6.0628E-02
 3.2678E+05 3.4504E+05 1.0965E+00 4.1051E-02
 3.4504E+05 3.6486E+05 1.0375E+00 3.9845E-02
 3.6486E+05 3.8645E+05 8.8357E-01 3.2878E-02
 3.8645E+05 4.1001E+05 7.5420E-01 2.7796E-02
 4.1001E+05 4.3579E+05 6.5655E-01 2.4586E-02
 4.3579E+05 4.6408E+05 5.7643E-01 2.0441E-02
 4.6408E+05 4.9522E+05 5.1448E-01 1.6864E-02 1.2
 4.9522E+05 5.2961E+05 4.8568E-01 1.5877E-02
 5.2961E+05 5.6770E+05 5.3200E-01 1.7828E-02
 5.6770E+05 6.1005E+05 6.0165E-01 2.0836E-02
 6.1005E+05 6.5733E+05 6.5173E-01 2.3732E-02
 6.5733E+05 7.1033E+05 7.4219E-01 2.9272E-02
 7.1033E+05 7.7000E+05 8.2161E-01 3.5387E-02
 7.7000E+05 8.3752E+05 8.7205E-01 3.8997E-02
 8.3752E+05 9.1432E+05 9.2491E-01 4.3544E-02
 9.1432E+05 1.0022E+06 1.0264E+00 5.2256E-02 4.6
 1.0022E+06 1.1034E+06 1.1041E+00 6.0937E-02
 1.1034E+06 1.2207E+06 9.7866E-01 5.2054E-02
 1.2207E+06 1.3578E+06 9.2519E-01 4.8516E-02
 1.3578E+06 1.5193E+06 7.5249E-01 3.6210E-02 6.8
 1.5193E+06 1.7114E+06 4.1993E-01 1.6873E-02
ENDDATA            181
ENDSUBENT          197
SUBENT        10303007   20020823   20020925
BIB                  8         22
REACTION   ((5-B-10(N,A)3-LI-7,PAR,SIG,G)/
           (5-B-10(N,A)3-LI-7,,SIG))
DETECTOR   (PROPC) BF3 proportional counter
           (GELI) Ge(Li) detector
MONITOR    (1-H-1(N,EL)1-H-1,,SIG)
            Ratio normalized to 0.93692 at 3.5-4.5 keV.
MISC-COL   (MISC) Correction factor
            Linear interpolaion of normalization factor obtained
            from the energy vs correction-factor table supplied
            by A.Carlson.
                  . SIGMA(NEW) = FACTOR*SIGMA(OLD)
                  . ERROR(NEW) = FACTOR*ERROR(OLD)
CORRECTION Data corrected for multiple scattering.
ERR-ANALYS (ERR-S) Statistical error
           (ERR-1) Systematic error
STATUS     Data taken from private comm., S.Friesenhahn, January
            1975.
           Data corrected by NNDC as suggested in private comm.,
            A.Carlson 20 April 1984, due to improved multiple
            scattering correction.
HISTORY    (19840824A) EN heading changed to EN-MIN and EN-MAX
           (19850625A) DATA corrected.
ENDBIB              22
COMMON               1          3
E
KEV
 478.
ENDCOMMON            3
DATA                 6         62
EN-MIN     EN-MAX     DATA       ERR-S      ERR-1      MISC
EV         EV         NO-DIM     NO-DIM     PER-CENT   NO-DIM
 8.5000E+02 9.4262E+02 9.9968E-01 2.8036E-02            1.00000
 9.4262E+02 1.0445E+03 1.0515E+00 2.9475E-02            1.00000
 1.0445E+03 1.1591E+03 9.4296E-01 1.7013E-02            1.00000
 1.1591E+03 1.2824E+03 9.4490E-01 1.7582E-02            1.00000
 1.2824E+03 1.4201E+03 9.8157E-01 1.8321E-02            1.00000
 1.4201E+03 1.5736E+03 9.4015E-01 1.8028E-02            1.00000
 1.5736E+03 1.7445E+03 9.6561E-01 1.8819E-02            1.00000
 1.7445E+03 1.7445E+03 9.6561E-01 1.8819E-02 1.1        1.00000
 1.7445E+03 2.1456E+03 9.3158E-01 1.8570E-02            1.00000
 2.1456E+03 2.3790E+03 9.2527E-01 1.9145E-02            1.00000
 2.3790E+03 2.6362E+03 9.6901E-01 2.0476E-02            1.00000
 2.6362E+03 2.9184E+03 9.6249E-01 2.0264E-02            1.00000
 2.9184E+03 3.2262E+03 9.1887E-01 1.9752E-02            1.00000
 3.2262E+03 3.5853E+03 9.2320E-01 2.0796E-02            1.00000
 3.5853E+03 3.9776E+03 9.6698E-01 2.2205E-02            1.00000
 3.9776E+03 4.4024E+03 9.4615E-01 2.1443E-02            1.00000
 4.4024E+03 4.8991E+03 9.1134E-01 2.1582E-02            1.00000
 4.8991E+03 5.4362E+03 9.4101E-01 2.2386E-02            1.00007
 5.4362E+03 6.0101E+03 1.0059E+00 2.4322E-02            1.00029
 6.0101E+03 6.6799E+03 9.5773E-01 2.4233E-02            1.00054
 6.6799E+03 7.3910E+03 1.0037E+00 2.5125E-02            1.00081
 7.3910E+03 8.2219E+03 9.4266E-01 2.4019E-02            1.00112
 8.2219E+03 9.0957E+03 9.2259E-01 2.4234E-02            1.00146
 9.0957E+03 1.0117E+04 9.4417E-01 2.4763E-02 1.7        1.00231
 1.0117E+04 1.1319E+04 9.2071E-01 2.4726E-02            1.00143
 1.1319E+04 1.2578E+04 9.1082E-01 2.4851E-02            1.00044
 1.2578E+04 1.4060E+04 9.2339E-01 2.5684E-02            0.99934
 1.4060E+04 1.5581E+04 9.2705E-01 2.6579E-02            0.99804
 1.5581E+04 1.7364E+04 9.5169E-01 2.6498E-02            0.99771
 1.7364E+04 1.9471E+04 9.4043E-01 2.7531E-02            0.99732
 1.9471E+04 2.1599E+04 9.7490E-01 2.7082E-02            0.99689
 2.1599E+04 2.4095E+04 9.3680E-01 2.6811E-02            0.99643
 2.4095E+04 2.7050E+04 9.1195E-01 2.5236E-02            0.99589
 2.7050E+04 2.9948E+04 8.6753E-01 2.4266E-02            0.99530
 2.9948E+04 3.3339E+04 9.3252E-01 2.8851E-02            0.99516
 3.3339E+04 3.7339E+04 1.0205E+00 3.0553E-02            0.99553
 3.7339E+04 4.2106E+04 9.7400E-01 2.7392E-02            0.99600
 4.2106E+04 4.6609E+04 9.3944E-01 2.8503E-02            0.99600
 4.6609E+04 5.1874E+04 9.2301E-01 2.6900E-02 0.7        0.99615
 5.1874E+04 5.8085E+04 9.1656E-01 2.5792E-02            0.99500
 5.8085E+04 6.5482E+04 9.2567E-01 2.4506E-02            0.99364
 6.5482E+04 7.4388E+04 8.7808E-01 2.4291E-02            0.99200
 7.4388E+04 8.2316E+04 8.4464E-01 2.3594E-02            0.99172
 8.2316E+04 9.1582E+04 9.6700E-01 2.7276E-02            0.99144
 9.1582E+04 1.0251E+05 1.0139E+00 2.6052E-02 2.3        0.99118
 1.0251E+05 1.1551E+05 9.8365E-01 2.3686E-02            0.99046
 1.1551E+05 1.3115E+05 9.7232E-01 2.5431E-02            0.98960
 1.3115E+05 1.5020E+05 9.5251E-01 2.3964E-02            0.98837
 1.5020E+05 1.7372E+05 9.4755E-01 2.1269E-02            0.98752
 1.7372E+05 1.9261E+05 9.1357E-01 1.9881E-02            0.98667
 1.9261E+05 2.1475E+05 9.2406E-01 1.9950E-02            0.98571
 2.1475E+05 2.4095E+05 9.1897E-01 1.9229E-02            0.98377
 2.4095E+05 2.7225E+05 9.1534E-01 1.8032E-02            0.98147
 2.7225E+05 3.1008E+05 8.7210E-01 1.9603E-02            0.97712
 3.1008E+05 3.5637E+05 8.8410E-01 1.9597E-02            0.98132
 3.5637E+05 4.1385E+05 8.5489E-01 1.8048E-02            0.98964
 4.1385E+05 4.8646E+05 8.1258E-01 1.6708E-02 3.8        0.98248
 4.8646E+05 5.7999E+05 8.3763E-01 1.7172E-02            0.97202
 6.0000E+05 7.0333E+05 6.9201E-01 1.6395E-02            0.96604
 7.0333E+05 7.8032E+05 6.7812E-01 1.7450E-02            0.94657
 7.8032E+05 8.7066E+05 5.2769E-01 1.5656E-02            0.93069
 8.7066E+05 9.7766E+05 5.0919E-01 1.6834E-02 4.5        0.91883
ENDDATA             64
ENDSUBENT           95
SUBENT        10303008   20020823   20020925
BIB                  9         21
REACTION   (5-B-10(N,A)3-LI-7,PAR,SIG,G)
SAMPLE     Sample enriched to 92.28% 10B.
DETECTOR   (GELI) Ge(Li) detector
MONITOR    (1-H-1(N,EL)1-H-1,,SIG)
            Normalized to 572.6 b*rt-eV at 20-30 keV.
MISC-COL   (MISC) Correction factor
            Linear interpolaion of normalization factor obtained
            from the energy vs correction-factor table supplied
            by A.Carlson.
                  . SIGMA(NEW)=FACTOR*SIGMA(OLD)
                  . ERROR(NEW)=FACTOR*ERROR(OLD)
CORRECTION Data corrected for multiple scattering
ERR-ANALYS (ERR-S) Statistical error.
           (ERR-1) Systematic error.
STATUS     Data taken from private comm., S.Friesenhahn, January
            1975.
           Data corrected by NNDC as suggested in private comm.,
            A.Carlson 20 April 1984, due to improved multiple
            scattering correction.
HISTORY    (19840824A) Data corrected
                       EN heading changed to EN-MIN and EN-MAX
ENDBIB              21
COMMON               1          3
E
KEV
 478.
ENDCOMMON            3
DATA                 6         56
EN-MIN     EN-MAX     DATA       ERR-S      ERR-1      MISC
EV         EV         B          B          PER-CENT   NO-DIM
 2.0000E+04 2.0494E+04 3.9143E+00 5.7965E-02            0.99695
 2.0494E+04 2.1599E+04 3.9446E+00 5.6833E-02            0.99679
 2.1599E+04 2.2795E+04 3.8374E+00 5.4883E-02            0.99656
 2.2795E+04 2.4095E+04 3.7541E+00 5.3618E-02            0.99631
 2.4095E+04 2.5508E+04 3.6770E+00 5.1947E-02            0.99604
 2.5508E+04 2.7050E+04 3.5578E+00 4.9990E-02            0.99574
 2.7050E+04 2.8735E+04 3.3330E+00 4.7431E-02            0.99542
 2.8735E+04 3.0583E+04 3.2592E+00 4.5680E-02            0.99497
 3.0583E+04 3.2616E+04 3.3260E+00 4.4682E-02            0.99516
 3.2616E+04 3.4858E+04 3.0839E+00 4.2049E-02            0.99537
 3.4858E+04 3.7339E+04 3.1119E+00 4.1280E-02            0.99561
 3.7339E+04 4.0095E+04 2.9496E+00 3.9033E-02            0.99600
 4.0095E+04 4.3168E+04 2.8260E+00 5.3090E-02            0.99600
 4.3168E+04 4.5418E+04 2.7693E+00 5.8963E-02            0.99600
 4.5418E+04 4.7847E+04 2.6900E+00 5.6996E-02            0.99600
 4.7847E+04 5.0477E+04 2.5831E+00 5.4020E-02 2.8        0.99617
 5.0477E+04 5.3330E+04 2.5933E+00 5.2526E-02            0.99562
 5.3330E+04 5.6432E+04 2.4472E+00 4.9304E-02            0.99502
 5.6432E+04 5.9812E+04 2.4592E+00 4.7854E-02            0.99438
 5.9812E+04 6.3506E+04 2.4458E+00 4.6746E-02            0.99367
 6.3506E+04 6.7552E+04 2.4506E+00 4.5798E-02            0.99289
 6.7552E+04 7.1998E+04 2.3599E+00 4.5546E-02            0.99201
 7.1998E+04 7.6898E+04 2.0817E+00 3.9983E-02            0.99185
 7.6898E+04 8.2316E+04 2.0267E+00 3.8313E-02            0.99168
 8.2316E+04 8.8326E+04 2.1583E+00 3.9627E-02            0.99149
 8.8326E+04 9.5021E+04 2.2032E+00 3.8623E-02            0.99128
 9.5021E+04 1.0251E+05 2.0111E+00 3.3737E-02 3.5        0.99107
 1.0251E+05 1.1091E+05 2.0477E+00 3.2628E-02            0.99060
 1.1091E+05 1.2039E+05 1.9356E+00 3.0158E-02            0.99006
 1.2039E+05 1.3115E+05 1.8905E+00 3.0540E-02            0.98945
 1.3115E+05 1.4341E+05 1.8132E+00 2.9134E-02            0.98876
 1.4341E+05 1.5748E+05 1.7041E+00 2.6012E-02            0.98798
 1.5748E+05 1.7372E+05 1.6177E+00 2.3596E-02            0.98738
 1.7372E+05 1.8280E+05 1.4813E+00 2.4752E-02            0.98687
 1.8280E+05 1.9261E+05 1.5141E+00 2.5020E-02            0.98649
 1.9261E+05 2.0323E+05 1.4648E+00 2.3347E-02            0.98617
 2.0323E+05 2.1475E+05 1.3771E+00 2.1437E-02            0.98528
 2.1475E+05 2.2729E+05 1.3159E+00 2.0075E-02            0.98432
 2.2729E+05 2.4095E+05 1.2477E+00 1.8590E-02            0.98327
 2.4095E+05 2.5589E+05 1.2320E+00 1.7638E-02            0.98213
 2.5589E+05 2.7225E+05 1.1342E+00 1.6126E-02            0.98087
 2.7225E+05 2.9024E+05 1.0822E+00 1.6348E-02            0.97950
 2.9024E+05 3.1008E+05 9.8936E-01 1.4748E-02            0.97802
 3.1008E+05 3.3202E+05 9.5227E-01 1.3810E-02            0.98010
 3.3202E+05 3.5637E+05 8.7828E-01 1.2605E-02            0.98242
 3.5637E+05 3.8350E+05 7.9285E-01 1.1466E-02            0.98499
 3.8350E+05 4.1385E+05 8.4151E-01 1.2365E-02            0.98815
 4.1385E+05 4.4796E+05 7.3506E-01 1.0731E-02            0.98460
 4.4796E+05 4.8646E+05 7.1180E-01 9.4170E-03 4.2        0.98061
 4.8646E+05 5.3014E+05 6.4761E-01 8.3855E-03            0.97575
 5.3014E+05 5.7999E+05 5.2517E-01 6.9515E-03            0.96874
 5.7999E+05 6.3721E+05 4.0974E-01 5.7493E-03            0.96062
 6.3721E+05 7.0333E+05 3.1537E-01 4.6623E-03            0.94957
 7.0333E+05 7.8032E+05 2.7978E-01 4.3319E-03            0.94098
 7.8032E+05 8.7066E+05 1.8607E-01 3.3876E-03            0.93069
 8.7066E+05 9.7766E+05 1.6711E-01 3.3279E-03 4.2        0.91883
ENDDATA             58
ENDSUBENT           88
ENDENTRY             8
