ENTRY            10327   20020926   20021120
SUBENT        10327001   20020926   20021120
BIB                 13         21
INSTITUTE  (1USALRL)
REFERENCE  (J,NP/A,265,77,1976)
AUTHOR     (M.A.Gardner,D.G.Gardner)
TITLE      Structure in the 27Al(n,alpha)24Na cross section
            around 14 MeV
FACILITY   (ICTR,1USALRL) Insulated core transformer.
INC-SOURCE (D-T)
INC-SPECT  Energy resolution varied as a function of emission
            angle from 65 keV to more than 300 keV.
METHOD     (ACTIV).
DETECTOR   (NAICR) NaI(Tl) scintillation detector
ANALYSIS   Data given obtained from smoothed curve fit to
            experimental data.
CORRECTION Corrected for anisotropy, scattering effects,
            background, and decay time.
STATUS     (APRVD) Approved by author
HISTORY    (19740513C)
           (19760205U) INSTITUTE corrected
           (19771206A) BIB update. Converted to REACTION
             formalism.
           (20020926A) Updated to new date formats, lower case.
ENDBIB              21
NOCOMMON             0          0
ENDSUBENT           24
SUBENT        10327002   20020926   20021120
BIB                  4          4
REACTION   (13-AL-27(N,A)11-NA-24,,SIG,,REL)
DECAY-DATA (11-NA-24,15.HR,DG,1.368)
ERR-ANALYS No information on uncertainties.
STATUS     Tabulated data received from D. Gardner, August 1973.
ENDBIB               4
COMMON               1          3
EN-RSL
KEV
150.0
ENDCOMMON            3
DATA                 2         94
EN         DATA
MEV        ARB-UNITS
 13.500     49.60
 13.515     49.80
 13.530     50.00
 13.545     50.20
 13.560     50.27
 13.575     50.20
 13.590     50.06
 13.605     49.88
 13.620     49.68
 13.635     49.50
 13.650     49.27
 13.665     49.03
 13.680     48.83
 13.695     48.86
 13.710     49.15
 13.725     49.57
 13.740     49.67
 13.755     49.55
 13.770     48.87
 13.785     48.73
 13.800     48.78
 13.815     49.10
 13.830     49.56
 13.845     49.70
 13.860     49.66
 13.875     49.27
 13.890     48.86
 13.905     48.77
 13.920     48.75
 13.935     48.78
 13.950     48.87
 13.965     49.13
 13.980     49.37
 13.995     49.43
 14.010     49.33
 14.025     48.20
 14.040     47.58
 14.055     47.63
 14.070     48.98
 14.085     49.34
 14.100     49.42
 14.115     48.75
 14.130     47.61
 14.145     47.55
 14.160     47.58
 14.175     48.40
 14.190     49.48
 14.205     49.58
 14.220     49.50
 14.235     49.25
 14.250     48.96
 14.265     48.56
 14.280     48.17
 14.295     47.80
 14.310     47.39
 14.325     46.99
 14.340     46.66
 14.355     46.53
 14.370     46.54
 14.385     46.73
 14.400     46.92
 14.415     47.00
 14.430     46.97
 14.445     46.89
 14.460     46.75
 14.475     46.53
 14.490     46.19
 14.505     45.75
 14.520     45.35
 14.535     45.26
 14.550     45.26
 14.565     45.35
 14.580     45.48
 14.595     45.56
 14.610     45.53
 14.625     45.52
 14.640     45.50
 14.655     45.50
 14.670     45.57
 14.685     45.75
 14.700     45.95
 14.715     46.12
 14.730     46.12
 14.745     45.84
 14.760     45.50
 14.775     45.18
 14.790     44.93
 14.805     44.60
 14.820     44.23
 14.835     44.07
 14.850     44.09
 14.865     44.20
 14.880     44.26
 14.895     44.27
ENDDATA             96
ENDSUBENT          109
ENDENTRY             2
