ENTRY            D0747   20160722   20161212   20161118       D106
SUBENT        D0747001   20160722   20161212   20161118       D106
BIB                 10         20
TITLE      Interplay of the elastic and inelastic channels in the
            16O+27Al scattering at Elab=280 MeV
AUTHOR     (F.Cappuzzello, D.Nicolosi, R.Linares, J.R.B.Oliveira,
            J.Lubian, C.Agodi, D.Carbone, M.Cavallaro,
            P.N.de Faria, A.Foti, M.R.D.Rodrigues)
INSTITUTE  (2ITYCAT,2ITYLNS,3BZLUFF,3BZLUSP)
REFERENCE  (J,EPJ/A,52,169,2016) inelastic data set revised
           (J,NIM/A,763,314,2014)
SAMPLE     Self-supported target (109 ug/cm2 thick)
FACILITY   (CYCLO,2ITYLNS) Superconducting Cyclotron
DETECTOR   (MAGSP) MAGNEX
ERR-ANALYS (ERR-SYS) Due to uncertainties in beam current
            integration and target thickness
           (DATA-ERR) Due to counting statistics and solid angle
            determination
STATUS     (APRVD) Approved by Francesco Cappuzzello (2014-11-09),
                   approved by Roberto Linares (2016-07-27).
HISTORY    (20140924R) On. Data received from Francesco Cappuzzell
           (20141007C) M.Odsuren
           (20160722A) On. 005 added and 004 superseded.
ENDBIB              20
COMMON               3          3
EN         EN-ERR     ERR-SYS
MEV        PER-CENT   PER-CENT
 280.       0.1        10.
ENDCOMMON            3
ENDSUBENT           27
SUBENT        D0747002   20141015   20150202   20150109       D096
BIB                  4          5
REACTION   (13-AL-27(8-O-16,INL)13-AL-27,PAR,DA)
EN-SEC     (E-LVL1,8-O-16)
           (E-LVL2,13-AL-27)
MISC-COL   (MISC) optical axis of spectrometer
STATUS     (TABLE) in Fig.5 of Nucl.Instrum.Meth.A763(2014)314
ENDBIB               5
COMMON               3          3
E-LVL1     E-LVL2     E-LVL2
KEV        MEV        MEV
 0.         2.735      3.004
ENDCOMMON            3
DATA                 4         66
ANG-CM     DATA-CM    DATA-ERR   MISC
ADEG       MB/SR      MB/SR      ADEG
   8.166292 37.543444  15.962147  10.
   8.4848   37.501926   8.768944  10.
   8.803308 32.53455    5.839136  10.
   9.121815 19.552289   3.020115  10.
   9.440323 11.155399   1.67537   10.
   9.758831  3.652959   0.695873  10.
  10.077338  1.264813   0.349711  10.
  10.395846  2.852396   0.529246  10.
  10.714354  3.346657   0.567847  10.
  11.032861  5.956398   0.819675  10.
  11.351369  4.348175   0.697351  10.
  11.669877  3.28472    0.596842  10.
  11.988384  1.650891   0.404384  10.
  12.306892  0.782712   0.266071  10.
  12.6254    0.476913   0.197278  10.
  12.943908  0.236264   0.137313  10.
  12.955438  0.501356   0.198491  13.
  13.262415  0.901272   0.278307  10.
  13.273194  1.157467   0.262256  13.
  13.580923  0.984538   0.304019  10.
  13.59095   1.342312   0.232617  13.
  13.899431  1.315583   0.350822  10.
  13.908707  1.568151   0.227349  13.
  14.217938  0.991748   0.320512  10.
  14.226463  1.393434   0.179951  13.
  14.536446  0.620774   0.238252  10.
  14.544219  0.776293   0.100927  13.
  14.854954  0.43553    0.196927  10.
  14.861975  0.553228   0.073086  13.
  15.179731  0.31198    0.053997  13.
  15.497487  0.208923   0.045926  13.
  15.815243  0.151222   0.031239  13.
  16.128984  0.157362   0.111765  10.
  16.132999  0.21791    0.03961   13.
  16.450755  0.208095   0.031787  13.
  16.766     0.166136   0.117     10.
  16.768511  0.25382    0.034888  13.
  17.086267  0.199157   0.033409  13.
  17.403015  0.154791   0.109939  10.
  17.404023  0.171582   0.031076  13.
  17.721523  0.089395   0.04501   10.
  17.721779  0.09474    0.022827  13.
  18.039535  0.080861   0.019483  13.
  18.357291  0.067088   0.019655  13.
  18.675047  0.091961   0.025917  13.
  18.992803  0.060226   0.016973  13.
  19.310559  0.09225    0.022844  13.
  19.628315  0.085491   0.021796  13.
  19.946071  0.078473   0.019433  13.
  20.263827  0.075002   0.021137  13.
  20.581583  0.042911   0.015322  13.
  20.899339  0.043068   0.015379  13.
  21.217096  0.014372   0.010188  13.
  21.534852  0.035968   0.013713  13.
  21.852608  0.018002   0.008101  13.
  22.170364  0.032515   0.01161   13.
  22.48812   0.021696   0.009763  13.
  22.805876  0.018096   0.008143  13.
  23.123632  0.021787   0.010948  13.
  23.441388  0.025439   0.012783  13.
  23.759144  0.029095   0.013093  13.
  24.0769    0.021891   0.011     13.
  24.394656  0.007302   0.005176  13.
  25.030168  0.00733    0.005196  13.
  25.347924  0.011001   0.007799  13.
  26.618948  0.011053   0.007835  13.
ENDDATA             68
ENDSUBENT           82
SUBENT        D0747003   20141015   20150202   20150109       D096
BIB                  3          3
REACTION   (13-AL-27(8-O-16,EL)13-AL-27,,DA)
MISC-COL   (MISC) optical axis of spectrometer
STATUS     (TABLE) in Fig.5 of Nucl.Instrum.Meth.A763(2014)314
ENDBIB               3
NOCOMMON             0          0
DATA                 4        143
ANG-CM     DATA-CM    DATA-ERR   MISC
ADEG       MB/SR      MB/SR      ADEG
  8.166292  1.37515E+3 5.76371E+2 10.
  8.4848    1.36004E+3 3.06586E+2 10.
  8.803308  1.00311E+3 1.69141E+2 10.
  9.121815  7.37243E+2 9.98933E+1 10.
  9.440323  6.24604E+2 7.35441E+1 10.
  9.758831  5.65585E+2 6.21008E+1 10.
 10.077338  5.06853E+2 5.05521E+1 10.
 10.395846  4.40736E+2 3.42535E+1 10.
 10.714354  3.06697E+2 2.22016E+1 10.
 11.032861  2.14517E+2 1.49345E+1 10.
 11.351369  1.40714E+2 1.00509E+1 10.
 11.669877  1.00700E+2 7.38374E+0 10.
 11.988384  7.78670E+1 5.83863E+0 10.
 12.306892  7.44446E+1 5.57722E+0 10.
 12.6254    6.62910E+1 4.97998E+0 10.
 12.943908  6.05622E+1 4.59029E+0 10.
 12.955438  6.86447E+1 2.51928E+1 13.
 13.262415  4.64565E+1 3.66038E+0 10.
 13.273194  5.71854E+1 1.19766E+1 13.
 13.580923  3.32058E+1 2.80581E+0 10.
 13.59095   3.66943E+1 5.73964E+0 13.
 13.899431  2.02600E+1 1.89769E+0 10.
 13.908707  2.13223E+1 2.79145E+0 13.
 14.217938  1.08101E+1 1.26153E+0 10.
 14.226463  1.26070E+1 1.41079E+0 13.
 14.536446  8.86820E+0 1.06582E+0 10.
 14.544219  9.02157E+0 8.96636E-1 13.
 14.854954  8.88482E+0 1.06055E+0 10.
 14.861975  9.45167E+0 7.97167E-1 13.
 15.173461  1.03625E+1 1.14160E+0 10.
 15.179731  1.06745E+1 8.69569E-1 13.
 15.491969  1.05066E+1 1.14918E+0 10.
 15.497487  9.75223E+0 7.13853E-1 13.
 15.810477  8.95076E+0 1.06133E+0 10.
 15.815243  9.13457E+0 5.18520E-1 13.
 16.128984  6.53053E+0 8.38674E-1 10.
 16.132999  7.34668E+0 4.28861E-1 13.
 16.447492  4.03888E+0 6.31468E-1 10.
 16.450755  5.03936E+0 3.01419E-1 13.
 16.766     2.82431E+0 5.19674E-1 10.
 16.768511  3.21275E+0 2.18553E-1 13.
 17.086267  2.13482E+0 1.62133E-1 13.
 17.404023  1.95043E+0 1.51035E-1 13.
 17.721779  1.80006E+0 1.34771E-1 13.
 18.039535  1.83518E+0 1.34424E-1 13.
 18.357291  1.87493E+0 1.33774E-1 13.
 18.675047  1.93472E+0 1.34856E-1 13.
 18.992803  1.39582E+0 1.08876E-1 13.
 19.310559  1.12474E+0 9.41330E-2 13.
 19.628315  7.87223E-1 7.67010E-2 13.
 19.946071  3.81664E-1 4.88600E-2 13.
 20.263827  3.57155E-1 4.80840E-2 13.
 20.581583  4.04078E-1 4.80290E-2 13.
 20.899339  4.05561E-1 4.84380E-2 13.
 20.930038  3.36951E-1 1.77695E-1 18.
 21.217096  4.70683E-1 5.24150E-2 13.
 21.245626  5.18284E-1 1.29557E-1 18.
 21.534852  4.46000E-1 5.37950E-2 13.
 21.561214  4.32080E-1 7.60720E-2 18.
 21.852608  2.73626E-1 3.76110E-2 13.
 21.876802  3.56387E-1 4.41880E-2 18.
 22.170364  2.67346E-1 4.29050E-2 13.
 22.19239   3.01190E-1 3.44070E-2 18.
 22.48812   2.20580E-1 3.33860E-2 13.
 22.507978  2.27434E-1 1.93030E-2 18.
 22.805876  1.12195E-1 2.35790E-2 13.
 22.823566  1.60087E-1 1.27340E-2 18.
 23.123632  9.80420E-2 2.14700E-2 13.
 23.139154  1.14486E-1 9.49000E-3 18.
 23.441388  4.72430E-2 1.80120E-2 13.
 23.454743  8.50610E-2 7.39100E-3 18.
 23.759144  7.27360E-2 1.80120E-2 13.
 23.770331  8.88840E-2 7.42800E-3 18.
 24.0769    9.12120E-2 1.99740E-2 13.
 24.085919  9.24020E-2 7.44100E-3 18.
 24.394656  9.12760E-2 1.95720E-2 13.
 24.401507  9.94760E-2 7.95300E-3 18.
 24.712412  7.67220E-2 1.80150E-2 13.
 24.717095  1.06826E-1 8.32400E-3 18.
 25.030168  8.79570E-2 1.96910E-2 13.
 25.032683  9.87700E-2 7.94400E-3 18.
 25.347924  4.76720E-2 1.39670E-2 13.
 25.348271  8.23140E-2 7.12900E-3 18.
 25.663859  6.23130E-2 6.23700E-3 18.
 25.66568   5.13700E-2 1.50500E-2 13.
 25.979447  3.72300E-2 4.44700E-3 18.
 25.983436  4.04840E-2 2.03430E-2 13.
 26.295036  3.83380E-2 4.60100E-3 18.
 26.301192  4.05060E-2 1.54430E-2 13.
 26.610624  3.04680E-2 3.99700E-3 18.
 26.618948  2.21060E-2 1.56700E-2 13.
 26.926212  2.91950E-2 3.52100E-3 18.
 26.936704  1.47810E-2 7.42700E-3 13.
 27.2418    2.26570E-2 3.46100E-3 18.
 27.557388  2.53990E-2 3.25200E-3 18.
 27.872976  1.91730E-2 2.87600E-3 18.
 28.188564  2.24700E-2 2.94700E-3 18.
 28.504152  1.78630E-2 2.78100E-3 18.
 28.81974   1.26460E-2 2.32300E-3 18.
 29.135329  9.35100E-3 1.92800E-3 18.
 29.450917  1.07560E-2 2.35500E-3 18.
 29.766505  6.07000E-3 1.59600E-3 18.
 30.082093  8.28000E-3 1.77500E-3 18.
 30.397681  5.53500E-3 1.50500E-3 18.
 30.713269  7.19800E-3 1.95700E-3 18.
 31.028857  5.27500E-3 1.48700E-3 18.
 31.344445  6.66500E-3 1.49200E-3 18.
 31.660033  5.01200E-3 1.20800E-3 18.
 31.975622  2.50700E-3 8.95000E-4 18.
 32.29121   4.45800E-3 1.17200E-3 18.
 32.606798  3.63200E-3 1.06400E-3 18.
 32.922386  3.07400E-3 1.09800E-3 18.
 33.237974  2.52200E-3 1.03700E-3 18.
 33.553562  2.52200E-3 1.03700E-3 18.
 33.822586  1.82246E-3 6.39181E-4 26.
 33.86915   1.68600E-3 7.59000E-4 18.
 34.184738  2.53000E-3 9.03000E-4 18.
 34.500326  8.45000E-4 4.90000E-4 18.
 34.599911  1.25024E-3 4.93746E-4 26.
 34.815915  1.69100E-3 8.50000E-4 18.
 35.377236  1.04515E-3 1.94853E-4 26.
 36.154561  8.77548E-4 2.01071E-4 26.
 36.931886  5.39097E-4 1.57941E-4 26.
 37.709212  4.91472E-4 1.21706E-4 26.
 38.486537  4.18915E-4 1.28033E-4 26.
 39.263862  3.21990E-4 1.22761E-4 26.
 40.041187  2.98032E-4 1.13627E-4 26.
 40.818512  1.99222E-4 8.19398E-5 26.
 41.595837  1.25139E-4 7.25196E-5 26.
 42.373163  7.54571E-5 5.34895E-5 26.
 43.150488  1.00872E-4 7.15056E-5 26.
 43.927813  7.60259E-5 4.40579E-5 26.
 44.705138  7.62210E-5 4.41709E-5 26.
 45.482463  1.02121E-4 5.13227E-5 26.
 46.684772  1.01667E-4 3.22592E-5 34.
 47.037114  5.68188E-5 5.62506E-5 26.
 47.814439  9.79677E-5 6.96635E-5 26.
 48.206751  6.67675E-5 2.38408E-5 34.
 49.72873   2.24657E-5 1.12889E-5 34.
 50.146414  5.53902E-5 5.48363E-5 26.
 51.250709  2.83437E-5 1.42425E-5 34.
 54.294667  1.15459E-5 8.18456E-6 34.
 57.338625  2.94466E-5 1.70647E-5 34.
ENDDATA            145
ENDSUBENT          153
SUBENT        D0747004   20160722   20161212   20161118       D106
BIB                  5          7
REACTION   (13-AL-27(8-O-16,INL)13-AL-27,PAR,DA)
EN-SEC     (E-LVL1,8-O-16)
           (E-LVL2,13-AL-27)
MISC-COL   (MISC) optical axis of spectrometer
STATUS     (TABLE) in Fig.5 of Nucl.Instrum.Meth.A763(2014)314
           (SPSDD,D0747005) Revised data with wider angular range
HISTORY    (20160722A) On. Superseded by 005.
ENDBIB               7
COMMON               6          3
E-LVL1     E-LVL2     E-LVL2     E-LVL2     E-LVL2     E-LVL2
MEV        MEV        MEV        MEV        MEV        MEV
 0.         0.844      1.014      2.212      2.735      3.004
ENDCOMMON            3
DATA                 4         78
ANG-CM     DATA-CM    DATA-ERR   MISC
ADEG       MB/SR      MB/SR      ADEG
  8.166292  189.13367  79.465726  10.
  8.4848    176.72898  40.107268  10.
  8.803308  150.5536   25.699428  10.
  9.121815  112.01614  15.519574  10.
  9.440323   78.772772  9.646971  10.
  9.758831   49.861254  5.86113   10.
 10.077338   39.425031  4.375864  10.
 10.395846   36.059596  3.2948816 10.
 10.714354   36.530104  3.082787  10.
 11.032861   44.216779  3.466191  10.
 11.351369   36.126137  2.911154  10.
 11.669877   31.008484  2.593515  10.
 11.988384   20.961823  1.908631  10.
 12.306892   15.137056  1.535676  10.
 12.6254      9.39897   1.154305  10.
 12.943908    6.493268  0.937325  10.
 12.955438    4.675908  1.730508  13.
 13.262415    7.200157  0.894486  10.
 13.273194    7.68781   1.627931  13.
 13.580923    8.097439  0.963329  10.
 13.59095    10.732003  1.695041  13.
 13.899431    8.368238  0.998887  10.
 13.908707   12.746293  1.67705   13.
 14.217938   10.873242  1.206805  10.
 14.226463   11.447473  1.279075  13.
 14.536446    8.361426  1.023062  10.
 14.544219    8.263649  0.81865   13.
 14.854954    6.155916  0.83795   10.
 14.861975    5.902536  0.510992  13.
 15.173461    3.687263  0.654128  10.
 15.179731    3.396253  0.3076191 13.
 15.491969    2.547053  0.487962  10.
 15.497487    2.193692  0.201533  13.
 15.810477    1.918029  0.458228  10.
 15.815243    1.713854  0.140875  13.
 16.128984    1.984759  0.443357  10.
 16.132999    2.03383   0.15169   13.
 16.447492    1.795054  0.409585  10.
 16.450755    2.278643  0.153975  13.
 16.766       1.797284  0.378901  10.
 16.768511    2.764212  0.177901  13.
 17.084508    2.056437  0.459369  10.
 17.086267    2.578564  0.168996  13.
 17.403015    1.805896  0.380716  10.
 17.404023    2.241064  0.152378  13.
 17.721523    1.678634  0.374975  10.
 17.721779    1.610581  0.121982  13.
 18.039535    1.033608  0.093679  13.
 18.040031    0.904754  0.258081  10.
 18.357291    0.737967  0.078619  13.
 18.358538    0.776218  0.239691  10.
 18.675047    0.650804  0.071634  13.
 18.677046    0.843748  0.286819  10.
 18.992803    0.733336  0.072792  13.
 18.995554    0.584614  0.198731  10.
 19.310559    0.808963  0.076013  13.
 19.628315    0.862027  0.078761  13.
 19.946071    0.766897  0.072225  13.
 20.263827    0.657164  0.067755  13.
 20.581583    0.629361  0.065717  13.
 20.899339    0.506055  0.05931   13.
 21.217096    0.3593    0.049743  13.
 21.534852    0.287741  0.040737  13.
 21.852608    0.30603   0.040659  13.
 22.170364    0.29986   0.03885   13.
 22.48812     0.263972  0.037372  13.
 22.805876    0.275057  0.038647  13.
 23.123632    0.312284  0.04149   13.
 23.441388    0.312531  0.041523  13.
 23.759144    0.221846  0.033277  13.
 24.0769      0.178777  0.029647  13.
 24.394656    0.127786  0.023824  13.
 24.712412    0.091337  0.020448  13.
 25.030168    0.106281  0.024352  13.
 25.347924    0.11368   0.02545   13.
 25.983436    0.08833   0.02074   13.
 26.301192    0.069966  0.028777  13.
 26.618948    0.077371  0.024771  13.
ENDDATA             80
ENDSUBENT           96
SUBENT        D0747005   20160722   20161212   20161118       D106
BIB                  4          6
REACTION   (13-AL-27(8-O-16,INL)13-AL-27,PAR,DA)
EN-SEC     (E-LVL1,8-O-16)
           (E-LVL2,13-AL-27)
STATUS     (TABLE) in Fig.2 of Eur.Phys.J.A(2016)169
HISTORY    (20160721R) On. Data received from Francesco Cappuzzell
           (20160722C) On
ENDBIB               6
COMMON               6          3
E-LVL1     E-LVL2     E-LVL2     E-LVL2     E-LVL2     E-LVL2
MEV        MEV        MEV        MEV        MEV        MEV
 0.         0.84       1.01       2.21       2.73       3.00
ENDCOMMON            3
DATA                 3        158
ANG-CM     DATA-CM    DATA-ERR
ADEG       MB/SR      MB/SR
  8.166292  1.89134E+2 7.94657E+1
  8.4848    1.76729E+2 4.01073E+1
  8.803308  1.50554E+2 2.56994E+1
  9.121815  1.12016E+2 1.55196E+1
  9.440323  7.87728E+1 9.64697E+0
  9.758831  4.98613E+1 5.86113E+0
 10.077338  3.94250E+1 4.37586E+0
 10.395846  3.60596E+1 3.29488E+0
 10.714354  3.65301E+1 3.08279E+0
 11.032861  4.42168E+1 3.46619E+0
 11.351369  3.61261E+1 2.91115E+0
 11.669877  3.10085E+1 2.59352E+0
 11.988384  2.09618E+1 1.90863E+0
 12.306892  1.51371E+1 1.53568E+0
 12.6254    9.39897E+0 1.15431E+0
 12.943908  6.49327E+0 9.37325E-1
 12.955438  4.67591E+0 1.73051E+0
 13.262415  7.20016E+0 8.94486E-1
 13.273194  7.68781E+0 1.62793E+0
 13.580923  8.09744E+0 9.63329E-1
 13.59095   1.07320E+1 1.69504E+0
 13.899431  8.36824E+0 9.98887E-1
 13.908707  1.27463E+1 1.67705E+0
 14.217938  1.08732E+1 1.20681E+0
 14.226463  1.14475E+1 1.27908E+0
 14.536446  8.36143E+0 1.02306E+0
 14.544219  8.26365E+0 8.18650E-1
 14.854954  6.15592E+0 8.37950E-1
 14.861975  5.90254E+0 5.10992E-1
 15.173461  3.68726E+0 6.54128E-1
 15.179731  3.39625E+0 3.07619E-1
 15.491969  2.54705E+0 4.87962E-1
 15.497487  2.19369E+0 2.01533E-1
 15.810477  1.91803E+0 4.58228E-1
 15.815243  1.71385E+0 1.40875E-1
 16.128984  1.98476E+0 4.43357E-1
 16.132999  2.03383E+0 1.51690E-1
 16.447492  1.79505E+0 4.09585E-1
 16.450755  2.27864E+0 1.53975E-1
 16.766     1.79728E+0 3.78901E-1
 16.768511  2.76421E+0 1.77901E-1
 17.084508  2.05644E+0 4.59369E-1
 17.086267  2.57856E+0 1.68996E-1
 17.403015  1.80590E+0 3.80716E-1
 17.404023  2.24106E+0 1.52378E-1
 17.721523  1.67863E+0 3.74975E-1
 17.721779  1.61058E+0 1.21982E-1
 18.039535  1.03361E+0 9.36790E-2
 18.040031  9.04754E-1 2.58081E-1
 18.357291  7.37967E-1 7.86190E-2
 18.358538  7.76218E-1 2.39691E-1
 18.675047  6.50804E-1 7.16340E-2
 18.677046  8.43748E-1 2.86819E-1
 18.992803  7.33336E-1 7.27920E-2
 18.995554  5.84614E-1 1.98731E-1
 19.310559  8.08963E-1 7.60130E-2
 19.628315  8.62027E-1 7.87610E-2
 19.946071  7.66897E-1 7.22250E-2
 20.263827  6.57164E-1 6.77550E-2
 20.581583  6.29361E-1 6.57170E-2
 20.899339  5.06055E-1 5.93100E-2
 20.930038  4.65411E-1 2.45164E-1
 21.217096  3.59300E-1 4.97430E-2
 21.245626  3.54209E-1 8.88940E-2
 21.534852  2.87741E-1 4.07370E-2
 21.561214  2.70701E-1 4.81760E-2
 21.852608  3.06030E-1 4.06590E-2
 21.876802  2.52383E-1 3.17710E-2
 22.170364  2.99860E-1 3.88500E-2
 22.19239   2.54923E-1 2.92510E-2
 22.48812   2.63972E-1 3.73720E-2
 22.507978  2.79048E-1 2.25940E-2
 22.805876  2.75057E-1 3.86470E-2
 22.823566  3.28194E-1 2.27200E-2
 23.123632  3.12284E-1 4.14900E-2
 23.139154  2.80184E-1 1.88490E-2
 23.441388  3.12531E-1 4.15230E-2
 23.454743  2.64306E-1 1.65110E-2
 23.759144  2.21846E-1 3.32770E-2
 23.770331  2.34698E-1 1.53030E-2
 24.0769    1.78777E-1 2.96470E-2
 24.085919  1.92080E-1 1.31520E-2
 24.394656  1.27786E-1 2.38240E-2
 24.401507  1.42878E-1 1.04110E-2
 24.712412  9.13370E-2 2.04480E-2
 24.717095  1.20584E-1 9.43600E-3
 25.030168  1.06281E-1 2.43520E-2
 25.032683  1.12030E-1 8.58900E-3
 25.347924  1.13680E-1 2.54500E-2
 25.348271  1.11286E-1 8.50800E-3
 25.663859  1.18666E-1 8.93100E-3
 25.979447  1.07070E-1 8.35200E-3
 25.983436  8.83300E-2 2.07400E-2
 26.295036  9.78830E-2 7.78900E-3
 26.301192  6.99660E-2 2.87770E-2
 26.610624  8.35160E-2 7.03100E-3
 26.618948  7.73710E-2 2.47710E-2
 26.926212  7.77620E-2 6.69000E-3
 27.2418    6.63340E-2 6.07300E-3
 27.557388  5.92640E-2 5.83500E-3
 27.872976  5.36850E-2 5.55200E-3
 28.188564  5.26120E-2 5.39100E-3
 28.504152  3.90230E-2 4.43500E-3
 28.81974   4.26130E-2 4.50900E-3
 29.135329  4.18040E-2 4.55000E-3
 29.450917  4.35770E-2 4.43800E-3
 29.766505  3.66950E-2 3.95100E-3
 30.082093  3.06360E-2 3.64100E-3
 30.397681  2.87840E-2 3.52500E-3
 30.713269  2.46410E-2 3.23200E-3
 31.028857  2.52640E-2 3.23400E-3
 31.344445  1.58290E-2 2.48900E-3
 31.660033  2.14420E-2 2.88700E-3
 31.975622  1.55990E-2 2.50300E-3
 32.29121   2.03400E-2 2.75700E-3
 32.606798  1.11750E-2 1.99600E-3
 32.922386  1.17370E-2 2.15600E-3
 33.237974  1.17680E-2 2.10200E-3
 33.553562  7.00700E-3 1.64500E-3
 33.822586  1.23016E-2 3.83642E-3
 33.86915   8.14900E-3 1.86700E-3
 34.184738  7.30800E-3 1.67400E-3
 34.500326  7.04600E-3 1.74500E-3
 34.599911  7.00132E-3 2.55134E-3
 34.815915  7.89300E-3 2.01200E-3
 35.131503  9.04400E-3 2.37800E-3
 35.377236  4.78824E-3 4.60686E-4
 35.447091  7.63200E-3 2.15100E-3
 35.762679  5.66800E-3 2.02400E-3
 36.078267  4.81900E-3 1.98200E-3
 36.154561  5.07029E-3 4.81969E-4
 36.931886  3.89621E-3 4.15080E-4
 37.709212  3.36659E-3 3.87563E-4
 38.486537  3.22813E-3 3.55320E-4
 39.263862  1.98148E-3 2.87270E-4
 40.041187  1.81303E-3 2.67265E-4
 40.818512  1.49417E-3 2.42357E-4
 41.595837  1.22637E-3 2.19076E-4
 42.373163  9.05483E-4 1.80046E-4
 43.150488  7.31326E-4 1.71716E-4
 43.927813  6.84232E-4 1.60658E-4
 44.705138  4.57324E-4 1.13250E-4
 45.482463  3.82955E-4 1.17088E-4
 46.259788  3.40241E-4 1.21571E-4
 46.684772  4.41575E-4 1.22213E-4
 47.037114  3.12503E-4 1.29437E-4
 47.814439  3.59215E-4 1.62897E-4
 48.206751  3.86729E-4 7.56729E-5
 48.591764  1.14511E-4 1.13366E-4
 49.369089  1.37102E-4 1.35731E-4
 49.72873   2.10939E-4 5.22361E-5
 50.146414  1.10780E-4 1.09673E-4
 51.250709  6.69274E-5 3.36306E-5
 52.772688  7.84494E-5 3.22662E-5
 54.294667  4.50376E-5 2.26311E-5
 55.816646  6.78703E-5 3.05416E-5
 57.338625  1.13639E-5 1.12503E-5
 58.860604  1.14161E-5 1.13019E-5
ENDDATA            160
ENDSUBENT          175
ENDENTRY             5
