ENTRY            20189     831121
SUBENT        20189001     831121              20050926       0000
BIB                 12         23
INSTITUTE  (2BLGMOL)
REFERENCE  (J,JNE/AB,15,165,6112)
           (J,NIM,7,145,60)   FISSION CHAMBER AND ITS EFFICIENCY.
AUTHOR     (A.J.DERUYTTER)
TITLE      - THE FISSION CROSS-SECTION OF U-235 FROM 0.01 EV TO
             0.1 EV AND ITS ABSOLUTE VALUE AT 0.0253 EV -
FACILITY   (CHOPS)    BR1-REACTOR WITH SLOW CHOPPER.
METHOD     (TOF  )    TIME OF FLIGHT, 2 METER FLIGHT PATH,
            25 CHANNEL TIME ANALYSER.
DETECTOR   (FISCH)    4PI IONIZATION CHAMBER FOR FISSION
           .2PI B-10 IONIZATION CHAMBER FOR NEUTRON FLUX.
MONITOR    (79-AU-197(N,G)79-AU-198,,SIG)
            = 97.7 +- 0.5 BARNS FOR 2200 METER/SEC
            NEUTRONS. CALIBRATION OF B-10 IONIZATION
            CHAMBER RELATIVE TO AU-197(N,GAMMA).
           .DESCRIPTION OF FISSION CHAMBER CALIBRATION
            IN NUCL. INSTRUM. METH. 7, 145 (1960).
            DETAILED DISCUSSION IN J.NUCL.EN.,15,165.
PART-DET   (FF   )    FISSION FRAGMENTS
STATUS     .TAKEN FROM J.NUCL.EN./AB,15(1961)15.
HISTORY    (721005C)
           (740521E)
ERR-ANALYS .STANDARD DEVIATION GIVEN, DETAILS IN J.NUCL.EN.
ENDBIB              23
COMMON               2          3
MONIT      MONIT-ERR
B          B
 9.7700E+01 5.0000E-01
ENDCOMMON            3
ENDSUBENT           30
SUBENT        20189002     831121              20050926       0000
BIB                  3          6
REACTION   (92-U-235(N,F),,SIG)
FLAG       (1.)       2200 METER/SEC VALUE DERIVED FROM FIT TO
            25 VALUES MEASURED IN THE ENERGY RANGE OF
            0.011 TO 0.119 EV.
HISTORY    (721005C)
           (740521E)
ENDBIB               6
NOCOMMON             0          0
DATA                 4         26
EN         DATA       DATA-ERR   FLAG
MEV        B          B          NO-DIM
 1.1000E-08 9.0340E+02 2.7500E+01
 1.1600E-08 8.9840E+02 2.4000E+01
 1.2400E-08 8.8890E+02 2.2300E+01
 1.3500E-08 8.5580E+02 2.0400E+01
 1.4000E-08 7.9220E+02 1.9300E+01
 1.5000E-08 7.8480E+02 1.9100E+01
 1.6100E-08 7.7840E+02 1.7600E+01
 1.7300E-08 7.4230E+02 1.5800E+01
 1.8600E-08 7.0420E+02 1.3900E+01
 2.0100E-08 6.5970E+02 1.2000E+01
 2.1800E-08 6.2920E+02 1.0800E+01
 2.3700E-08 6.2290E+02 1.0300E+01
 2.5300E-08 5.8700E+02 6.0000E+00 1.0000E+00
 2.5800E-08 5.7990E+02 9.3000E+00
 2.8300E-08 5.4500E+02 8.4000E+00
 3.1100E-08 5.2760E+02 7.9000E+00
 3.4400E-08 4.8350E+02 7.2000E+00
 3.8200E-08 4.6370E+02 6.8000E+00
 4.2700E-08 4.2670E+02 6.1000E+00
 4.8000E-08 4.0620E+02 5.8000E+00
 5.4400E-08 3.7560E+02 5.3000E+00
 6.2200E-08 3.4150E+02 4.8000E+00
 7.1700E-08 3.0860E+02 4.5000E+00
 8.3700E-08 2.7750E+02 4.2000E+00
 9.8800E-08 2.5310E+02 4.2000E+00
 1.1860E-07 2.4650E+02 4.5000E+00
ENDDATA             28
ENDSUBENT           39
ENDENTRY             2
