ENTRY            A1130   19990319   19990505
SUBENT        A1130001   19990319   19990505
BIB                 10         14
INSTITUTE  (2SWTETH)
REFERENCE  (J,NP/A,287,(2),237,197709)
AUTHOR     (R.A.HARDEKOPF,W.GRUEBLER,B.JENNEY,V.KONIG,R.RISLER,
           H.R.BURGI,J.NURZYNSKI)
TITLE      Investigation of the 1+ resonance in 6Li by d-alpha
           scattering between 6 and 7 MeV
FACILITY   (VDGT)
SAMPLE     A gas target, 16 mm in diameter
METHOD     (PHD)
DETECTOR   (SOLST) Surface-barrier
ERR-ANALYS (ANG2-ERR) Scale error
           (DATA-ERR1) Relative error
HISTORY    (19810526C) Compilation produced by Arzamas RFNC-VNIIEF
           (19990214U)CNPD: corrected 4-dig. year and lower cases.
ENDBIB              14
COMMON               2          3
ANG2-ERR   DATA-ERR1
PER-CENT   PER-CENT
  2.0        2.0
ENDCOMMON            3
ENDSUBENT           21
SUBENT        A1130002   19990319   19990505
BIB                  3          4
REACTION   (2-HE-4(D,EL)2-HE-4,,DA,,,EXP)
ERR-ANALYS (ANG-ERR) Digitizing error
           (DATA-ERR) Digitizing error
STATUS     (CURVE) FIG 1
ENDBIB               4
COMMON               1          3
ANG-ERR
ADEG
  1.
ENDCOMMON            3
DATA                 4        204
EN         ANG-CM     DATA-CM    DATA-ERR
MEV        ADEG       MB/SR      MB/SR
     6.04      16.87     742.5       13.12
     6.04      20.78     487.8        8.616
     6.04      24.73     349.7        6.178
     6.04      28.05     283.4        5.007
     6.04      32.05     229.7        4.058
     6.04      34.68     186.2        3.289
     6.04      41.33     126.7        2.237
     6.04      49.34      87.69       1.549
     6.04      56.68      61.78       1.091
     6.04      62.69      46.69       0.8247
     6.04      69.47      45.88       0.8104
     6.04      76.97      49.21       0.8692
     6.04      83.82      56.6        0.9999
     6.04      89.96      60.71       1.072
     6.04      95.42      65.12       1.15
     6.04     102.2       67.44       1.191
     6.04     107.        69.84       1.234
     6.04     112.4       73.61       1.3
     6.04     117.2       80.34       1.419
     6.04     122.7       92.42       1.633
     6.04     127.5       99.13       1.751
     6.04     132.3      116.         2.05
     6.04     133.       126.7        2.237
     6.04     135.8      135.9        2.4
     6.04     135.9      145.7        2.574
     6.04     143.3      176.7        3.121
     6.04     148.2      214.2        3.784
     6.04     153.       255.2        4.508
     6.04     158.5      283.4        5.007
     6.04     163.9      314.8        5.562
     6.24      17.79     614.7       10.78
     6.24      21.03     412.2        7.226
     6.24      24.99     301.5        5.285
     6.24      28.99     244.7        4.29
     6.24      30.94     198.7        3.482
     6.24      35.63     164.1        2.877
     6.24      42.27     110.         1.929
     6.24      48.91      73.78       1.293
     6.24      55.55      50.34       0.8824
     6.24      62.94      40.86       0.7163
     6.24      70.42      41.58       0.7289
     6.24      77.23      43.05       0.7546
     6.24      82.73      51.22       0.8979
     6.24      89.56      56.85       0.9965
     6.24      95.01      58.86       1.032
     6.24     101.8       60.94       1.068
     6.24     107.2       60.94       1.068
     6.24     112.        65.33       1.145
     6.24     116.8       65.33       1.145
     6.24     122.3       75.07       1.316
     6.24     127.1       87.78       1.539
     6.24     130.5       99.13       1.738
     6.24     132.6      106.3        1.863
     6.24     135.3      118.         2.068
     6.24     137.4      128.7        2.255
     6.24     142.9      150.4        2.637
     6.24     147.7      172.9        3.03
     6.24     152.6      213.         3.733
     6.24     158.       244.7        4.29
     6.24     162.2      271.6        4.761
     6.44      17.3      635.4       11.18
     6.44      21.22     425.4        7.485
     6.44      24.51     321.8        5.662
     6.44      27.83     261.         4.593
     6.44      31.15     215.4        3.791
     6.44      33.78     171.7        3.022
     6.44      41.78     113.         1.988
     6.44      48.4       71.79       1.263
     6.44      55.74      50.65       0.8912
     6.44      63.81      41.08       0.7229
     6.44      69.92      41.08       0.7229
     6.44      76.75      45.61       0.8026
     6.44      82.92      52.44       0.9228
     6.44      89.06      56.23       0.9895
     6.44      95.88      60.3        1.061
     6.44     102.        62.44       1.099
     6.44     108.1       62.44       1.099
     6.44     112.9       63.54       1.118
     6.44     117.6       64.66       1.138
     6.44     121.8       74.34       1.308
     6.44     127.3       85.47       1.504
     6.44     132.7      100.         1.76
     6.44     135.5      113.         1.988
     6.44     138.3      123.3        2.169
     6.44     141.       146.8        2.583
     6.44     147.9      177.8        3.129
     6.44     152.7      211.7        3.725
     6.44     157.5      235.1        4.137
     6.44     163.       261.         4.593
     6.66      20.82     389.9        6.86
     6.66      28.1      235.1        4.136
     6.66      31.4      184.1        3.24
     6.66      35.4      149.4        2.628
     6.66      42.03      98.27       1.729
     6.66      49.32      60.3        1.061
     6.66      55.98      42.54       0.7485
     6.66      63.38      35.73       0.6287
     6.66      70.88      38.31       0.6741
     6.66      77.04      43.29       0.7616
     6.66      83.21      50.65       0.8911
     6.66      90.05      56.23       0.9894
     6.66      95.49      58.23       1.025
     6.66     100.9       56.23       0.9894
     6.66     107.7       58.23       1.025
     6.66     111.8       58.23       1.025
     6.66     117.2       58.23       1.025
     6.66     122.        64.66       1.138
     6.66     126.9       79.71       1.402
     6.66     132.3       91.65       1.613
     6.66     135.8       98.27       1.729
     6.66     136.5      113.         1.988
     6.66     143.4      139.3        2.451
     6.66     148.2      163.         2.868
     6.66     153.       197.4        3.474
     6.66     155.8      223.1        3.925
     6.66     162.6      243.4        4.283
     6.76      17.09    1630.        28.68
     6.76      20.34    1130.        19.88
     6.76      23.64     869.7       15.3
     6.76      27.61     657.9       11.58
     6.76      30.95     572.2       10.07
     6.76      35.61     440.5        7.75
     6.76      40.88     284.8        5.011
     6.76      48.88     194.         3.414
     6.76      55.52     129.9        2.286
     6.76      62.23     105.4        1.854
     6.76      70.39     107.2        1.887
     6.76      76.56     123.3        2.169
     6.76      82.08     154.7        2.721
     6.76      89.57     163.         2.868
     6.76      95.03     174.8        3.075
     6.76     101.8      174.8        3.075
     6.76     106.6      168.8        2.969
     6.76     112.       171.7        3.022
     6.76     116.8      174.8        3.075
     6.76     122.2      187.4        3.297
     6.76     127.       219.2        3.857
     6.76     131.8      252.1        4.435
     6.76     137.4      305.4        5.373
     6.76     142.2      383.1        6.741
     6.76     147.       456.1        8.026
     6.76     152.5      543.1        9.555
     6.76     157.3      613.6       10.8
     6.76     162.1      681.3       11.99
     6.85      18.07     225.7        3.987
     6.85      21.32     153.6        2.713
     6.85      24.63     120.2        2.123
     6.85      27.92      90.82       1.604
     6.85      31.92      74.91       1.323
     6.85      35.23      63.99       1.13
     6.85      35.26      59.66       1.054
     6.85      42.53      37.84       0.6684
     6.85      49.81      22.77       0.4022
     6.85      56.46      15.77       0.2785
     6.85      63.18      12.78       0.2257
     6.85      69.99      13.71       0.2421
     6.85      76.87      16.91       0.2987
     6.85      82.35      19.45       0.3436
     6.85      89.19      21.61       0.3817
     6.85      95.31      22.38       0.3953
     6.85     101.4       22.38       0.3953
     6.85     107.5       22.77       0.4022
     6.85     112.3       20.86       0.3685
     6.85     117.7       22.38       0.3953
     6.85     123.2       24.42       0.4314
     6.85     127.3       29.61       0.5231
     6.85     132.1       34.07       0.6017
     6.85     137.6       39.88       0.7044
     6.85     142.5       49.21       0.8691
     6.85     146.6       58.62       1.035
     6.85     152.8       68.63       1.212
     6.85     157.6       81.76       1.444
     6.85     163.1       90.82       1.604
     7.05      17.55     549.3        9.763
     7.05      20.8      372.8        6.626
     7.05      24.78     291.3        5.177
     7.05      28.07     219.7        3.905
     7.05      31.41     190.8        3.392
     7.05      34.72     154.5        2.745
     7.05      34.73     149.1        2.65
     7.05      42.71      97.69       1.736
     7.05      50.01      61.78       1.098
     7.05      56.65      41.2        0.7322
     7.05      62.7       35.16       0.6248
     7.05      70.88      37.72       0.6705
     7.05      77.76      47.43       0.8431
     7.05      83.24      53.66       0.9537
     7.05      88.72      61.78       1.098
     7.05      95.53      64.         1.138
     7.05     101.7       66.3        1.178
     7.05     107.1       64.         1.138
     7.05     113.1       57.58       1.023
     7.05     117.2       57.58       1.023
     7.05     122.7       62.88       1.118
     7.05     128.1       67.48       1.199
     7.05     131.6       79.07       1.405
     7.05     133.        81.91       1.456
     7.05     136.4       89.45       1.59
     7.05     137.8       95.98       1.706
     7.05     143.3      116.5        2.071
     7.05     147.4      139.         2.47
     7.05     152.9      165.7        2.946
     7.05     158.4      190.8        3.392
     7.05     162.6      223.6        3.975
ENDDATA            206
ENDSUBENT          219
ENDENTRY             2
