ENTRY            A1178   19990319   19990505
SUBENT        A1178001   19990319   19990505
BIB                  8         12
INSTITUTE  (2SWTETH)
REFERENCE  (J,NP/A,193,(1),129,197210)
AUTHOR     (W.GRUEBLER,V.KONIG,P.A.SCHMELZBACH,R.RISLER,R.E.WHITE,
           P.MARMIER)
TITLE      Investigation of excited states of 4He via the
           2H(d,p)3H and 2H(d,n)3He reactions using a polarized
           deuteron beam
FACILITY   (VDGT)
SAMPLE     A gas target
DETECTOR   (SOLST) Silicon surface-barrier
HISTORY    (19820303C) Compilation produced by Arzamas RFNC-VNIIEF
           (19990220U)CNPD: corrected 4-dig. year and lower cases.
ENDBIB              12
NOCOMMON
ENDSUBENT           15
SUBENT        A1178002   19990319   19990505
BIB                  3          4
REACTION   (1-H-2(D,P)1-H-3,,DA,,,EXP)
ERR-ANALYS (ANG-ERR) Digitizing error
           (DATA-ERR) Digitizing error
STATUS     (CURVE) Fig 1
ENDBIB               4
COMMON               2          3
ANG-ERR    DATA-ERR
ADEG       MB/SR
  1.        0.1
ENDCOMMON            3
DATA                 3        171
EN         ANG-CM     DATA-CM
MEV        ADEG       MB/SR
     3.        27.4       12.31
     3.        36.18       7.637
     3.        44.32       5.061
     3.        55.56       4.189
     3.        64.12       4.366
     3.        72.77       5.113
     3.        81.37       5.574
     3.        88.98       5.753
     3.        97.48       5.55
     3.       105.         4.969
     3.       111.5        4.484
     3.       120.         4.281
     3.       126.7        4.461
     3.       134.5        5.684
     3.       140.5        7.669
     3.       146.6       10.6
     3.       150.9       14.02
     3.       157.1       17.81
     3.       163.6       22.55
     4.        27.49      11.66
     4.        37.11       6.285
     4.        47.11       3.397
     4.        57.52       3.286
     4.        65.24       4.231
     4.        74.86       5.174
     4.        82.51       5.641
     4.        92.02       5.819
     4.        99.55       5.424
     4.       108.9        4.644
     4.       114.5        3.869
     4.       121.1        3.476
     4.       128.7        3.752
     4.       133.6        4.893
     4.       139.6        7.374
     4.       146.8       10.52
     4.       151.2       14.63
     4.       157.6       19.99
     4.       163.        24.38
     5.        29.77      10.47
     5.        38.3        4.819
     5.        48.41       2.892
     5.        57.95       3.258
     5.        66.67       4.389
     5.        75.36       5.329
     5.        83.97       5.791
     5.        92.5        5.777
     5.       101.         5.381
     5.       109.3        4.316
     5.       116.8        3.54
     5.       123.3        2.956
     5.       130.         3.135
     5.       135.9        4.366
     5.       142.         6.934
     5.       149.2       10.55
     5.       151.9       15.41
     5.       158.6       21.13
     5.       164.2       26.37
     6.        28.71       9.278
     6.        39.23       4.122
     6.        48.43       2.488
     6.        59.         3.327
     6.        67.72       4.454
     6.        77.34       5.294
     6.        85.93       5.661
     6.        95.38       5.454
     6.       101.9        5.063
     6.       110.3        4.287
     6.       116.8        3.325
     6.       125.3        2.74
     6.       131.         2.92
     6.       136.9        4.148
     6.       142.9        6.231
     6.       149.3       10.6
     6.       153.1       15.92
     6.       159.7       21.71
     6.       164.4       27.13
     7.        30.52       8.644
     7.        41.09       3.466
     7.        50.41       2.4
     7.        60.98       3.339
     7.        69.69       4.472
     7.        79.28       5.222
     7.        88.82       5.589
     7.        96.38       5.482
     7.       105.8        4.989
     7.       112.3        4.119
     7.       120.7        3.245
     7.       126.3        2.567
     7.       133.9        2.555
     7.       139.8        4.171
     7.       145.9        6.838
     7.       151.3       10.94
     7.       156.2       18.2
     7.       160.7       23.07
     7.       166.4       29.36
     8.        30.75       7.582
     8.        40.14       2.831
     8.        51.22       2.147
     8.        60.79       3.36
     8.        71.24       4.286
     8.        80.7        4.93
     8.        89.16       5.199
     8.        97.54       4.912
     8.       105.9        4.59
     8.       113.2        3.922
     8.       119.6        3.153
     8.       126.         2.383
     8.       132.6        2.465
     8.       138.4        3.779
     8.       146.4        5.509
     8.       151.8       10.569
     8.       156.6       15.05
     8.       161.5       22.38
     8.       166.2       27.86
     9.        30.75       6.937
     9.        40.16       2.477
     9.        52.37       2.83
     9.        62.79       3.566
     9.        71.36       4.399
     9.        80.79       4.853
     9.        90.15       4.928
     9.        98.53       4.817
     9.       105.9        4.519
     9.       115.2        3.934
     9.       121.6        3.07
     9.       128.         2.396
     9.       133.6        2.385
     9.       141.3        3.597
     9.       147.4        6.326
     9.       152.         9.569
     9.       157.8       16.32
     9.       162.7       22.45
     9.       167.6       28.4
    10.        32.41       6.046
    10.        42.84       2.048
    10.        52.22       2.219
    10.        62.71       3.334
    10.        72.18       3.978
    10.        81.59       4.338
    10.        90.94       4.414
    10.        98.4        4.304
    10.       106.8        4.193
    10.       115.1        3.609
    10.       122.4        2.836
    10.       128.8        2.161
    10.       136.3        2.051
    10.       142.1        3.176
    10.       147.3        5.722
    10.       152.8       10.162
    10.       158.8       17.87
    10.       162.7       22.55
    10.       167.7       29.07
    11.5       31.28       5.211
    11.5       41.86       2.085
    11.5       53.2        2.72
    11.5       63.66       3.64
    11.5       73.11       4.185
    11.5       82.43       4.072
    11.5       91.75       3.939
    11.5      101.1        4.034
    11.5      108.6        4.113
    11.5      116.         3.721
    11.5      122.4        3.05
    11.5      128.8        2.427
    11.5      136.2        2.081
    11.5      142.         3.104
    11.5      148.2        5.82
    11.5      152.9       10.608
    11.5      158.4       14.925
    11.5      163.6       21.97
    11.5      168.4       27.51
ENDDATA            173
ENDSUBENT          186
SUBENT        A1178003   19990319   19990505
BIB                  3          4
REACTION   (1-H-2(D,P)1-H-3,,SIG,,,EXP)
ERR-ANALYS (EN-ERR) Digitizing error
           (DATA-ERR) Digitizing error
STATUS     (CURVE) Fig 2
ENDBIB               4
COMMON               2          3
EN-ERR     DATA-ERR
MEV        MB
 0.05       0.5
ENDCOMMON            3
DATA                 2          9
EN         DATA
MEV        MB
     3.103     88.79
     4.098     87.5
     5.048     86.23
     6.042     83.78
     6.993     84.85
     7.942     81.81
     8.891     79.37
     9.976     76.9
    11.51      72.64
ENDDATA             11
ENDSUBENT           24
ENDENTRY             3
