ENTRY            A1194   19990319   19990505
SUBENT        A1194001   19990319   19990505
BIB                  9         12
INSTITUTE  (4UZ UZB)
REFERENCE  (J,IZV,42,199,197801)
AUTHOR     (M.P.GOLD'BERG,Z.P.KISELEVA,B.G.SKORODUMOV,
           JU.N.TALANIN,I.I.TRINKIN)
TITLE      Proton energy spectrum  from D(p,p)np reaction
FACILITY   (CYCLO)
SAMPLE     Gas deuterium target
METHOD     (EDE,EXTB)
DETECTOR   (TELES) DeltaE-E telescope on base of silicon detectors
HISTORY    (19840220C) Compilation produced by Arzamas RFNC-VNIIEF
           (19970822A) Compiler checked reference
           (19990220U)CNPD: corrected 4-dig. year and lower cases.
ENDBIB              12
NOCOMMON
ENDSUBENT           15
SUBENT        A1194002   19990319   19990505
BIB                  3          4
REACTION   (1-H-2(P,N+P)1-H-1,,DA/DE,P,,EXP)
ERR-ANALYS (EN-ERR) Digitizing error
           (DATA-ERR) From graph bars (statistic) and digitizing
STATUS     (CURVE) fig. 1
ENDBIB               4
COMMON               2          3
EN-ERR     ANG
MEV        ADEG
 0.05       40.
ENDCOMMON            3
DATA                 4        216
EN         E          DATA       DATA-ERR
MEV        MEV        MB/SR/MEV  MB/SR/MEV
     1.939     13.2        7.732      0.3184
     2.08      13.2        7.416      0.2729
     2.211     13.2        7.736      0.2729
     2.368     13.2        6.374      0.2274
     2.503     13.2        6.467      0.1819
     2.589     13.2        6.742      0.2282
     2.712     13.2        7.472      0.3184
     2.82      18.5        6.543      0.2734
     2.844     13.2        7.701      0.2729
     2.965     18.5        6.046      0.2734
     2.967     13.2        8.431      0.4101
     3.031     14.3        7.154      0.2728
     3.069     13.2        7.751      0.2736
     3.132     18.5        6.821      0.2271
     3.248     13.2        7.89       0.2729
     3.266     14.3        6.614      0.3173
     3.272     18.5        6.551      0.228
     3.322     15.6        6.46       0.229
     3.358     14.3        6.524      0.2728
     3.382     13.2        7.983      0.2729
     3.45      18.5        6.736      0.228
     3.477     13.2        7.712      0.3646
     3.495     14.3        6.436      0.3173
     3.502     15.6        6.463      0.2274
     3.566     14.3        7.571      0.3181
     3.592     15.6        6.51       0.2274
     3.622     13.2        7.123      0.2729
     3.63      18.5        6.74       0.2271
     3.714     18.5        7.105      0.2742
     3.717     14.3        6.667      0.2267
     3.724     15.6        6.74       0.1819
     3.788     13.2        8.035      0.3638
     3.794     14.3        7.439      0.3181
     3.821     15.6        6.332      0.2282
     3.878     13.2        8.037      0.3199
     3.939     18.5        7.154      0.2726
     3.95      15.6        6.744      0.2282
     3.965     14.3        8.032      0.3173
     4.009     18.5        8.292      0.3188
     4.021     13.2        7.584      0.2729
     4.087     15.6        6.655      0.2274
     4.109     14.3        7.535      0.3173
     4.154     13.2        7.723      0.3184
     4.171     15.6        7.021      0.2274
     4.204     18.5        7.523      0.2726
     4.245     14.3        7.538      0.272
     4.248     13.2        7.543      0.2282
     4.317     15.6        6.386      0.1819
     4.361     18.5        6.344      0.2271
     4.377     14.3        7.721      0.3173
     4.402     15.6        6.752      0.1819
     4.417     13.2        8.228      0.2729
     4.49      18.5        6.71       0.2734
     4.497     15.6        6.435      0.1819
     4.507     14.3        8.041      0.3173
     4.553     13.2        8.23       0.3191
     4.587     15.6        6.482      0.1827
     4.599     14.3        7.952      0.3181
     4.663     18.5        7.122      0.2271
     4.683     15.6        6.12       0.1819
     4.698     13.2        7.641      0.0462
     4.749     14.3        7.138      0.2267
     4.771     15.6        6.303      0.1827
     4.776     13.2        8.416      0.3184
     4.789     18.5        7.67       0.3188
     4.871     14.3        7.911      0.3635
     4.883     13.2        7.417      0.3191
     4.903     15.6        6.488      0.2282
     4.945     18.5        6.537      0.2726
     4.997     14.3        8.458      0.3635
     4.998     15.6        6.216      0.2274
     5.063     13.2        7.465      0.3638
     5.124     18.5        6.631      0.2726
     5.137     15.6        6.037      0.1819
     5.174     15.6        6.538      0.2282
     5.182     14.3        8.234      0.4072
     5.2       13.2        7.377      0.2729
     5.217     14.3        8.824      0.3181
     5.246     18.5        7.406      0.2734
     5.328     13.2        7.788      0.2282
     5.36      15.6        6.222      0.1819
     5.368     14.3        7.92       0.3181
     5.405     18.5        6.091      0.228
     5.445     15.6        6.542      0.2274
     5.475     14.3        6.97       0.2728
     5.517     13.2        7.291      0.2721
     5.538     18.5        6.229      0.3643
     5.575     15.6        6.863      0.1819
     5.592     13.2        8.248      0.5465
     5.655     14.3        7.018      0.3181
     5.665     15.6        6.865      0.2282
     5.711     18.5        6.687      0.3643
     5.734     13.2        7.886      0.4556
     5.744     14.3        7.11       0.2728
     5.762     15.6        6.457      0.1827
     5.875     18.5        7.599      0.2726
     5.879     13.2        7.297      0.5465
     5.898     15.6        6.459      0.1811
     5.924     14.3        7.114      0.2728
     5.978     18.5        6.874      0.2734
     5.995     15.6        6.097      0.1819
     6.025     13.2        6.662      0.501
     6.057     14.3        7.252      0.2275
     6.082     15.6        6.28       0.2274
     6.163     18.5        6.65       0.2726
     6.168     15.6        6.555      0.2737
     6.197     14.3        7.028      0.3181
     6.219     13.2        5.892      0.5458
     6.298     18.5        6.698      0.3188
     6.313     15.6        5.966      0.2266
     6.317     13.2        5.393      0.5018
     6.329     14.3        7.257      0.272
     6.399     15.6        6.24       0.2274
     6.414     13.2        4.986      0.2282
     6.425     14.3        6.896      0.2728
     6.437     18.5        6.519      0.3188
     6.492     15.6        6.06       0.2729
     6.548     13.2        5.124      0.2736
     6.561     14.3        6.898      0.2267
     6.574     15.6        6.562      0.2274
     6.618     18.5        6.522      0.318
     6.713     14.3        5.948      0.4088
     6.725     15.6        5.7        0.2274
     6.735     13.2        4.718      0.2274
     6.754     18.5        6.479      0.3188
     6.828     13.2        4.583      0.2729
     6.852     14.3        5.724      0.4088
     6.856     15.6        5.975      0.2274
     6.882     18.5        6.891      0.2734
     6.959     13.2        4.813      0.2736
     6.992     14.3        5.5        0.4541
     6.998     15.6        5.568      0.1819
     7.07      18.5        6.53       0.2263
     7.087     15.6        5.661      0.4093
     7.095     13.2        4.815      0.5465
     7.154     18.5        6.85       0.3188
     7.176     14.3        5.321      0.272
     7.226     15.6        5.436      0.4532
     7.277     13.2        4.727      0.501
     7.321     15.6        5.21       0.5003
     7.376     13.2        4.228      0.5465
     7.378     18.5        6.945      0.3172
     7.412     14.3        4.736      0.272
     7.464     18.5        7.219      0.3188
     7.466     15.6        4.621      0.1827
     7.473     13.2        3.82       0.2282
     7.566     15.6        4.077      0.2282
     7.612     14.3        3.606      0.1813
     7.613     18.5        6.495      0.318
     7.621     13.2        3.05       0.1827
     7.644     14.3        4.377      0.5448
     7.706     15.6        3.806      0.1364
     7.709     13.2        3.233      0.1819
     7.786     14.3        4.017      0.544
     7.789     18.5        6.726      0.2717
     7.8       15.6        3.58       0.0917
     7.861     13.2        2.189      0.2729
     7.885     18.5        6.409      0.2726
     7.889     15.6        3.718      0.1819
     7.924     14.3        3.883      0.4995
     7.964     18.5        7.047      0.2734
     7.98      15.6        3.674      0.1827
     8.024     13.2        0.5541     0.1364
     8.116     15.6        3.631      0.4093
     8.12      13.2        0.2373     0.1827
     8.15      14.3        3.887      0.4987
     8.157     18.5        6.414      0.3188
     8.197     14.3        3.797      0.5003
     8.297     15.6        3.634      0.4093
     8.325     18.5        7.099      0.2726
     8.387     15.6        3.636      0.4101
     8.468     18.5        6.693      0.2726
     8.477     15.6        3.638      0.3638
     8.482     14.3        2.986      0.1908
     8.575     14.3        2.806      0.2275
     8.615     15.6        3.503      0.3638
     8.649     18.5        6.65       0.4543
     8.682     14.3        1.901      0.136
     8.71      15.6        3.278      0.3184
     8.796     18.5        6.062      0.5005
     8.803     15.6        3.097      0.3192
     8.903     15.6        2.553      0.1372
     8.903     14.3        0.736      0.1258
     8.946     15.6        2.69       0.1827
     8.986     18.5        5.566      0.5005
     9.025     14.3        0.3654     0.0915
     9.042     15.6        2.328      0.1364
     9.12      14.3        0.095      0.0907
     9.125     18.5        5.387      0.3634
     9.178     15.6        2.33       0.1819
     9.309     18.5        5.163      0.3634
     9.326     15.6        1.605      0.1811
     9.335     15.6        1.059      0.1827
     9.406     18.5        4.801      0.3188
     9.481     15.6        0.4248     0.1372
     9.644     18.5        4.169      0.3634
     9.667     15.6        0.1551     0.1819
     9.727     18.5        4.58       0.318
     9.756     15.6        0.2476     0.1364
     9.849     15.6        0.067      0.1372
     9.918     18.5        4.038      0.2726
    10.05      18.5        4.041      0.5906
    10.23      18.5        4.18       0.5451
    10.37      18.5        4.001      0.5451
    10.55      18.5        4.05       0.5451
    10.69      18.5        4.052      0.2726
    10.82      18.5        3.919      0.3634
    10.93      18.5        3.102      0.3188
    11.1       18.5        3.696      0.1817
    11.16      18.5        3.016      0.3188
    11.37      18.5        3.474      0.2734
    11.48      18.5        2.885      0.2734
    11.66      18.5        2.843      0.1825
    11.81      18.5        1.71       0.228
    12.        18.5        1.623      0.2726
    12.1       18.5        1.079      0.2734
ENDDATA            218
ENDSUBENT          231
ENDENTRY             2
