ENTRY            13144   20200116   20200313   20200310       1462
SUBENT        13144001   20200116   20200313   20200310       1462
BIB                  7         13
TITLE      Selective Sequential 2n Decay of 14C* States Populated
           by 13C+n
AUTHOR     (D.A.Resler,R.O.Lane,H.D.Knox)
REFERENCE  (J,PR/C,35,855,1987)
           #doi:10.1103/PhysRevC.35.855
INSTITUTE  (1USAOHO)
FACILITY   (VDGT,1USAOHO) Beam-swinger facility.
METHOD     (TOF)
HISTORY    (19881115C)
           (20141124A) BP: Updated to new date formats, lower
                      case. Corrections according last EXFOR rules
                       and Dict. Added doi, digitized Fig. 1.
           (20200103A) OS. REACTION in sub.3 corrected
ENDBIB              13
NOCOMMON             0          0
ENDSUBENT           16
SUBENT        13144002   20141124   20150311   20150212       1404
BIB                  5          7
REACTION   (6-C-13(N,2N)6-C-12,,SIG)
INC-SOURCE (P-T)
ANALYSIS   (INTAD) When the complete distribution from an older,
           unpublished experiment was integrated over angle,
           authors obtained a reported value.
ERR-ANALYS (DATA-ERR) No details on source of uncertainties.
STATUS     (TABLE) page 856 (text)
ENDBIB               7
NOCOMMON             0          0
DATA                 3          1
EN         DATA       DATA-ERR
MEV        MB         MB
       8.24        98.         3.
ENDDATA              3
ENDSUBENT           15
SUBENT        13144003   20200116   20200313   20200310       1462
BIB                  4          5
REACTION   (6-C-13(N,X)0-NN-1,,DA/DE)
INC-SOURCE (D-D)
STATUS     (CURVE) Fig.1, page 856; continuous curves, 50 keV
           bins were adjusted to 1 keV.
HISTORY    (20200103A) REACTION changed from (N,2N) to (N,X)0-NN-1
ENDBIB               5
COMMON               1          3
ANG
ADEG
       15.
ENDCOMMON            3
DATA                 3        286
EN         E          DATA
MEV        MEV        MB/SR/MEV
       8.09   2.571E+0   3.36E-03
       8.09   2.613E+0   1.54E-03
       8.09   2.669E+0   3.06E-03
       8.09   2.683E+0    5.2E-03
       8.09   2.697E+0   7.96E-03
       8.09   2.711E+0    9.8E-03
       8.09   2.711E+0  1.256E-02
       8.09   2.753E+0  1.286E-02
       8.09   2.780E+0  1.102E-02
       8.09   2.794E+0   7.96E-03
       8.09   2.794E+0    4.6E-03
       8.09   2.822E+0   6.12E-03
       8.09   2.836E+0   9.18E-03
       8.09   2.850E+0  1.164E-02
       8.09   2.864E+0    1.5E-02
       8.09   2.962E+0  1.776E-02
       8.09   3.017E+0   1.99E-02
       8.09   3.073E+0   1.99E-02
       8.09   3.087E+0   1.47E-02
       8.09   3.115E+0  1.132E-02
       8.09   3.157E+0   8.58E-03
       8.09   3.254E+0   7.96E-03
       8.09   3.310E+0    9.8E-03
       8.09   3.380E+0   7.04E-03
       8.09   3.408E+0    9.8E-03
       8.09   3.436E+0  1.316E-02
       8.09   3.491E+0  1.806E-02
       8.09   3.533E+0  1.378E-02
       8.09   3.589E+0  1.562E-02
       8.09   3.645E+0  1.224E-02
       8.09   3.700E+0  1.194E-02
       8.09   3.742E+0  1.072E-02
       8.09   3.798E+0  1.592E-02
       8.09   3.840E+0  1.684E-02
       8.09   3.937E+0     3.E-02
       8.09   4.021E+0  5.846E-02
       8.09   4.091E+0  9.276E-02
       8.09   4.118E+0    0.11296
       8.09   4.132E+0    0.11786
       8.09   4.216E+0     0.1197
       8.09   4.286E+0    0.11112
       8.09   4.328E+0    0.10194
       8.09   4.355E+0   7.47E-02
       8.09   4.439E+0   4.47E-02
       8.09   4.481E+0  2.418E-02
       8.09   4.509E+0  1.378E-02
       8.09   4.620E+0   5.82E-03
       8.09   4.676E+0   1.04E-02
       8.09   4.760E+0  1.224E-02
       8.09   4.801E+0  2.418E-02
       8.09   4.857E+0   2.97E-02
       8.09   4.955E+0  3.368E-02
       8.09   5.024E+0  2.756E-02
       8.09   5.066E+0  1.744E-02
       8.09   5.094E+0   8.26E-03
       8.09   5.108E+0   3.68E-03
       8.09   5.164E+0   2.76E-03
       8.09   5.247E+0   3.36E-03
       8.09   5.359E+0    6.2E-04
       8.09   5.429E+0   2.44E-03
       8.09   5.540E+0   2.14E-03
       8.09   5.666E+0    6.2E-04
       8.09   5.721E+0    6.2E-04
       8.09   5.819E+0   2.76E-03
       8.09   5.902E+0    6.2E-04
       8.09   6.028E+0   2.14E-03
       8.09   6.098E+0   4.28E-03
       8.09   6.153E+0    9.2E-04
       8.09   6.223E+0    6.2E-04
       8.09   6.279E+0   3.06E-03
       8.09   6.432E+0   1.54E-03
       8.09   6.488E+0   3.36E-03
       8.09   6.627E+0   3.06E-03
       8.09   6.683E+0    6.2E-04
       8.09   6.739E+0   6.74E-03
       8.09   6.808E+0   3.36E-03
       8.09   6.948E+0   9.48E-03
       8.09   7.003E+0  1.102E-02
       8.09   7.045E+0  1.654E-02
       8.09   7.171E+0  1.868E-02
       8.09   7.352E+0  4.684E-02
       8.09   7.408E+0  5.204E-02
       8.09   7.463E+0  5.234E-02
       8.09   7.505E+0   7.96E-02
       8.09   7.589E+0     0.1151
       8.09   7.645E+0    0.11908
       8.09   8.286E+0    0.11878
       8.09   8.328E+0  9.734E-02
       8.09   8.355E+0  6.826E-02
       8.09   8.383E+0   4.04E-02
       8.09   8.425E+0  1.562E-02
       8.09   8.481E+0   2.76E-03
       8.09   8.564E+0    9.2E-04
       8.09   8.704E+0    9.2E-04
       8.24   2.568E+0  1.974E-02
       8.24   2.609E+0  2.558E-02
       8.24   2.652E+0   1.82E-02
       8.24   2.653E+0  1.328E-02
       8.24   2.682E+0    5.9E-03
       8.24   2.737E+0  1.174E-02
       8.24   2.778E+0   1.73E-02
       8.24   2.848E+0  1.114E-02
       8.24   2.861E+0  1.914E-02
       8.24   2.887E+0  3.176E-02
       8.24   2.926E+0  5.114E-02
       8.24   2.978E+0  7.422E-02
       8.24   3.031E+0  8.778E-02
       8.24   3.063E+0  6.132E-02
       8.24   3.073E+0  8.686E-02
       8.24   3.136E+0  4.102E-02
       8.24   3.182E+0  1.916E-02
       8.24   3.197E+0    8.7E-03
       8.24   3.309E+0    4.1E-03
       8.24   3.406E+0   1.15E-02
       8.24   3.519E+0   2.88E-03
       8.24   3.588E+0    6.9E-03
       8.24   3.769E+0   5.98E-03
       8.24   3.894E+0  1.214E-02
       8.24   3.977E+0  1.062E-02
       8.24   4.045E+0  2.292E-02
       8.24   4.112E+0  4.354E-02
       8.24   4.177E+0   6.94E-02
       8.24   4.214E+0  9.894E-02
       8.24   4.267E+0    0.11864
       8.24   4.336E+0     0.1208
       8.24   4.392E+0    0.11896
       8.24   4.435E+0    0.11342
       8.24   4.493E+0  9.958E-02
       8.24   4.525E+0  7.404E-02
       8.24   4.556E+0  5.404E-02
       8.24   4.602E+0  3.004E-02
       8.24   4.632E+0  1.466E-02
       8.24   4.744E+0   9.44E-03
       8.24   4.800E+0  1.098E-02
       8.24   4.841E+0   1.13E-02
       8.24   4.923E+0  2.208E-02
       8.24   4.978E+0  3.162E-02
       8.24   5.089E+0  3.316E-02
       8.24   5.175E+0  1.932E-02
       8.24   5.246E+0   7.94E-03
       8.24   5.303E+0   1.48E-03
       8.24   5.387E+0    2.6E-04
       8.24   5.442E+0   2.42E-03
       8.24   5.540E+0    5.8E-04
       8.24   5.637E+0   3.66E-03
       8.24   5.693E+0    1.2E-03
       8.24   5.748E+0   5.22E-03
       8.24   5.846E+0   3.68E-03
       8.24   5.986E+0   3.38E-03
       8.24   6.027E+0   5.24E-03
       8.24   6.069E+0   2.46E-03
       8.24   6.139E+0   1.86E-03
       8.24   6.222E+0   4.64E-03
       8.24   6.278E+0    2.8E-03
       8.24   6.334E+0   3.42E-03
       8.24   6.376E+0   1.56E-03
       8.24   6.432E+0    2.5E-03
       8.24   6.474E+0   1.58E-03
       8.24   6.557E+0   2.82E-03
       8.24   6.683E+0    6.6E-04
       8.24   6.752E+0   2.52E-03
       8.24   6.850E+0    1.6E-03
       8.24   6.975E+0   6.84E-03
       8.24   7.044E+0   6.54E-03
       8.24   7.182E+0  1.762E-02
       8.24   7.279E+0  1.826E-02
       8.24   7.431E+0   3.15E-02
       8.24   7.469E+0  4.996E-02
       8.24   7.471E+0  4.166E-02
       8.24   7.552E+0  5.828E-02
       8.24   7.618E+0  7.766E-02
       8.24   7.673E+0  8.782E-02
       8.24   7.711E+0    0.11028
       8.24   7.723E+0    0.12014
       8.24   8.462E+0    0.12018
       8.24   8.493E+0  9.958E-02
       8.24   8.525E+0  7.128E-02
       8.24   8.544E+0  4.174E-02
       8.24   8.561E+0  2.112E-02
       8.24   8.590E+0   1.19E-02
       8.24   8.619E+0   5.12E-03
       8.24   8.690E+0   1.44E-03
       8.24   8.857E+0    5.2E-04
       9.27   2.579E+0  2.432E-02
       9.27   2.580E+0  2.094E-02
       9.27   2.635E+0   2.28E-02
       9.27   2.677E+0  1.942E-02
       9.27   2.719E+0  1.542E-02
       9.27   2.788E+0  1.326E-02
       9.27   2.843E+0  1.758E-02
       9.27   2.869E+0  3.204E-02
       9.27   2.870E+0  2.434E-02
       9.27   2.896E+0  4.804E-02
       9.27   2.910E+0  4.004E-02
       9.27   2.923E+0   5.48E-02
       9.27   2.992E+0   5.82E-02
       9.27   3.005E+0  6.466E-02
       9.27   3.060E+0  7.266E-02
       9.27   3.102E+0  6.496E-02
       9.27   3.171E+0  6.496E-02
       9.27   3.200E+0  5.266E-02
       9.27   3.229E+0  4.066E-02
       9.27   3.284E+0  4.128E-02
       9.27   3.340E+0  3.606E-02
       9.27   3.368E+0  2.466E-02
       9.27   3.480E+0  1.206E-02
       9.27   3.549E+0   2.13E-02
       9.27   3.604E+0   2.16E-02
       9.27   3.673E+0  2.592E-02
       9.27   3.701E+0  1.976E-02
       9.27   3.784E+0  1.668E-02
       9.27   3.854E+0  1.208E-02
       9.27   3.923E+0  1.392E-02
       9.27   3.964E+0  1.422E-02
       9.27   4.020E+0    9.3E-03
       9.27   4.075E+0  1.608E-02
       9.27   4.131E+0  1.146E-02
       9.27   4.227E+0  1.332E-02
       9.27   4.255E+0   7.16E-03
       9.27   4.325E+0   7.16E-03
       9.27   4.366E+0   1.21E-02
       9.27   4.436E+0   5.32E-03
       9.27   4.546E+0   9.64E-03
       9.27   4.587E+0  1.456E-02
       9.27   4.712E+0  1.488E-02
       9.27   4.767E+0  1.302E-02
       9.27   4.822E+0  1.426E-02
       9.27   4.878E+0    7.8E-03
       9.27   4.934E+0   8.12E-03
       9.27   5.031E+0   6.58E-03
       9.27   5.099E+0  1.582E-02
       9.27   5.208E+0  3.736E-02
       9.27   5.316E+0  8.044E-02
       9.27   5.396E+0    0.11982
       9.27   5.520E+0    0.11982
       9.27   5.591E+0  9.306E-02
       9.27   5.607E+0  7.306E-02
       9.27   5.650E+0  5.122E-02
       9.27   5.651E+0   3.86E-02
       9.27   5.681E+0  1.184E-02
       9.27   5.707E+0  2.384E-02
       9.27   5.750E+0   5.06E-03
       9.27   5.820E+0   3.54E-03
       9.27   5.889E+0   5.08E-03
       9.27   5.958E+0   3.84E-03
       9.27   6.041E+0   7.84E-03
       9.27   6.151E+0    9.7E-03
       9.27   6.249E+0   6.32E-03
       9.27   6.360E+0    7.8E-04
       9.27   6.387E+0   4.16E-03
       9.27   6.443E+0   2.02E-03
       9.27   6.512E+0   2.32E-03
       9.27   6.581E+0    1.4E-03
       9.27   6.636E+0   3.56E-03
       9.27   6.720E+0   2.64E-03
       9.27   6.830E+0   3.26E-03
       9.27   6.913E+0     8.E-04
       9.27   7.024E+0   2.96E-03
       9.27   7.093E+0   1.12E-03
       9.27   7.149E+0   2.36E-03
       9.27   7.245E+0   2.66E-03
       9.27   7.329E+0   1.12E-03
       9.27   7.412E+0   2.66E-03
       9.27   7.481E+0    8.2E-04
       9.27   7.647E+0   1.76E-03
       9.27   7.743E+0     7.E-03
       9.27   7.840E+0   4.54E-03
       9.27   7.937E+0   5.16E-03
       9.27   7.992E+0   9.76E-03
       9.27   8.158E+0  1.808E-02
       9.27   8.227E+0  1.562E-02
       9.27   8.310E+0  1.656E-02
       9.27   8.529E+0  4.702E-02
       9.27   8.611E+0   6.61E-02
       9.27   8.651E+0  8.888E-02
       9.27   8.745E+0    0.12026
       9.27   9.437E+0    0.11998
       9.27   9.452E+0    0.10244
       9.27   9.482E+0  7.906E-02
       9.27   9.511E+0  5.844E-02
       9.27   9.512E+0  3.998E-02
       9.27   9.555E+0  2.644E-02
       9.27   9.626E+0  1.014E-02
       9.27   9.709E+0   2.46E-03
       9.27   9.848E+0   2.46E-03
       9.27   1.000E+1   2.16E-03
ENDDATA            288
ENDSUBENT          302
ENDENTRY             3
