ENTRY            13154     900314              20050926       0000
SUBENT        13154001     900314              20050926       0000
BIB                  7          8
INSTITUTE  (1USAANL)
REFERENCE  (J,NSE,103,37,8909)
AUTHOR     (M.SUGIMOTO,P.GUENTHER,J.LYNN,A.SMITH,J.WHALEN)
TITLE      SOME COMMENTS ON THE INTERACTION OF FAST NEUTRONS WITH
            BERYLLIUM.
METHOD     (TOF)
STATUS     (APRVD) A.B.SMITH, 89/4/24.
HISTORY    (890327C)
ENDBIB               8
NOCOMMON             0          0
ENDSUBENT           11
SUBENT        13154002     890428     2    1   20050926       0000
BIB                  8         10
REACTION   (4-BE-9(N,EL)4-BE-9,,DA)
INC-SOURCE (D-D)
DETECTOR   (SCIN) LIQUID SCINTILLATION DETECTORS
MONITOR    (1-H-1(N,EL)1-H-1,,DA)
CORRECTION CORRECTED FOR: MULTIPLE SCATTERING
                          BEAM ATTENUATION
                          ANGULAR RESOLUTION
ERR-ANALYS DATA ERRORS GIVEN ARE STATISTICAL UNCERTAINTIES
COMMENT    MULTIPLE MEASUREMENTS AT SAME ENERGY
STATUS     DATA RECEIVED BY ELECTRONIC MAIL
ENDBIB              10
COMMON               1          3
EN-ERR
KEV
 10.
ENDCOMMON            3
DATA                 4        563
EN         ANG        DATA       DATA-ERR
MEV        ADEG       B/SR       PER-CENT
4.500000    0.1820E+02 0.5700E+00 0.4000E+01
4.500000    0.2120E+02 0.5380E+00 0.4000E+01
4.500000    0.2610E+02 0.4770E+00 0.4000E+01
4.500000    0.2910E+02 0.4290E+00 0.4000E+01
4.500000    0.3140E+02 0.4100E+00 0.4000E+01
4.500000    0.3600E+02 0.3480E+00 0.4000E+01
4.500000    0.4000E+02 0.2970E+00 0.3000E+01
4.500000    0.4640E+02 0.2150E+00 0.3000E+01
4.500000    0.5200E+02 0.1730E+00 0.4000E+01
4.500000    0.5490E+02 0.1390E+00 0.4000E+01
4.500000    0.5940E+02 0.1110E+00 0.4000E+01
4.500000    0.6290E+02 0.8750E-01 0.3000E+01
4.500000    0.6740E+02 0.6420E-01 0.4000E+01
4.500000    0.7090E+02 0.5360E-01 0.3000E+01
4.500000    0.7790E+02 0.3520E-01 0.6790E+01
4.500000    0.8310E+02 0.2910E-01 0.8200E+01
4.500000    0.8590E+02 0.2820E-01 0.8470E+01
4.500000    0.9030E+02 0.2640E-01 0.9230E+01
4.500000    0.9440E+02 0.2520E-01 0.5950E+01
4.500000    0.9830E+02 0.2780E-01 0.9200E+01
4.500000    0.1020E+03 0.3070E-01 0.4890E+01
4.500000    0.1090E+03 0.3560E-01 0.7820E+01
4.500000    0.1140E+03 0.4130E-01 0.6870E+01
4.500000    0.1170E+03 0.4100E-01 0.6870E+01
4.500000    0.1210E+03 0.3990E-01 0.6990E+01
4.500000    0.1250E+03 0.4240E-01 0.3540E+01
4.500000    0.1290E+03 0.4200E-01 0.6900E+01
4.500000    0.1320E+03 0.4420E-01 0.3390E+01
4.500000    0.1400E+03 0.4340E-01 0.6630E+01
4.500000    0.1450E+03 0.4300E-01 0.6660E+01
4.500000    0.1470E+03 0.4730E-01 0.6100E+01
4.500000    0.1480E+03 0.4240E-01 0.6810E+01
4.500000    0.1520E+03 0.4280E-01 0.3500E+01
4.500000    0.1550E+03 0.4340E-01 0.6640E+01
4.500000    0.1570E+03 0.3910E-01 0.3840E+01
5.000000    0.1820E+02 0.5660E+00 0.3000E+01
5.000000    0.2120E+02 0.5410E+00 0.3000E+01
5.000000    0.2810E+02 0.4340E+00 0.3000E+01
5.000000    0.3000E+02 0.4000E+00 0.3000E+01
5.000000    0.3600E+02 0.3430E+00 0.3000E+01
5.000000    0.4000E+02 0.2690E+00 0.3000E+01
5.000000    0.4640E+02 0.2080E+00 0.3000E+01
5.000000    0.5200E+02 0.1570E+00 0.3000E+01
5.000000    0.5580E+02 0.1180E+00 0.3000E+01
5.000000    0.6240E+02 0.7630E-01 0.3290E+01
5.000000    0.6740E+02 0.5560E-01 0.4410E+01
5.000000    0.7090E+02 0.4290E-01 0.3490E+01
5.000000    0.7790E+02 0.2760E-01 0.8160E+01
5.000000    0.8310E+02 0.2350E-01 0.9520E+01
5.000000    0.8630E+02 0.2180E-01 0.6850E+01
5.000000    0.9330E+02 0.2450E-01 0.9640E+01
5.000000    0.9830E+02 0.2720E-01 0.9200E+01
5.000000    0.1020E+03 0.2570E-01 0.5840E+01
5.000000    0.1090E+03 0.3500E-01 0.7650E+01
5.000000    0.1140E+03 0.3960E-01 0.6820E+01
5.000000    0.1170E+03 0.3400E-01 0.4410E+01
5.000000    0.1240E+03 0.4200E-01 0.6550E+01
5.000000    0.1290E+03 0.4470E-01 0.6180E+01
5.000000    0.1320E+03 0.3900E-01 0.3850E+01
5.000000    0.1400E+03 0.4400E-01 0.6240E+01
5.000000    0.1450E+03 0.4430E-01 0.6250E+01
5.000000    0.1470E+03 0.4300E-01 0.3490E+01
5.000000    0.1500E+03 0.4610E-01 0.5990E+01
5.000000    0.1550E+03 0.4580E-01 0.6020E+01
5.000000    0.1570E+03 0.4540E-01 0.3300E+01
5.500000    0.1820E+02 0.5260E+00 0.3000E+01
5.500000    0.2070E+02 0.5250E+00 0.3000E+01
5.500000    0.2560E+02 0.4510E+00 0.3000E+01
5.500000    0.2800E+02 0.4300E+00 0.3000E+01
5.500000    0.2900E+02 0.4050E+00 0.3000E+01
5.500000    0.3090E+02 0.3830E+00 0.3000E+01
5.500000    0.3140E+02 0.3930E+00 0.3500E+01
5.500000    0.3600E+02 0.3150E+00 0.3500E+01
5.500000    0.3850E+02 0.2700E+00 0.3000E+01
5.500000    0.3900E+02 0.2860E+00 0.3000E+01
5.500000    0.4390E+02 0.2250E+00 0.3000E+01
5.500000    0.4620E+02 0.1940E+00 0.3000E+01
5.500000    0.4690E+02 0.1890E+00 0.3000E+01
5.500000    0.5150E+02 0.1380E+00 0.3000E+01
5.500000    0.5200E+02 0.1450E+00 0.3500E+01
5.500000    0.5490E+02 0.1210E+00 0.3500E+01
5.500000    0.5570E+02 0.1070E+00 0.3000E+01
5.500000    0.5940E+02 0.8730E-01 0.3000E+01
5.500000    0.6240E+02 0.6670E-01 0.4300E+01
5.500000    0.6270E+02 0.6650E-01 0.3000E+01
5.500000    0.6740E+02 0.4610E-01 0.5870E+01
5.500000    0.6990E+02 0.3690E-01 0.4070E+01
5.500000    0.7040E+02 0.3950E-01 0.6840E+01
5.500000    0.7490E+02 0.2980E-01 0.4650E+01
5.500000    0.7740E+02 0.2560E-01 0.5860E+01
5.500000    0.7790E+02 0.2380E-01 0.1090E+02
5.500000    0.8240E+02 0.2110E-01 0.7110E+01
5.500000    0.8310E+02 0.2080E-01 0.1220E+02
5.500000    0.8580E+02 0.2070E-01 0.6450E+01
5.500000    0.8610E+02 0.2010E-01 0.7430E+01
5.500000    0.9030E+02 0.2030E-01 0.6810E+01
5.500000    0.9330E+02 0.2090E-01 0.1290E+02
5.500000    0.9330E+02 0.2220E-01 0.6420E+01
5.500000    0.9790E+02 0.2260E-01 0.6640E+01
5.500000    0.9830E+02 0.2450E-01 0.5980E+01
5.500000    0.1010E+03 0.2530E-01 0.5870E+01
5.500000    0.1010E+03 0.2490E-01 0.6020E+01
5.500000    0.1060E+03 0.2740E-01 0.5540E+01
5.500000    0.1090E+03 0.2840E-01 0.1020E+02
5.500000    0.1090E+03 0.2930E-01 0.5230E+01
5.500000    0.1140E+03 0.3340E-01 0.8780E+01
5.500000    0.1160E+03 0.3180E-01 0.4720E+01
5.500000    0.1170E+03 0.3260E-01 0.4700E+01
5.500000    0.1210E+03 0.3380E-01 0.8740E+01
5.500000    0.1240E+03 0.3330E-01 0.8870E+01
5.500000    0.1240E+03 0.3380E-01 0.4600E+01
5.500000    0.1290E+03 0.3640E-01 0.8140E+01
5.500000    0.1290E+03 0.3500E-01 0.4420E+01
5.500000    0.1320E+03 0.3480E-01 0.4310E+01
5.500000    0.1320E+03 0.3500E-01 0.4290E+01
5.500000    0.1370E+03 0.3510E-01 0.4500E+01
5.500000    0.1400E+03 0.3710E-01 0.7940E+01
5.500000    0.1410E+03 0.3820E-01 0.3930E+01
5.500000    0.1450E+03 0.3980E-01 0.7580E+01
5.500000    0.1470E+03 0.3720E-01 0.4190E+01
5.500000    0.1470E+03 0.3950E-01 0.3800E+01
5.500000    0.1480E+03 0.3520E-01 0.4480E+01
5.500000    0.1500E+03 0.4080E-01 0.7350E+01
5.500000    0.1540E+03 0.3860E-01 0.3890E+01
5.500000    0.1550E+03 0.3680E-01 0.4230E+01
5.500000    0.1570E+03 0.4030E-01 0.3720E+01
5.899999    0.1730E+02 0.6110E+00 0.3030E+01
5.899999    0.2010E+02 0.5360E+00 0.3000E+01
5.899999    0.2110E+02 0.5220E+00 0.3000E+01
5.899999    0.2610E+02 0.4570E+00 0.3000E+01
5.899999    0.2800E+02 0.4310E+00 0.3000E+01
5.899999    0.2900E+02 0.4160E+00 0.3000E+01
5.899999    0.3010E+02 0.4110E+00 0.3100E+01
5.899999    0.3510E+02 0.3320E+00 0.3140E+01
5.899999    0.3810E+02 0.2820E+00 0.3160E+01
5.899999    0.4000E+02 0.2480E+00 0.3000E+01
5.899999    0.4390E+02 0.2130E+00 0.3000E+01
5.899999    0.4640E+02 0.1780E+00 0.3000E+01
5.899999    0.5100E+02 0.1400E+00 0.3260E+01
5.899999    0.5400E+02 0.1100E+00 0.3280E+01
5.899999    0.5580E+02 0.9320E-01 0.3000E+01
5.899999    0.5940E+02 0.7760E-01 0.3000E+01
5.899999    0.6240E+02 0.6220E-01 0.3000E+01
5.899999    0.6650E+02 0.4890E-01 0.3290E+01
5.899999    0.6950E+02 0.3700E-01 0.3260E+01
5.899999    0.7090E+02 0.2890E-01 0.5170E+01
5.899999    0.7490E+02 0.2560E-01 0.5390E+01
5.899999    0.7780E+02 0.2250E-01 0.6030E+01
5.899999    0.8190E+02 0.2000E-01 0.3050E+01
5.899999    0.8490E+02 0.1980E-01 0.3020E+01
5.899999    0.8620E+02 0.1850E-01 0.8110E+01
5.899999    0.9030E+02 0.2080E-01 0.6980E+01
5.899999    0.9330E+02 0.2240E-01 0.6580E+01
5.899999    0.9740E+02 0.2410E-01 0.3030E+01
5.899999    0.1000E+03 0.2540E-01 0.3040E+01
5.899999    0.1010E+03 0.2450E-01 0.6120E+01
5.899999    0.1060E+03 0.2710E-01 0.5630E+01
5.899999    0.1090E+03 0.2840E-01 0.5420E+01
5.899999    0.1130E+03 0.2900E-01 0.3010E+01
5.899999    0.1160E+03 0.3090E-01 0.3010E+01
5.899999    0.1170E+03 0.2910E-01 0.5150E+01
5.899999    0.1210E+03 0.3140E-01 0.4820E+01
5.899999    0.1240E+03 0.3210E-01 0.4780E+01
5.899999    0.1280E+03 0.3200E-01 0.3000E+01
5.899999    0.1310E+03 0.3110E-01 0.3000E+01
5.899999    0.1320E+03 0.2940E-01 0.5100E+01
5.899999    0.1370E+03 0.3070E-01 0.4890E+01
5.899999    0.1400E+03 0.3040E-01 0.4830E+01
5.899999    0.1440E+03 0.3310E-01 0.3000E+01
5.899999    0.1460E+03 0.3260E-01 0.3000E+01
5.899999    0.1470E+03 0.3240E-01 0.4630E+01
5.899999    0.1480E+03 0.3140E-01 0.4780E+01
5.899999    0.1500E+03 0.3350E-01 0.4500E+01
5.899999    0.1540E+03 0.3410E-01 0.3020E+01
5.899999    0.1570E+03 0.3560E-01 0.3020E+01
5.899999    0.1570E+03 0.3670E-01 0.4090E+01
6.500000    0.1820E+02 0.5870E+00 0.3000E+01
6.500000    0.2020E+02 0.5520E+00 0.3000E+01
6.500000    0.2520E+02 0.4590E+00 0.3000E+01
6.500000    0.2610E+02 0.4700E+00 0.3000E+01
6.500000    0.2900E+02 0.4210E+00 0.3000E+01
6.500000    0.3010E+02 0.3980E+00 0.3000E+01
6.500000    0.3510E+02 0.3180E+00 0.3000E+01
6.500000    0.3600E+02 0.3050E+00 0.3000E+01
6.500000    0.4390E+02 0.2020E+00 0.3000E+01
6.500000    0.4600E+02 0.1750E+00 0.3450E+01
6.500000    0.4690E+02 0.1670E+00 0.3000E+01
6.500000    0.5100E+02 0.1270E+00 0.3000E+01
6.500000    0.5400E+02 0.1000E-00 0.3500E+01
6.500000    0.5490E+02 0.9380E-01 0.3000E+01
6.500000    0.5940E+02 0.6540E-01 0.3000E+01
6.500000    0.6150E+02 0.5820E-01 0.3610E+01
6.500000    0.6300E+02 0.4870E-01 0.3070E+01
6.500000    0.6740E+02 0.3370E-01 0.4210E+01
6.500000    0.6940E+02 0.2890E-01 0.4050E+01
6.500000    0.7030E+02 0.2850E-01 0.4930E+01
6.500000    0.7490E+02 0.2150E-01 0.6310E+01
6.500000    0.7690E+02 0.1800E-01 0.5630E+01
6.500000    0.7890E+02 0.1800E-01 0.8290E+01
6.500000    0.8300E+02 0.1850E-01 0.7590E+01
6.500000    0.8490E+02 0.2000E-01 0.5050E+01
6.500000    0.8580E+02 0.1940E-01 0.7400E+01
6.500000    0.9030E+02 0.2100E-01 0.7130E+01
6.500000    0.9240E+02 0.2230E-01 0.4530E+01
6.500000    0.9450E+02 0.2300E-01 0.6520E+01
6.500000    0.9830E+02 0.2670E-01 0.5770E+01
6.500000    0.1010E+03 0.2670E-01 0.3760E+01
6.500000    0.1010E+03 0.2670E-01 0.5730E+01
6.500000    0.1060E+03 0.2950E-01 0.5300E+01
6.500000    0.1080E+03 0.2790E-01 0.3580E+01
6.500000    0.1100E+03 0.2770E-01 0.5420E+01
6.500000    0.1140E+03 0.3040E-01 0.5130E+01
6.500000    0.1160E+03 0.2970E-01 0.5050E+01
6.500000    0.1170E+03 0.3080E-01 0.5030E+01
6.500000    0.1210E+03 0.3080E-01 0.5100E+01
6.500000    0.1240E+03 0.3060E-01 0.5090E+01
6.500000    0.1280E+03 0.2880E-01 0.3470E+01
6.500000    0.1310E+03 0.2750E-01 0.3640E+01
6.500000    0.1320E+03 0.2820E-01 0.5380E+01
6.500000    0.1360E+03 0.2770E-01 0.3610E+01
6.500000    0.1390E+03 0.2620E-01 0.3820E+01
6.500000    0.1410E+03 0.2600E-01 0.5770E+01
6.500000    0.1440E+03 0.2680E-01 0.3730E+01
6.500000    0.1460E+03 0.2690E-01 0.3720E+01
6.500000    0.1470E+03 0.2780E-01 0.5240E+01
6.500000    0.1480E+03 0.2610E-01 0.5750E+01
6.500000    0.1490E+03 0.2660E-01 0.3760E+01
6.500000    0.1510E+03 0.3000E-01 0.5000E+01
6.500000    0.1540E+03 0.2810E-01 0.3560E+01
6.500000    0.1570E+03 0.2770E-01 0.5420E+01
6.500000    0.1570E+03 0.2850E-01 0.3520E+01
7.140000    0.1820E+02 0.5910E+00 0.3000E+01
7.140000    0.1980E+02 0.6040E+00 0.3000E+01
7.140000    0.2120E+02 0.5460E+00 0.3000E+01
7.140000    0.2610E+02 0.4640E+00 0.3000E+01
7.140000    0.2800E+02 0.4250E+00 0.3000E+01
7.140000    0.2900E+02 0.4160E+00 0.3000E+01
7.140000    0.2970E+02 0.4230E+00 0.3000E+01
7.140000    0.3140E+02 0.3750E+00 0.3000E+01
7.140000    0.3600E+02 0.2860E+00 0.3000E+01
7.140000    0.3900E+02 0.2500E+00 0.3000E+01
7.140000    0.4390E+02 0.1900E+00 0.3000E+01
7.140000    0.4610E+02 0.1730E+00 0.3000E+01
7.140000    0.4700E+02 0.1470E+00 0.3000E+01
7.140000    0.5190E+02 0.1100E+00 0.3000E+01
7.140000    0.5490E+02 0.8770E-01 0.3000E+01
7.140000    0.5940E+02 0.5720E-01 0.3000E+01
7.140000    0.6240E+02 0.4250E-01 0.3470E+01
7.140000    0.6260E+02 0.4460E-01 0.4470E+01
7.140000    0.6740E+02 0.2730E-01 0.5490E+01
7.140000    0.7030E+02 0.2310E-01 0.5890E+01
7.140000    0.7490E+02 0.1820E-01 0.7570E+01
7.140000    0.7780E+02 0.1690E-01 0.8220E+01
7.140000    0.7850E+02 0.1740E-01 0.1150E+02
7.140000    0.8300E+02 0.1770E-01 0.8140E+01
7.140000    0.8580E+02 0.1800E-01 0.8120E+01
7.140000    0.9030E+02 0.2180E-01 0.6990E+01
7.140000    0.9330E+02 0.2230E-01 0.6920E+01
7.140000    0.9410E+02 0.2200E-01 0.9090E+01
7.140000    0.9840E+02 0.2380E-01 0.6300E+01
7.140000    0.1010E+03 0.2540E-01 0.7860E+01
7.140000    0.1060E+03 0.2790E-01 0.5730E+01
7.140000    0.1090E+03 0.2870E-01 0.5520E+01
7.140000    0.1090E+03 0.2740E-01 0.7300E+01
7.140000    0.1140E+03 0.2890E-01 0.5420E+01
7.140000    0.1160E+03 0.2810E-01 0.5340E+01
7.140000    0.1210E+03 0.2720E-01 0.5770E+01
7.140000    0.1240E+03 0.2760E-01 0.5670E+01
7.140000    0.1240E+03 0.2560E-01 0.5860E+01
7.140000    0.1300E+03 0.2400E-01 0.6250E+01
7.140000    0.1320E+03 0.2390E-01 0.6350E+01
7.140000    0.1370E+03 0.2260E-01 0.6570E+01
7.140000    0.1390E+03 0.2130E-01 0.7040E+01
7.140000    0.1410E+03 0.1990E-01 0.1010E+02
7.140000    0.1450E+03 0.2050E-01 0.7040E+01
7.140000    0.1470E+03 0.2080E-01 0.6890E+01
7.140000    0.1470E+03 0.2040E-01 0.7350E+01
7.140000    0.1490E+03 0.1940E-01 0.7730E+01
7.140000    0.1550E+03 0.2150E-01 0.6810E+01
7.140000    0.1570E+03 0.2240E-01 0.6630E+01
7.500000    0.1680E+02 0.6370E+00 0.2610E+01
7.500000    0.2030E+02 0.6150E+00 0.3000E+01
7.500000    0.2540E+02 0.4720E+00 0.3000E+01
7.500000    0.2760E+02 0.4710E+00 0.2790E+01
7.500000    0.3020E+02 0.4200E+00 0.3000E+01
7.500000    0.3530E+02 0.3200E+00 0.3000E+01
7.500000    0.4250E+02 0.1910E+00 0.3220E+01
7.500000    0.4550E+02 0.1630E+00 0.3000E+01
7.500000    0.5190E+02 0.9650E-01 0.3000E+01
7.500000    0.5480E+02 0.8200E-01 0.3000E+01
7.500000    0.5800E+02 0.5880E-01 0.3670E+01
7.500000    0.6100E+02 0.4720E-01 0.3160E+01
7.500000    0.6310E+02 0.3830E-01 0.5210E+01
7.500000    0.6810E+02 0.2360E-01 0.8440E+01
7.500000    0.6990E+02 0.2130E-01 0.6980E+01
7.500000    0.7340E+02 0.1750E-01 0.2690E+01
7.500000    0.7660E+02 0.1570E-01 0.9490E+01
7.500000    0.7900E+02 0.1560E-01 0.1280E+02
7.500000    0.8440E+02 0.1800E-01 0.2560E+01
7.500000    0.8540E+02 0.1620E-01 0.9260E+01
7.500000    0.8890E+02 0.1930E-01 0.2590E+01
7.500000    0.9190E+02 0.2100E-01 0.7140E+01
7.500000    0.9460E+02 0.2200E-01 0.9080E+01
7.500000    0.9990E+02 0.2710E-01 0.2540E+01
7.500000    0.1010E+03 0.2560E-01 0.6330E+01
7.500000    0.1040E+03 0.2690E-01 0.2520E+01
7.500000    0.1070E+03 0.2510E-01 0.5980E+01
7.500000    0.1100E+03 0.2710E-01 0.7390E+01
7.500000    0.1150E+03 0.2880E-01 0.2500E+01
7.500000    0.1160E+03 0.2560E-01 0.5860E+01
7.500000    0.1200E+03 0.2580E-01 0.2510E+01
7.500000    0.1230E+03 0.2380E-01 0.6300E+01
7.500000    0.1250E+03 0.2430E-01 0.8230E+01
7.500000    0.1310E+03 0.2390E-01 0.2580E+01
7.500000    0.1320E+03 0.2160E-01 0.6940E+01
7.500000    0.1350E+03 0.2090E-01 0.2590E+01
7.500000    0.1400E+03 0.2000E-01 0.7500E+01
7.500000    0.1420E+03 0.1750E-01 0.1140E+02
7.500000    0.1450E+03 0.1760E-01 0.8310E+01
7.500000    0.1470E+03 0.1880E-01 0.7740E+01
7.500000    0.1480E+03 0.1770E-01 0.1130E+02
7.500000    0.1500E+03 0.1770E-01 0.8210E+01
7.500000    0.1520E+03 0.1630E-01 0.1230E+02
7.500000    0.1560E+03 0.1760E-01 0.2550E+01
7.500000    0.1580E+03 0.1900E-01 0.1050E+02
8.029000    0.1820E+02 0.6290E+00 0.3000E+01
8.029000    0.2110E+02 0.5840E+00 0.3000E+01
8.029000    0.2610E+02 0.5240E+00 0.3000E+01
8.029000    0.3130E+02 0.3690E+00 0.3000E+01
8.029000    0.3600E+02 0.3040E+00 0.3000E+01
8.029000    0.4390E+02 0.1850E+00 0.3000E+01
8.029000    0.5190E+02 0.1070E+00 0.3000E+01
8.029000    0.5490E+02 0.7770E-01 0.3000E+01
8.029000    0.6090E+02 0.4540E-01 0.3290E+01
8.029000    0.6740E+02 0.2470E-01 0.5550E+01
8.029000    0.7030E+02 0.1930E-01 0.7010E+01
8.029000    0.7650E+02 0.1500E-01 0.9930E+01
8.029000    0.8300E+02 0.1730E-01 0.8320E+01
8.029000    0.8580E+02 0.1860E-01 0.8010E+01
8.029000    0.9180E+02 0.2230E-01 0.6730E+01
8.029000    0.9830E+02 0.2580E-01 0.6280E+01
8.029000    0.1010E+03 0.2640E-01 0.6160E+01
8.029000    0.1070E+03 0.2800E-01 0.5360E+01
8.029000    0.1140E+03 0.2690E-01 0.5930E+01
8.029000    0.1170E+03 0.2650E-01 0.5940E+01
8.029000    0.1230E+03 0.2650E-01 0.5660E+01
8.029000    0.1290E+03 0.2230E-01 0.6760E+01
8.029000    0.1320E+03 0.2040E-01 0.7390E+01
8.029000    0.1400E+03 0.1940E-01 0.7550E+01
8.029000    0.1450E+03 0.1820E-01 0.8070E+01
8.029000    0.1470E+03 0.1860E-01 0.7900E+01
8.029000    0.1500E+03 0.1830E-01 0.8100E+01
8.029000    0.1550E+03 0.1780E-01 0.8170E+01
8.399999    0.1890E+02 0.6690E+00 0.3000E+01
8.399999    0.2040E+02 0.6460E+00 0.3000E+01
8.399999    0.2500E+02 0.5250E+00 0.3000E+01
8.399999    0.2680E+02 0.5040E+00 0.3000E+01
8.399999    0.2970E+02 0.4290E+00 0.3000E+01
8.399999    0.3030E+02 0.4190E+00 0.3000E+01
8.399999    0.3490E+02 0.3230E+00 0.3000E+01
8.399999    0.3670E+02 0.3050E+00 0.3000E+01
8.399999    0.4460E+02 0.1800E+00 0.3000E+01
8.399999    0.4670E+02 0.1570E+00 0.3000E+01
8.399999    0.5120E+02 0.1140E+00 0.3000E+01
8.399999    0.5440E+02 0.8710E-01 0.3000E+01
8.399999    0.6010E+02 0.4070E-01 0.3000E+01
8.399999    0.6310E+02 0.2920E-01 0.3000E+01
8.399999    0.6810E+02 0.1870E-01 0.3000E+01
8.399999    0.6950E+02 0.1830E-01 0.8110E+01
8.399999    0.7600E+02 0.1570E-01 0.3000E+01
8.399999    0.7850E+02 0.1630E-01 0.3000E+01
8.399999    0.8500E+02 0.1730E-01 0.8670E+01
8.399999    0.8650E+02 0.2080E-01 0.3000E+01
8.399999    0.9150E+02 0.1990E-01 0.7540E+01
8.399999    0.9470E+02 0.2290E-01 0.8740E+01
8.399999    0.1000E+03 0.2440E-01 0.6150E+01
8.399999    0.1020E+03 0.2780E-01 0.3000E+01
8.399999    0.1070E+03 0.2650E-01 0.5660E+01
8.399999    0.1100E+03 0.2790E-01 0.7170E+01
8.399999    0.1150E+03 0.2440E-01 0.6150E+01
8.399999    0.1170E+03 0.2600E-01 0.3000E+01
8.399999    0.1220E+03 0.2270E-01 0.6610E+01
8.399999    0.1250E+03 0.2300E-01 0.8710E+01
8.399999    0.1310E+03 0.2060E-01 0.7280E+01
8.399999    0.1330E+03 0.2140E-01 0.3000E+01
8.399999    0.1400E+03 0.1760E-01 0.3000E+01
8.399999    0.1450E+03 0.1730E-01 0.3000E+01
8.399999    0.1470E+03 0.1700E-01 0.3000E+01
8.399999    0.1480E+03 0.1580E-01 0.1260E+02
8.399999    0.1500E+03 0.1680E-01 0.8880E+01
8.399999    0.1550E+03 0.1840E-01 0.3000E+01
8.399999    0.1580E+03 0.1880E-01 0.3000E+01
9.059999    0.1810E+02 0.6980E+00 0.3000E+01
9.059999    0.1980E+02 0.6430E+00 0.3000E+01
9.059999    0.2110E+02 0.6310E+00 0.3000E+01
9.059999    0.2500E+02 0.5340E+00 0.3000E+01
9.059999    0.2600E+02 0.5310E+00 0.3000E+01
9.059999    0.2800E+02 0.4770E+00 0.3000E+01
9.059999    0.2900E+02 0.4590E+00 0.3000E+01
9.059999    0.2970E+02 0.4400E+00 0.3000E+01
9.059999    0.3130E+02 0.4050E+00 0.3000E+01
9.059999    0.3490E+02 0.3340E+00 0.3000E+01
9.059999    0.3590E+02 0.3100E+00 0.3000E+01
9.059999    0.3890E+02 0.2550E+00 0.3000E+01
9.059999    0.4390E+02 0.1740E+00 0.3000E+01
9.059999    0.4510E+02 0.1550E+00 0.3000E+01
9.059999    0.4760E+02 0.1400E+00 0.3660E+01
9.059999    0.5260E+02 0.9130E-01 0.3790E+01
9.059999    0.5480E+02 0.6920E-01 0.3000E+01
9.059999    0.5930E+02 0.4200E-01 0.4480E+01
9.059999    0.6060E+02 0.3970E-01 0.3000E+01
9.059999    0.6310E+02 0.3190E-01 0.6150E+01
9.059999    0.6730E+02 0.1880E-01 0.9390E+01
9.059999    0.6810E+02 0.2170E-01 0.4570E+01
9.059999    0.7030E+02 0.1680E-01 0.1060E+02
9.059999    0.7530E+02 0.1610E-01 0.1160E+02
9.059999    0.7620E+02 0.1590E-01 0.6290E+01
9.059999    0.7850E+02 0.1670E-01 0.1140E+02
9.059999    0.8280E+02 0.1930E-01 0.1050E+02
9.059999    0.8500E+02 0.1730E-01 0.5780E+01
9.059999    0.8580E+02 0.2040E-01 0.1020E+02
9.059999    0.9020E+02 0.2110E-01 0.9890E+01
9.059999    0.9150E+02 0.2040E-01 0.4900E+01
9.059999    0.9400E+02 0.2280E-01 0.9310E+01
9.059999    0.9820E+02 0.2450E-01 0.8530E+01
9.059999    0.1000E+03 0.2500E-01 0.4000E+01
9.059999    0.1010E+03 0.2480E-01 0.4040E+01
9.059999    0.1060E+03 0.2690E-01 0.7710E+01
9.059999    0.1070E+03 0.2490E-01 0.4020E+01
9.059999    0.1100E+03 0.2830E-01 0.7350E+01
9.059999    0.1140E+03 0.2640E-01 0.7830E+01
9.059999    0.1150E+03 0.2470E-01 0.4050E+01
9.059999    0.1170E+03 0.2490E-01 0.8330E+01
9.059999    0.1210E+03 0.2310E-01 0.9030E+01
9.059999    0.1220E+03 0.2390E-01 0.4180E+01
9.059999    0.1250E+03 0.2120E-01 0.9470E+01
9.059999    0.1290E+03 0.2010E-01 0.9880E+01
9.059999    0.1310E+03 0.1970E-01 0.5080E+01
9.059999    0.1320E+03 0.1790E-01 0.5580E+01
9.059999    0.1370E+03 0.1730E-01 0.1100E+02
9.059999    0.1400E+03 0.1670E-01 0.1120E+02
9.059999    0.1400E+03 0.1530E-01 0.6540E+01
9.059999    0.1450E+03 0.1430E-01 0.1270E+02
9.059999    0.1470E+03 0.1450E-01 0.1250E+02
9.059999    0.1480E+03 0.1500E-01 0.1210E+02
9.059999    0.1500E+03 0.1480E-01 0.1240E+02
9.059999    0.1550E+03 0.1520E-01 0.1230E+02
9.059999    0.1570E+03 0.1650E-01 0.1150E+02
9.059999    0.1580E+03 0.1590E-01 0.6310E+01
9.500000    0.1780E+02 0.7340E+00 0.3000E+01
9.500000    0.1960E+02 0.6500E+00 0.3000E+01
9.500000    0.2180E+02 0.6330E+00 0.3150E+01
9.500000    0.2570E+02 0.5430E+00 0.3000E+01
9.500000    0.2870E+02 0.4730E+00 0.3260E+01
9.500000    0.2970E+02 0.4480E+00 0.3280E+01
9.500000    0.3470E+02 0.3420E+00 0.3000E+01
9.500000    0.3670E+02 0.3010E+00 0.3420E+01
9.500000    0.4460E+02 0.1620E+00 0.3620E+01
9.500000    0.5260E+02 0.7900E-01 0.3860E+01
9.500000    0.6010E+02 0.3860E-01 0.5440E+01
9.500000    0.6310E+02 0.2910E-01 0.6610E+01
9.500000    0.6810E+02 0.1830E-01 0.9700E+01
9.500000    0.7100E+02 0.1650E-01 0.1090E+02
9.500000    0.7550E+02 0.1580E-01 0.1210E+02
9.500000    0.7740E+02 0.1770E-01 0.1130E+02
9.500000    0.8260E+02 0.2110E-01 0.9480E+01
9.500000    0.8480E+02 0.1960E-01 0.7650E+01
9.500000    0.8990E+02 0.2370E-01 0.8970E+01
9.500000    0.9130E+02 0.2360E-01 0.6360E+01
9.500000    0.9400E+02 0.2270E-01 0.9450E+01
9.500000    0.9900E+02 0.2300E-01 0.9210E+01
9.500000    0.1020E+03 0.2290E-01 0.9240E+01
9.500000    0.1060E+03 0.2510E-01 0.8330E+01
9.500000    0.1080E+03 0.2740E-01 0.7670E+01
9.500000    0.1130E+03 0.2570E-01 0.7950E+01
9.500000    0.1150E+03 0.2460E-01 0.6100E+01
9.500000    0.1210E+03 0.2360E-01 0.8490E+01
9.500000    0.1220E+03 0.2020E-01 0.9990E+01
9.500000    0.1250E+03 0.1840E-01 0.1080E+02
9.500000    0.1300E+03 0.1680E-01 0.1170E+02
9.500000    0.1360E+03 0.1760E-01 0.1140E+02
9.500000    0.1390E+03 0.1610E-01 0.1240E+02
9.500000    0.1400E+03 0.1400E-01 0.1350E+02
9.500000    0.1450E+03 0.1390E-01 0.1360E+02
9.500000    0.1470E+03 0.1430E-01 0.1340E+02
9.500000    0.1490E+03 0.1400E-01 0.1430E+02
9.500000    0.1500E+03 0.1310E-01 0.1150E+02
9.500000    0.1560E+03 0.1490E-01 0.1010E+02
9.999001    0.1820E+02 0.6720E+00 0.3000E+01
9.999001    0.1970E+02 0.6960E+00 0.3000E+01
9.999001    0.2110E+02 0.6160E+00 0.3000E+01
9.999001    0.2470E+02 0.5730E+00 0.3000E+01
9.999001    0.2610E+02 0.5130E+00 0.3000E+01
9.999001    0.2900E+02 0.4490E+00 0.3000E+01
9.999001    0.2960E+02 0.4780E+00 0.3000E+01
9.999001    0.3130E+02 0.3890E+00 0.3000E+01
9.999001    0.3200E+02 0.4010E+00 0.4660E+01
9.999001    0.3460E+02 0.3500E+00 0.3000E+01
9.999001    0.3860E+02 0.2690E+00 0.3250E+01
9.999001    0.3970E+02 0.2280E+00 0.4750E+01
9.999001    0.4460E+02 0.1690E+00 0.4810E+01
9.999001    0.4650E+02 0.1420E+00 0.3430E+01
9.999001    0.4750E+02 0.1180E+00 0.3000E+01
9.999001    0.5490E+02 0.6510E-01 0.3000E+01
9.999001    0.5940E+02 0.4160E-01 0.3460E+01
9.999001    0.6110E+02 0.3850E-01 0.3860E+01
9.999001    0.6240E+02 0.3030E-01 0.4640E+01
9.999001    0.6300E+02 0.2890E-01 0.5150E+01
9.999001    0.6450E+02 0.2600E-01 0.5780E+01
9.999001    0.6740E+02 0.2040E-01 0.6690E+01
9.999001    0.6810E+02 0.1910E-01 0.7930E+01
9.999001    0.6990E+02 0.1870E-01 0.1340E+02
9.999001    0.7030E+02 0.1720E-01 0.8030E+01
9.999001    0.7490E+02 0.1570E-01 0.9190E+01
9.999001    0.7670E+02 0.1530E-01 0.9740E+01
9.999001    0.7740E+02 0.1840E-01 0.1360E+02
9.999001    0.7840E+02 0.1720E-01 0.8700E+01
9.999001    0.7890E+02 0.1620E-01 0.9250E+01
9.999001    0.8300E+02 0.1800E-01 0.8540E+01
9.999001    0.8440E+02 0.1920E-01 0.7820E+01
9.999001    0.8540E+02 0.2250E-01 0.1110E+02
9.999001    0.8580E+02 0.2030E-01 0.7770E+01
9.999001    0.9030E+02 0.2180E-01 0.7380E+01
9.999001    0.9200E+02 0.2480E-01 0.6050E+01
9.999001    0.9290E+02 0.2500E-01 0.1000E+02
9.999001    0.9400E+02 0.2450E-01 0.6130E+01
9.999001    0.9440E+02 0.2300E-01 0.6510E+01
9.999001    0.9790E+02 0.2800E-01 0.8930E+01
9.999001    0.9900E+02 0.2650E-01 0.5660E+01
9.999001    0.1010E+03 0.2720E-01 0.5510E+01
9.999001    0.1010E+03 0.2790E-01 0.8960E+01
9.999001    0.1060E+03 0.2590E-01 0.6260E+01
9.999001    0.1080E+03 0.2500E-01 0.5990E+01
9.999001    0.1090E+03 0.2550E-01 0.6310E+01
9.999001    0.1090E+03 0.2340E-01 0.6400E+01
9.999001    0.1110E+03 0.2330E-01 0.6430E+01
9.999001    0.1140E+03 0.2440E-01 0.6530E+01
9.999001    0.1160E+03 0.2340E-01 0.1070E+02
9.999001    0.1160E+03 0.2250E-01 0.6670E+01
9.999001    0.1170E+03 0.2070E-01 0.7270E+01
9.999001    0.1220E+03 0.1850E-01 0.8130E+01
9.999001    0.1240E+03 0.2080E-01 0.7390E+01
9.999001    0.1240E+03 0.1890E-01 0.7930E+01
9.999001    0.1260E+03 0.1850E-01 0.8030E+01
9.999001    0.1290E+03 0.1920E-01 0.1300E+02
9.999001    0.1310E+03 0.1650E-01 0.9100E+01
9.999001    0.1320E+03 0.1660E-01 0.8830E+01
9.999001    0.1320E+03 0.1600E-01 0.9460E+01
9.999001    0.1370E+03 0.1570E-01 0.9480E+01
9.999001    0.1400E+03 0.1540E-01 0.9680E+01
9.999001    0.1410E+03 0.1440E-01 0.1030E+02
9.999001    0.1420E+03 0.1400E-01 0.1030E+02
9.999001    0.1450E+03 0.1310E-01 0.1150E+02
9.999001    0.1470E+03 0.1290E-01 0.1150E+02
9.999001    0.1470E+03 0.1190E-01 0.1260E+02
9.999001    0.1470E+03 0.1280E-01 0.1130E+02
9.999001    0.1480E+03 0.1210E-01 0.1240E+02
9.999001    0.1490E+03 0.1400E-01 0.1790E+02
9.999001    0.1500E+03 0.1360E-01 0.1100E+02
9.999001    0.1510E+03 0.1240E-01 0.1210E+02
9.999001    0.1520E+03 0.1270E-01 0.1150E+02
9.999001    0.1550E+03 0.1420E-01 0.1030E+02
9.999001    0.1570E+03 0.1450E-01 0.9980E+01
ENDDATA            565
ENDSUBENT          584
SUBENT        13154003     890428              20050926       0000
BIB                  8         10
REACTION   (4-BE-9(N,INL)4-BE-9,PAR,DA)
INC-SOURCE (D-D)
DETECTOR   (SCIN) LIQUID SCINTILLATION DETECTORS
MONITOR    (1-H-1(N,EL)1-H-1,,DA)
CORRECTION CORRECTED FOR: MULTIPLE SCATTERING
                          BEAM ATTENUATION
                          ANGULAR RESOLUTION
ERR-ANALYS DATA ERRORS GIVEN ARE STATISTICAL UNCERTAINTIES
COMMENT    MULTIPLE MEASUREMENTS AT SAME ENERGY
STATUS     DATA RECEIVED BY ELECTRONIC MAIL
ENDBIB              10
COMMON               3          3
E-EXC      E-EXC-ERR  EN-ERR
MEV        MEV        KEV
2.43       0.06        10.
ENDCOMMON            3
DATA                 4        474
EN         ANG        DATA       DATA-ERR
MEV        ADEG       B/SR       PER-CENT
4.500000    0.1820E+02 0.4270E-01 0.1000E+02
4.500000    0.2610E+02 0.4830E-01 0.1000E+02
4.500000    0.2810E+02 0.4630E-01 0.1000E+02
4.500000    0.3140E+02 0.4260E-01 0.1000E+02
4.500000    0.3600E+02 0.4150E-01 0.1000E+02
4.500000    0.4400E+02 0.4000E-01 0.1000E+02
4.500000    0.5200E+02 0.3650E-01 0.1000E+02
4.500000    0.5490E+02 0.3050E-01 0.1000E+02
4.500000    0.6240E+02 0.3110E-01 0.1000E+02
4.500000    0.6740E+02 0.2660E-01 0.1000E+02
4.500000    0.7500E+02 0.2410E-01 0.1000E+02
4.500000    0.8310E+02 0.1900E-01 0.1230E+02
4.500000    0.8590E+02 0.1830E-01 0.1240E+02
4.500000    0.9330E+02 0.1760E-01 0.1260E+02
4.500000    0.9830E+02 0.1400E-01 0.1550E+02
4.500000    0.1060E+03 0.1420E-01 0.1480E+02
4.500000    0.1140E+03 0.7080E-02 0.2870E+02
4.500000    0.1170E+03 0.8430E-02 0.2390E+02
4.500000    0.1240E+03 0.7380E-02 0.2700E+02
4.500000    0.1320E+03 0.6350E-02 0.3140E+02
4.500000    0.1400E+03 0.6550E-02 0.3010E+02
4.500000    0.1450E+03 0.6740E-02 0.2850E+02
4.500000    0.1480E+03 0.4370E-02 0.4060E+02
4.500000    0.1550E+03 0.4740E-02 0.3960E+02
4.500000    0.1570E+03 0.4590E-02 0.3880E+02
5.000000    0.1820E+02 0.4140E-01 0.1000E+02
5.000000    0.2810E+02 0.4000E-01 0.1000E+02
5.000000    0.3140E+02 0.4110E-01 0.1000E+02
5.000000    0.3900E+02 0.3650E-01 0.1000E+02
5.000000    0.4700E+02 0.3400E-01 0.1000E+02
5.000000    0.5490E+02 0.2900E-01 0.1000E+02
5.000000    0.6240E+02 0.2780E-01 0.1000E+02
5.000000    0.7040E+02 0.2330E-01 0.1020E+02
5.000000    0.7790E+02 0.2180E-01 0.1060E+02
5.000000    0.8590E+02 0.2000E-01 0.1170E+02
5.000000    0.9330E+02 0.1850E-01 0.1220E+02
5.000000    0.1010E+03 0.1460E-01 0.1540E+02
5.000000    0.1090E+03 0.1310E-01 0.1650E+02
5.000000    0.1170E+03 0.1030E-01 0.2080E+02
5.000000    0.1240E+03 0.1060E-01 0.1960E+02
5.000000    0.1320E+03 0.8360E-02 0.2470E+02
5.000000    0.1400E+03 0.8530E-02 0.2420E+02
5.000000    0.1470E+03 0.7450E-02 0.2690E+02
5.000000    0.1500E+03 0.7010E-02 0.2760E+02
5.000000    0.1570E+03 0.6290E-02 0.3120E+02
5.500000    0.1820E+02 0.4940E-01 0.2000E+02
5.500000    0.2000E+02 0.4700E-01 0.1000E+02
5.500000    0.2110E+02 0.3990E-01 0.8000E+01
5.500000    0.2560E+02 0.4720E-01 0.1000E+02
5.500000    0.2610E+02 0.4620E-01 0.2000E+02
5.500000    0.2810E+02 0.4650E-01 0.2000E+02
5.500000    0.2900E+02 0.4270E-01 0.8000E+01
5.500000    0.2990E+02 0.4310E-01 0.1000E+02
5.500000    0.3130E+02 0.4190E-01 0.8000E+01
5.500000    0.3560E+02 0.4350E-01 0.1000E+02
5.500000    0.3600E+02 0.3980E-01 0.2000E+02
5.500000    0.3900E+02 0.3860E-01 0.8000E+01
5.500000    0.3980E+02 0.3900E-01 0.1000E+02
5.500000    0.4400E+02 0.3480E-01 0.2000E+02
5.500000    0.4650E+02 0.3150E-01 0.1000E+02
5.500000    0.4700E+02 0.3650E-01 0.2000E+02
5.500000    0.5190E+02 0.3490E-01 0.8000E+01
5.500000    0.5450E+02 0.2910E-01 0.1000E+02
5.500000    0.5490E+02 0.3420E-01 0.2000E+02
5.500000    0.5940E+02 0.2930E-01 0.2000E+02
5.500000    0.6190E+02 0.2880E-01 0.1000E+02
5.500000    0.6270E+02 0.2590E-01 0.1000E+02
5.500000    0.6740E+02 0.2720E-01 0.8000E+01
5.500000    0.6990E+02 0.2420E-01 0.1000E+02
5.500000    0.7040E+02 0.2450E-01 0.2000E+02
5.500000    0.7490E+02 0.2170E-01 0.8000E+01
5.500000    0.7740E+02 0.2220E-01 0.1000E+02
5.500000    0.7790E+02 0.2210E-01 0.2000E+02
5.500000    0.8240E+02 0.1940E-01 0.1000E+02
5.500000    0.8310E+02 0.2100E-01 0.2000E+02
5.500000    0.8580E+02 0.1930E-01 0.8000E+01
5.500000    0.8610E+02 0.1940E-01 0.1000E+02
5.500000    0.9030E+02 0.1850E-01 0.8000E+01
5.500000    0.9330E+02 0.1750E-01 0.8040E+01
5.500000    0.9790E+02 0.1770E-01 0.1000E+02
5.500000    0.9830E+02 0.1690E-01 0.2000E+02
5.500000    0.1010E+03 0.1560E-01 0.1000E+02
5.500000    0.1060E+03 0.1700E-01 0.8000E+01
5.500000    0.1080E+03 0.1610E-01 0.1000E+02
5.500000    0.1090E+03 0.1500E-01 0.2000E+02
5.500000    0.1130E+03 0.1470E-01 0.1020E+02
5.500000    0.1140E+03 0.1530E-01 0.8540E+01
5.500000    0.1170E+03 0.1510E-01 0.1000E+02
5.500000    0.1170E+03 0.1430E-01 0.2000E+02
5.500000    0.1210E+03 0.1220E-01 0.1050E+02
5.500000    0.1240E+03 0.1310E-01 0.1150E+02
5.500000    0.1240E+03 0.1150E-01 0.1100E+02
5.500000    0.1290E+03 0.1060E-01 0.1180E+02
5.500000    0.1320E+03 0.1280E-01 0.1000E+02
5.500000    0.1320E+03 0.1190E-01 0.2100E+02
5.500000    0.1370E+03 0.1060E-01 0.1210E+02
5.500000    0.1390E+03 0.1070E-01 0.1400E+02
5.500000    0.1400E+03 0.9860E-02 0.1290E+02
5.500000    0.1440E+03 0.1040E-01 0.1440E+02
5.500000    0.1450E+03 0.1040E-01 0.2300E+02
5.500000    0.1470E+03 0.9840E-02 0.1520E+02
5.500000    0.1480E+03 0.8540E-02 0.1440E+02
5.500000    0.1500E+03 0.1130E-01 0.2250E+02
5.500000    0.1510E+03 0.1160E-01 0.1000E+02
5.500000    0.1550E+03 0.1010E-01 0.2250E+02
5.500000    0.1570E+03 0.9260E-02 0.2550E+02
5.899000    0.1730E+02 0.4080E-01 0.1200E+02
5.899000    0.2010E+02 0.4470E-01 0.1000E+02
5.899000    0.2110E+02 0.4460E-01 0.8000E+01
5.899000    0.2610E+02 0.4200E-01 0.8000E+01
5.899000    0.2800E+02 0.4630E-01 0.8000E+01
5.899000    0.2900E+02 0.4000E-01 0.8000E+01
5.899000    0.3010E+02 0.3330E-01 0.1200E+02
5.899000    0.3510E+02 0.3220E-01 0.1200E+02
5.899000    0.3810E+02 0.3190E-01 0.1200E+02
5.899000    0.4000E+02 0.3310E-01 0.1000E+02
5.899000    0.4390E+02 0.3260E-01 0.8000E+01
5.899000    0.4640E+02 0.3020E-01 0.1000E+02
5.899000    0.5100E+02 0.2540E-01 0.1200E+02
5.899000    0.5400E+02 0.2670E-01 0.1200E+02
5.899000    0.5580E+02 0.2730E-01 0.1000E+02
5.899000    0.5940E+02 0.2450E-01 0.8000E+01
5.899000    0.6240E+02 0.2480E-01 0.8000E+01
5.899000    0.6740E+02 0.2670E-01 0.8000E+01
5.899000    0.7030E+02 0.2500E-01 0.8000E+01
5.899000    0.7400E+02 0.2290E-01 0.1200E+02
5.899000    0.7690E+02 0.1830E-01 0.1200E+02
5.899000    0.7880E+02 0.2600E-01 0.1000E+02
5.899000    0.8490E+02 0.1860E-01 0.1200E+02
5.899000    0.8620E+02 0.2070E-01 0.1000E+02
5.899000    0.9030E+02 0.1890E-01 0.8200E+01
5.899000    0.9330E+02 0.1810E-01 0.8480E+01
5.899000    0.9740E+02 0.1670E-01 0.1200E+02
5.899000    0.1000E+03 0.1740E-01 0.1200E+02
5.899000    0.1010E+03 0.1710E-01 0.8640E+01
5.899000    0.1060E+03 0.1620E-01 0.8970E+01
5.899000    0.1090E+03 0.1760E-01 0.1000E+02
5.899000    0.1130E+03 0.1320E-01 0.1200E+02
5.899000    0.1160E+03 0.1350E-01 0.1200E+02
5.899000    0.1170E+03 0.1460E-01 0.9420E+01
5.899000    0.1210E+03 0.1310E-01 0.1020E+02
5.899000    0.1240E+03 0.1270E-01 0.1040E+02
5.899000    0.1280E+03 0.1060E-01 0.1200E+02
5.899000    0.1310E+03 0.1140E-01 0.1200E+02
5.899000    0.1320E+03 0.1100E-01 0.1170E+02
5.899000    0.1370E+03 0.1000E-01 0.1230E+02
5.899000    0.1400E+03 0.9820E-02 0.1290E+02
5.899000    0.1440E+03 0.1240E-01 0.1200E+02
5.899000    0.1460E+03 0.1190E-01 0.1200E+02
5.899000    0.1470E+03 0.1110E-01 0.1200E+02
5.899000    0.1480E+03 0.9930E-02 0.1230E+02
5.899000    0.1500E+03 0.9480E-02 0.1300E+02
5.899000    0.1540E+03 0.1100E-01 0.1200E+02
5.899000    0.1570E+03 0.1010E-01 0.1490E+02
5.899000    0.1570E+03 0.8070E-02 0.1510E+02
6.500000    0.1730E+02 0.3460E-01 0.1000E+02
6.500000    0.2020E+02 0.3740E-01 0.8000E+01
6.500000    0.2520E+02 0.3660E-01 0.1000E+02
6.500000    0.2610E+02 0.3400E-01 0.8000E+01
6.500000    0.2810E+02 0.3410E-01 0.1000E+02
6.500000    0.3010E+02 0.3030E-01 0.1000E+02
6.500000    0.3130E+02 0.3640E-01 0.8000E+01
6.500000    0.3510E+02 0.3230E-01 0.8000E+01
6.500000    0.3810E+02 0.2890E-01 0.1000E+02
6.500000    0.4300E+02 0.2730E-01 0.1000E+02
6.500000    0.4600E+02 0.2860E-01 0.1000E+02
6.500000    0.4690E+02 0.2780E-01 0.8000E+01
6.500000    0.5100E+02 0.2650E-01 0.8000E+01
6.500000    0.5400E+02 0.2390E-01 0.1000E+02
6.500000    0.5850E+02 0.2200E-01 0.1000E+02
6.500000    0.6150E+02 0.2310E-01 0.1000E+02
6.500000    0.6300E+02 0.2480E-01 0.8000E+01
6.500000    0.6740E+02 0.2320E-01 0.8000E+01
6.500000    0.6940E+02 0.2190E-01 0.1000E+02
6.500000    0.7390E+02 0.1980E-01 0.1000E+02
6.500000    0.7690E+02 0.2120E-01 0.1000E+02
6.500000    0.7890E+02 0.2340E-01 0.8000E+01
6.500000    0.8300E+02 0.2110E-01 0.8160E+01
6.500000    0.8490E+02 0.2300E-01 0.8000E+01
6.500000    0.8940E+02 0.1760E-01 0.1000E+02
6.500000    0.9240E+02 0.2030E-01 0.1000E+02
6.500000    0.9450E+02 0.2000E-01 0.8000E+01
6.500000    0.9830E+02 0.1970E-01 0.8840E+01
6.500000    0.1010E+03 0.1970E-01 0.8980E+01
6.500000    0.1050E+03 0.1830E-01 0.1000E+02
6.500000    0.1080E+03 0.1570E-01 0.1000E+02
6.500000    0.1100E+03 0.1790E-01 0.8380E+01
6.500000    0.1140E+03 0.1890E-01 0.9030E+01
6.500000    0.1160E+03 0.1870E-01 0.8020E+01
6.500000    0.1200E+03 0.1580E-01 0.1000E+02
6.500000    0.1230E+03 0.1480E-01 0.1000E+02
6.500000    0.1250E+03 0.1580E-01 0.9490E+01
6.500000    0.1290E+03 0.1270E-01 0.1150E+02
6.500000    0.1320E+03 0.1390E-01 0.1080E+02
6.500000    0.1360E+03 0.1310E-01 0.1000E+02
6.500000    0.1390E+03 0.1300E-01 0.1000E+02
6.500000    0.1420E+03 0.1200E-01 0.1250E+02
6.500000    0.1450E+03 0.1120E-01 0.1210E+02
6.500000    0.1470E+03 0.1170E-01 0.1000E+02
6.500000    0.1480E+03 0.1100E-01 0.1360E+02
6.500000    0.1490E+03 0.1130E-01 0.1000E+02
6.500000    0.1520E+03 0.1110E-01 0.1350E+02
6.500000    0.1550E+03 0.1000E-01 0.1280E+02
6.500000    0.1570E+03 0.9090E-02 0.1420E+02
7.140000    0.1780E+02 0.3760E-01 0.8000E+01
7.140000    0.1970E+02 0.3480E-01 0.8000E+01
7.140000    0.2110E+02 0.3520E-01 0.8000E+01
7.140000    0.2560E+02 0.3370E-01 0.8000E+01
7.140000    0.2760E+02 0.3280E-01 0.8000E+01
7.140000    0.2860E+02 0.3270E-01 0.8000E+01
7.140000    0.2960E+02 0.3090E-01 0.8000E+01
7.140000    0.3130E+02 0.3190E-01 0.8000E+01
7.140000    0.3560E+02 0.2990E-01 0.8000E+01
7.140000    0.3850E+02 0.2920E-01 0.8000E+01
7.140000    0.4350E+02 0.2850E-01 0.8000E+01
7.140000    0.4500E+02 0.2500E-01 0.8000E+01
7.140000    0.4690E+02 0.2620E-01 0.8000E+01
7.140000    0.5190E+02 0.2370E-01 0.8000E+01
7.140000    0.5450E+02 0.2470E-01 0.8000E+01
7.140000    0.5890E+02 0.2340E-01 0.8000E+01
7.140000    0.6050E+02 0.2290E-01 0.8000E+01
7.140000    0.6240E+02 0.2210E-01 0.8000E+01
7.140000    0.6740E+02 0.2130E-01 0.8000E+01
7.140000    0.6990E+02 0.2170E-01 0.8000E+01
7.140000    0.7440E+02 0.2200E-01 0.8000E+01
7.140000    0.7610E+02 0.2240E-01 0.8000E+01
7.140000    0.7780E+02 0.2140E-01 0.8000E+01
7.140000    0.8300E+02 0.1980E-01 0.8000E+01
7.140000    0.8540E+02 0.2210E-01 0.8000E+01
7.140000    0.8990E+02 0.2100E-01 0.8000E+01
7.140000    0.9140E+02 0.2130E-01 0.8000E+01
7.140000    0.9330E+02 0.2030E-01 0.8030E+01
7.140000    0.9830E+02 0.1930E-01 0.8630E+01
7.140000    0.1010E+03 0.1850E-01 0.8960E+01
7.140000    0.1050E+03 0.2020E-01 0.8000E+01
7.140000    0.1070E+03 0.2080E-01 0.8000E+01
7.140000    0.1090E+03 0.1770E-01 0.9280E+01
7.140000    0.1140E+03 0.1690E-01 0.9990E+01
7.140000    0.1160E+03 0.1840E-01 0.8150E+01
7.140000    0.1210E+03 0.1470E-01 0.1120E+02
7.140000    0.1240E+03 0.1390E-01 0.1180E+02
7.140000    0.1290E+03 0.1350E-01 0.1210E+02
7.140000    0.1310E+03 0.1580E-01 0.8000E+01
7.140000    0.1320E+03 0.1490E-01 0.1010E+02
7.140000    0.1390E+03 0.1260E-01 0.1190E+02
7.140000    0.1440E+03 0.1130E-01 0.1330E+02
7.140000    0.1460E+03 0.1230E-01 0.1220E+02
7.140000    0.1470E+03 0.1270E-01 0.1290E+02
7.140000    0.1480E+03 0.1190E-01 0.1380E+02
7.140000    0.1500E+03 0.1310E-01 0.1280E+02
7.140000    0.1540E+03 0.1090E-01 0.1380E+02
7.140000    0.1570E+03 0.1090E-01 0.1460E+02
7.500000    0.1680E+02 0.3280E-01 0.8000E+01
7.500000    0.2020E+02 0.3170E-01 0.1000E+02
7.500000    0.2530E+02 0.3360E-01 0.1500E+02
7.500000    0.2610E+02 0.2960E-01 0.8000E+01
7.500000    0.2760E+02 0.3180E-01 0.8010E+01
7.500000    0.2900E+02 0.2920E-01 0.8000E+01
7.500000    0.3020E+02 0.2690E-01 0.1500E+02
7.500000    0.3520E+02 0.2840E-01 0.1500E+02
7.500000    0.3600E+02 0.2740E-01 0.8000E+01
7.500000    0.4250E+02 0.2560E-01 0.8010E+01
7.500000    0.4660E+02 0.2270E-01 0.1500E+02
7.500000    0.5110E+02 0.2210E-01 0.1500E+02
7.500000    0.5480E+02 0.2280E-01 0.1000E+02
7.500000    0.5800E+02 0.1960E-01 0.8010E+01
7.500000    0.6100E+02 0.2120E-01 0.1000E+02
7.500000    0.6310E+02 0.1860E-01 0.1500E+02
7.500000    0.6810E+02 0.1920E-01 0.1500E+02
7.500000    0.7030E+02 0.1950E-01 0.8000E+01
7.500000    0.7490E+02 0.1910E-01 0.8000E+01
7.500000    0.7780E+02 0.1890E-01 0.8000E+01
7.500000    0.8500E+02 0.1880E-01 0.1500E+02
7.500000    0.8580E+02 0.1830E-01 0.8280E+01
7.500000    0.9030E+02 0.1870E-01 0.8260E+01
7.500000    0.9330E+02 0.1850E-01 0.8430E+01
7.500000    0.9830E+02 0.1780E-01 0.8900E+01
7.500000    0.1010E+03 0.1890E-01 0.8440E+01
7.500000    0.1010E+03 0.1900E-01 0.1000E+02
7.500000    0.1060E+03 0.1780E-01 0.9010E+01
7.500000    0.1100E+03 0.1640E-01 0.1500E+02
7.500000    0.1160E+03 0.1630E-01 0.1500E+02
7.500000    0.1170E+03 0.1700E-01 0.9630E+01
7.500000    0.1210E+03 0.1540E-01 0.1050E+02
7.500000    0.1240E+03 0.1450E-01 0.1130E+02
7.500000    0.1290E+03 0.1310E-01 0.1210E+02
7.500000    0.1320E+03 0.1250E-01 0.1280E+02
7.500000    0.1350E+03 0.1270E-01 0.8020E+01
7.500000    0.1400E+03 0.1120E-01 0.1430E+02
7.500000    0.1450E+03 0.1010E-01 0.1570E+02
7.500000    0.1460E+03 0.9620E-02 0.8040E+01
7.500000    0.1480E+03 0.9600E-02 0.1630E+02
7.500000    0.1500E+03 0.9760E-02 0.1590E+02
7.500000    0.1550E+03 0.9010E-02 0.1660E+02
7.500000    0.1570E+03 0.7950E-02 0.1920E+02
8.029000    0.1820E+02 0.3290E-01 0.8000E+01
8.029000    0.2520E+02 0.3050E-01 0.1000E+02
8.029000    0.2800E+02 0.3140E-01 0.8000E+01
8.029000    0.2990E+02 0.2690E-01 0.1000E+02
8.029000    0.3520E+02 0.2580E-01 0.1000E+02
8.029000    0.3900E+02 0.2770E-01 0.8000E+01
8.029000    0.4530E+02 0.2570E-01 0.1000E+02
8.029000    0.5190E+02 0.2200E-01 0.8000E+01
8.029000    0.5490E+02 0.2140E-01 0.8000E+01
8.029000    0.6090E+02 0.2080E-01 0.1000E+02
8.029000    0.6740E+02 0.1880E-01 0.8080E+01
8.029000    0.7030E+02 0.1890E-01 0.8010E+01
8.029000    0.7780E+02 0.1870E-01 0.8090E+01
8.029000    0.8520E+02 0.1720E-01 0.1000E+02
8.029000    0.9030E+02 0.1780E-01 0.8370E+01
8.029000    0.9330E+02 0.1640E-01 0.9090E+01
8.029000    0.1000E+03 0.1530E-01 0.1000E+02
8.029000    0.1060E+03 0.1570E-01 0.9420E+01
8.029000    0.1090E+03 0.1630E-01 0.9140E+01
8.029000    0.1170E+03 0.1500E-01 0.1010E+02
8.029000    0.1230E+03 0.1550E-01 0.1000E+02
8.029000    0.1290E+03 0.1230E-01 0.1220E+02
8.029000    0.1320E+03 0.1240E-01 0.1240E+02
8.029000    0.1400E+03 0.1130E-01 0.1320E+02
8.029000    0.1450E+03 0.9660E-02 0.1550E+02
8.029000    0.1470E+03 0.9410E-02 0.1570E+02
8.029000    0.1500E+03 0.8910E-02 0.1610E+02
8.029000    0.1550E+03 0.6990E-02 0.2010E+02
8.029000    0.1570E+03 0.7470E-02 0.1860E+02
8.399999    0.1890E+02 0.3160E-01 0.1000E+02
8.399999    0.2180E+02 0.3530E-01 0.1000E+02
8.399999    0.2680E+02 0.3170E-01 0.1000E+02
8.399999    0.2970E+02 0.2840E-01 0.1000E+02
8.399999    0.3490E+02 0.2940E-01 0.1000E+02
8.399999    0.3970E+02 0.3080E-01 0.1000E+02
8.399999    0.4760E+02 0.2610E-01 0.1000E+02
8.399999    0.5560E+02 0.2370E-01 0.1000E+02
8.399999    0.6060E+02 0.1940E-01 0.1000E+02
8.399999    0.6810E+02 0.1980E-01 0.1010E+02
8.399999    0.7100E+02 0.1630E-01 0.1230E+02
8.399999    0.7620E+02 0.1630E-01 0.1000E+02
8.399999    0.8350E+02 0.1630E-01 0.1220E+02
8.399999    0.8650E+02 0.1520E-01 0.1310E+02
8.399999    0.9150E+02 0.1500E-01 0.1000E+02
8.399999    0.9900E+02 0.1630E-01 0.1210E+02
8.399999    0.1020E+03 0.1630E-01 0.1190E+02
8.399999    0.1070E+03 0.1490E-01 0.1000E+02
8.399999    0.1140E+03 0.1350E-01 0.1470E+02
8.399999    0.1170E+03 0.1330E-01 0.1500E+02
8.399999    0.1220E+03 0.1270E-01 0.1000E+02
8.399999    0.1300E+03 0.1270E-01 0.1570E+02
8.399999    0.1330E+03 0.1170E-01 0.1720E+02
8.399999    0.1400E+03 0.9530E-02 0.2070E+02
8.399999    0.1450E+03 0.9590E-02 0.2030E+02
8.399999    0.1470E+03 0.8830E-02 0.2190E+02
8.399999    0.1500E+03 0.7600E-02 0.2500E+02
8.399999    0.1550E+03 0.6690E-02 0.2770E+02
8.399999    0.1580E+03 0.7280E-02 0.2510E+02
9.059999    0.1890E+02 0.2420E-01 0.8920E+01
9.059999    0.2680E+02 0.2830E-01 0.7370E+01
9.059999    0.2870E+02 0.2240E-01 0.9370E+01
9.059999    0.2970E+02 0.2340E-01 0.8940E+01
9.059999    0.3200E+02 0.2160E-01 0.9560E+01
9.059999    0.3670E+02 0.2750E-01 0.7520E+01
9.059999    0.3970E+02 0.2270E-01 0.9240E+01
9.059999    0.4460E+02 0.2480E-01 0.8370E+01
9.059999    0.4760E+02 0.2210E-01 0.9290E+01
9.059999    0.5260E+02 0.2450E-01 0.8460E+01
9.059999    0.5560E+02 0.2130E-01 0.9570E+01
9.059999    0.6010E+02 0.1790E-01 0.1130E+02
9.059999    0.6310E+02 0.1820E-01 0.1120E+02
9.059999    0.6810E+02 0.1550E-01 0.1310E+02
9.059999    0.7100E+02 0.1400E-01 0.1450E+02
9.059999    0.7600E+02 0.1470E-01 0.1370E+02
9.059999    0.7850E+02 0.1770E-01 0.1140E+02
9.059999    0.8350E+02 0.1570E-01 0.1290E+02
9.059999    0.8650E+02 0.1390E-01 0.1430E+02
9.059999    0.9100E+02 0.1430E-01 0.1390E+02
9.059999    0.9400E+02 0.1280E-01 0.1560E+02
9.059999    0.9900E+02 0.1190E-01 0.1640E+02
9.059999    0.1020E+03 0.1240E-01 0.1570E+02
9.059999    0.1060E+03 0.1120E-01 0.1740E+02
9.059999    0.1100E+03 0.1200E-01 0.1590E+02
9.059999    0.1140E+03 0.1080E-01 0.1780E+02
9.059999    0.1170E+03 0.1090E-01 0.1780E+02
9.059999    0.1220E+03 0.1070E-01 0.1800E+02
9.059999    0.1250E+03 0.9880E-02 0.1930E+02
9.059999    0.1300E+03 0.9520E-02 0.2040E+02
9.059999    0.1330E+03 0.8380E-02 0.2240E+02
9.059999    0.1370E+03 0.7900E-02 0.2410E+02
9.059999    0.1400E+03 0.7490E-02 0.2510E+02
9.059999    0.1450E+03 0.7390E-02 0.2450E+02
9.059999    0.1470E+03 0.6950E-02 0.2620E+02
9.059999    0.1480E+03 0.5870E-02 0.3130E+02
9.059999    0.1500E+03 0.7690E-02 0.2350E+02
9.059999    0.1550E+03 0.6480E-02 0.2620E+02
9.059999    0.1580E+03 0.5860E-02 0.2820E+02
9.500000    0.1890E+02 0.2130E-01 0.8000E+01
9.500000    0.2530E+02 0.2440E-01 0.1000E+02
9.500000    0.2680E+02 0.2020E-01 0.8000E+01
9.500000    0.2970E+02 0.2190E-01 0.8000E+01
9.500000    0.3090E+02 0.1970E-01 0.1270E+02
9.500000    0.3520E+02 0.2160E-01 0.1000E+02
9.500000    0.3670E+02 0.2280E-01 0.8000E+01
9.500000    0.4460E+02 0.2290E-01 0.8000E+01
9.500000    0.4760E+02 0.2370E-01 0.8000E+01
9.500000    0.5150E+02 0.2060E-01 0.1210E+02
9.500000    0.5560E+02 0.1990E-01 0.8000E+01
9.500000    0.6010E+02 0.1910E-01 0.8000E+01
9.500000    0.6310E+02 0.1340E-01 0.1000E+02
9.500000    0.6700E+02 0.1540E-01 0.1620E+02
9.500000    0.6810E+02 0.1590E-01 0.8000E+01
9.500000    0.7450E+02 0.1470E-01 0.1700E+02
9.500000    0.7900E+02 0.1210E-01 0.1000E+02
9.500000    0.8350E+02 0.1330E-01 0.8000E+01
9.500000    0.8650E+02 0.1240E-01 0.8000E+01
9.500000    0.9100E+02 0.1190E-01 0.8300E+01
9.500000    0.9400E+02 0.1210E-01 0.8130E+01
9.500000    0.9900E+02 0.9500E-02 0.1010E+02
9.500000    0.1020E+03 0.1040E-01 0.9060E+01
9.500000    0.1060E+03 0.1020E-01 0.9660E+01
9.500000    0.1100E+03 0.8810E-02 0.1130E+02
9.500000    0.1130E+03 0.1050E-01 0.2380E+02
9.500000    0.1160E+03 0.9730E-02 0.1030E+02
9.500000    0.1210E+03 0.8160E-02 0.3060E+02
9.500000    0.1240E+03 0.7930E-02 0.3150E+02
9.500000    0.1250E+03 0.8520E-02 0.1110E+02
9.500000    0.1300E+03 0.7860E-02 0.1200E+02
9.500000    0.1330E+03 0.7640E-02 0.1240E+02
9.500000    0.1370E+03 0.6640E-02 0.1440E+02
9.500000    0.1400E+03 0.5970E-02 0.1550E+02
9.500000    0.1450E+03 0.6220E-02 0.1430E+02
9.500000    0.1460E+03 0.7300E-02 0.3420E+02
9.500000    0.1480E+03 0.6830E-02 0.1460E+02
9.500000    0.1500E+03 0.6170E-02 0.1420E+02
9.500000    0.1540E+03 0.7740E-02 0.3230E+02
9.990000    0.1820E+02 0.3080E-01 0.8000E+01
9.990000    0.2070E+02 0.3100E-01 0.1000E+02
9.990000    0.2170E+02 0.2930E-01 0.6830E+01
9.990000    0.2470E+02 0.2420E-01 0.8270E+01
9.990000    0.2800E+02 0.2670E-01 0.8000E+01
9.990000    0.2900E+02 0.2730E-01 0.8000E+01
9.990000    0.3130E+02 0.2800E-01 0.8000E+01
9.990000    0.3310E+02 0.2500E-01 0.1000E+02
9.990000    0.3600E+02 0.2670E-01 0.8000E+01
9.990000    0.3900E+02 0.2970E-01 0.8000E+01
9.990000    0.4600E+02 0.2600E-01 0.7710E+01
9.990000    0.4690E+02 0.2640E-01 0.8000E+01
9.990000    0.5190E+02 0.2480E-01 0.8000E+01
9.990000    0.5940E+02 0.2140E-01 0.8000E+01
9.990000    0.6240E+02 0.2170E-01 0.8000E+01
9.990000    0.6300E+02 0.1950E-01 0.1030E+02
9.990000    0.6740E+02 0.1960E-01 0.8000E+01
9.990000    0.6990E+02 0.1710E-01 0.1000E+02
9.990000    0.7490E+02 0.1600E-01 0.9620E+01
9.990000    0.7780E+02 0.1710E-01 0.9030E+01
9.990000    0.8300E+02 0.1510E-01 0.1010E+02
9.990000    0.8580E+02 0.1390E-01 0.1100E+02
9.990000    0.9290E+02 0.1320E-01 0.1520E+02
9.990000    0.9540E+02 0.1350E-01 0.1110E+02
9.990000    0.1010E+03 0.1250E-01 0.1200E+02
9.990000    0.1060E+03 0.1260E-01 0.1180E+02
9.990000    0.1090E+03 0.1040E-01 0.1920E+02
9.990000    0.1090E+03 0.1030E-01 0.1950E+02
9.990000    0.1140E+03 0.1210E-01 0.1240E+02
9.990000    0.1160E+03 0.1000E-01 0.2000E+02
9.990000    0.1210E+03 0.1070E-01 0.1370E+02
9.990000    0.1240E+03 0.9750E-02 0.1470E+02
9.990000    0.1260E+03 0.9060E-02 0.1650E+02
9.990000    0.1290E+03 0.8880E-02 0.1620E+02
9.990000    0.1370E+03 0.8420E-02 0.1720E+02
9.990000    0.1400E+03 0.7580E-02 0.1910E+02
9.990000    0.1420E+03 0.7680E-02 0.1950E+02
9.990000    0.1450E+03 0.7150E-02 0.1960E+02
9.990000    0.1470E+03 0.7070E-02 0.1920E+02
9.990000    0.1490E+03 0.7090E-02 0.2820E+02
9.990000    0.1510E+03 0.6250E-02 0.3190E+02
9.990000    0.1540E+03 0.6000E-02 0.3330E+02
9.990000    0.1570E+03 0.6390E-02 0.2350E+02
ENDDATA            476
ENDSUBENT          495
SUBENT        13154004     890428              20050926       0000
BIB                  8         11
REACTION   (4-BE-9(N,EL)4-BE-9,,SIG)
INC-SOURCE (D-D)
DETECTOR   (SCIN) LIQUID SCINTILLATION DETECTORS
MONITOR    (1-H-1(N,EL)1-H-1,,DA)
CORRECTION CORRECTED FOR: MULTIPLE SCATTERING
                          BEAM ATTENUATION
                          ANGULAR RESOLUTION
ERR-ANALYS DATA ERRORS GIVEN ARE STATISTICAL UNCERTAINTIES
COMMENT    MULTIPLE MEASUREMENTS AT SAME ENERGY
STATUS     (DEP,13154002)
           DATA TAKEN FROM TABLE 1 IN REPORT
ENDBIB              11
COMMON               2          3
EN-ERR     DATA-ERR
KEV        PER-CENT
 10.        2.5
ENDCOMMON            3
DATA                 2         12
EN         DATA
MEV        B
 4.5        1.370
 5.0        1.300
 5.5        1.215
 5.9        1.200
 6.5        1.150
 7.14       1.120
 7.5        1.100
 8.03       1.145
 8.4        1.155
 9.06       1.150
 9.5        1.145
10.0        1.140
ENDDATA             14
ENDSUBENT           34
SUBENT        13154005     890428              20050926       0000
BIB                  8         11
REACTION   (4-BE-9(N,INL)4-BE-9,PAR,SIG)
INC-SOURCE (D-D)
DETECTOR   (SCIN) LIQUID SCINTILLATION DETECTORS
MONITOR    (1-H-1(N,EL)1-H-1,,DA)
CORRECTION CORRECTED FOR: MULTIPLE SCATTERING
                          BEAM ATTENUATION
                          ANGULAR RESOLUTION
ERR-ANALYS DATA ERRORS GIVEN ARE STATISTICAL UNCERTAINTIES
COMMENT    MULTIPLE MEASUREMENTS AT SAME ENERGY
STATUS     (DEP,13154003)
           DATA TAKEN FROM TABLE 1 IN REPORT
ENDBIB              11
COMMON               4          3
E-EXC      E-EXC-ERR  EN-ERR     DATA-ERR
MEV        MEV        KEV        PER-CENT
2.43       0.06        10.        10.
ENDCOMMON            3
DATA                 2         12
EN         DATA
MEV        B
 4.5        0.260
 5.0        0.256
 5.5        0.278
 5.9        0.263
 6.5        0.260
 7.14       0.260
 7.5        0.235
 8.03       0.224
 8.4        0.218
 9.06       0.184
 9.5        0.164
10.0        0.197
ENDDATA             14
ENDSUBENT           34
SUBENT        13154006     900314              20050926       0000
BIB                  6          9
REACTION   (4-BE-9(N,TOT),,SIG)
INC-SOURCE (D-BE)
METHOD     ROTATING SAMPLE TECHNIQUE
ERR-ANALYS (DATA-ERR) STATISTICAL UNCERTAINTIES (<1 TO SEVERAL
             PERCENT).  IDENTIFIABLE SYSTEMATIC UNCERTAINTIES
             CONSIDERABLY SMALLER.
STATUS     DATA RECEIVED BY ELECTRONIC MAIL, 90/2/23
           APPROVED BY A.B.SMITH, 90/3/14
HISTORY    (900228A) DATA ADDED
ENDBIB               9
NOCOMMON             0          0
DATA                 3        580
EN         DATA       DATA-ERR
MEV        B          B
 0.1000E 01 0.3409E 01 0.1817E 00
 0.1003E 01 0.3386E 01 0.1718E 00
 0.1005E 01 0.3615E 01 0.1679E 00
 0.1008E 01 0.3492E 01 0.1623E 00
 0.1010E 01 0.3565E 01 0.1672E 00
 0.1012E 01 0.3403E 01 0.1610E 00
 0.1015E 01 0.3290E 01 0.1574E 00
 0.1017E 01 0.3135E 01 0.1532E 00
 0.1020E 01 0.3214E 01 0.1532E 00
 0.1022E 01 0.3335E 01 0.1491E 00
 0.1025E 01 0.3142E 01 0.1417E 00
 0.1027E 01 0.3258E 01 0.1460E 00
 0.1030E 01 0.3249E 01 0.1463E 00
 0.1032E 01 0.3337E 01 0.1442E 00
 0.1035E 01 0.3497E 01 0.1463E 00
 0.1037E 01 0.3445E 01 0.1418E 00
 0.1040E 01 0.3434E 01 0.1386E 00
 0.1042E 01 0.3518E 01 0.1374E 00
 0.1045E 01 0.3301E 01 0.1324E 00
 0.1048E 01 0.3390E 01 0.1337E 00
 0.1050E 01 0.3420E 01 0.1299E 00
 0.1053E 01 0.3680E 01 0.1335E 00
 0.1055E 01 0.3300E 01 0.1274E 00
 0.1058E 01 0.3111E 01 0.1256E 00
 0.1061E 01 0.3247E 01 0.1229E 00
 0.1063E 01 0.3313E 01 0.1244E 00
 0.1066E 01 0.3267E 01 0.1214E 00
 0.1068E 01 0.3292E 01 0.1195E 00
 0.1071E 01 0.3176E 01 0.1190E 00
 0.1074E 01 0.3183E 01 0.1188E 00
 0.1076E 01 0.3146E 01 0.1142E 00
 0.1079E 01 0.3276E 01 0.1166E 00
 0.1082E 01 0.3117E 01 0.1141E 00
 0.1085E 01 0.3006E 01 0.1101E 00
 0.1087E 01 0.3205E 01 0.1122E 00
 0.1090E 01 0.3317E 01 0.1127E 00
 0.1093E 01 0.3044E 01 0.1097E 00
 0.1095E 01 0.3099E 01 0.1092E 00
 0.1098E 01 0.2961E 01 0.1042E 00
 0.1101E 01 0.2933E 01 0.1047E 00
 0.1104E 01 0.3012E 01 0.1064E 00
 0.1107E 01 0.3037E 01 0.1066E 00
 0.1109E 01 0.3168E 01 0.1080E 00
 0.1112E 01 0.3066E 01 0.1052E 00
 0.1115E 01 0.2955E 01 0.1059E 00
 0.1118E 01 0.3119E 01 0.1042E 00
 0.1121E 01 0.3206E 01 0.1028E 00
 0.1123E 01 0.3078E 01 0.9977E-01
 0.1126E 01 0.3076E 01 0.9841E-01
 0.1129E 01 0.2965E 01 0.9486E-01
 0.1132E 01 0.3148E 01 0.9639E-01
 0.1135E 01 0.3108E 01 0.9627E-01
 0.1138E 01 0.3160E 01 0.9668E-01
 0.1141E 01 0.3091E 01 0.9358E-01
 0.1144E 01 0.2934E 01 0.9214E-01
 0.1147E 01 0.2836E 01 0.9007E-01
 0.1150E 01 0.3026E 01 0.9216E-01
 0.1153E 01 0.2973E 01 0.8973E-01
 0.1156E 01 0.2891E 01 0.8945E-01
 0.1159E 01 0.2820E 01 0.8801E-01
 0.1162E 01 0.2896E 01 0.8815E-01
 0.1165E 01 0.2878E 01 0.8632E-01
 0.1168E 01 0.2973E 01 0.8746E-01
 0.1171E 01 0.2982E 01 0.8543E-01
 0.1174E 01 0.2917E 01 0.8525E-01
 0.1177E 01 0.2867E 01 0.8454E-01
 0.1180E 01 0.3005E 01 0.8469E-01
 0.1183E 01 0.2869E 01 0.8229E-01
 0.1186E 01 0.2785E 01 0.8156E-01
 0.1189E 01 0.2901E 01 0.8169E-01
 0.1192E 01 0.2908E 01 0.8174E-01
 0.1195E 01 0.2831E 01 0.8024E-01
 0.1199E 01 0.2749E 01 0.7921E-01
 0.1202E 01 0.2818E 01 0.7985E-01
 0.1205E 01 0.2807E 01 0.7817E-01
 0.1208E 01 0.2775E 01 0.7881E-01
 0.1211E 01 0.2727E 01 0.7889E-01
 0.1214E 01 0.2778E 01 0.7802E-01
 0.1218E 01 0.2893E 01 0.7598E-01
 0.1221E 01 0.2905E 01 0.7688E-01
 0.1224E 01 0.2829E 01 0.7566E-01
 0.1227E 01 0.2821E 01 0.7367E-01
 0.1231E 01 0.2894E 01 0.7445E-01
 0.1234E 01 0.2758E 01 0.7337E-01
 0.1237E 01 0.2665E 01 0.7165E-01
 0.1241E 01 0.2639E 01 0.7197E-01
 0.1244E 01 0.2687E 01 0.7144E-01
 0.1247E 01 0.2732E 01 0.7090E-01
 0.1251E 01 0.2754E 01 0.7051E-01
 0.1254E 01 0.2668E 01 0.6961E-01
 0.1257E 01 0.2831E 01 0.7041E-01
 0.1261E 01 0.2794E 01 0.7058E-01
 0.1264E 01 0.2706E 01 0.6889E-01
 0.1268E 01 0.2718E 01 0.6897E-01
 0.1271E 01 0.2611E 01 0.6783E-01
 0.1274E 01 0.2659E 01 0.6755E-01
 0.1278E 01 0.2715E 01 0.6785E-01
 0.1281E 01 0.2716E 01 0.6758E-01
 0.1285E 01 0.2606E 01 0.6661E-01
 0.1288E 01 0.2740E 01 0.6790E-01
 0.1292E 01 0.2601E 01 0.6605E-01
 0.1295E 01 0.2503E 01 0.6570E-01
 0.1299E 01 0.2545E 01 0.6550E-01
 0.1302E 01 0.2554E 01 0.6554E-01
 0.1306E 01 0.2675E 01 0.6620E-01
 0.1310E 01 0.2611E 01 0.6485E-01
 0.1313E 01 0.2607E 01 0.6538E-01
 0.1317E 01 0.2562E 01 0.6395E-01
 0.1321E 01 0.2592E 01 0.6429E-01
 0.1324E 01 0.2567E 01 0.6372E-01
 0.1328E 01 0.2443E 01 0.6238E-01
 0.1332E 01 0.2447E 01 0.6216E-01
 0.1335E 01 0.2478E 01 0.6200E-01
 0.1339E 01 0.2626E 01 0.6249E-01
 0.1343E 01 0.2548E 01 0.6228E-01
 0.1346E 01 0.2488E 01 0.6198E-01
 0.1350E 01 0.2426E 01 0.6197E-01
 0.1354E 01 0.2457E 01 0.6098E-01
 0.1358E 01 0.2394E 01 0.5963E-01
 0.1362E 01 0.2413E 01 0.5851E-01
 0.1365E 01 0.2468E 01 0.5901E-01
 0.1369E 01 0.2359E 01 0.5831E-01
 0.1373E 01 0.2315E 01 0.5775E-01
 0.1377E 01 0.2376E 01 0.5710E-01
 0.1381E 01 0.2378E 01 0.5739E-01
 0.1385E 01 0.2420E 01 0.5705E-01
 0.1389E 01 0.2383E 01 0.5605E-01
 0.1393E 01 0.2335E 01 0.5597E-01
 0.1396E 01 0.2452E 01 0.5644E-01
 0.1400E 01 0.2374E 01 0.5625E-01
 0.1404E 01 0.2317E 01 0.5506E-01
 0.1408E 01 0.2319E 01 0.5519E-01
 0.1412E 01 0.2390E 01 0.5515E-01
 0.1417E 01 0.2308E 01 0.5443E-01
 0.1421E 01 0.2312E 01 0.5410E-01
 0.1425E 01 0.2237E 01 0.5336E-01
 0.1429E 01 0.2345E 01 0.5359E-01
 0.1433E 01 0.2273E 01 0.5262E-01
 0.1437E 01 0.2318E 01 0.5254E-01
 0.1441E 01 0.2243E 01 0.5158E-01
 0.1445E 01 0.2352E 01 0.5201E-01
 0.1449E 01 0.2288E 01 0.5120E-01
 0.1454E 01 0.2274E 01 0.5092E-01
 0.1458E 01 0.2259E 01 0.5073E-01
 0.1462E 01 0.2158E 01 0.4991E-01
 0.1466E 01 0.2183E 01 0.5012E-01
 0.1471E 01 0.2223E 01 0.4986E-01
 0.1475E 01 0.2210E 01 0.4995E-01
 0.1479E 01 0.2239E 01 0.5000E-01
 0.1484E 01 0.2197E 01 0.4917E-01
 0.1488E 01 0.2219E 01 0.4920E-01
 0.1492E 01 0.2134E 01 0.4849E-01
 0.1497E 01 0.2149E 01 0.4874E-01
 0.1501E 01 0.2157E 01 0.4773E-01
 0.1506E 01 0.2088E 01 0.4792E-01
 0.1510E 01 0.2044E 01 0.4746E-01
 0.1514E 01 0.2163E 01 0.4764E-01
 0.1519E 01 0.2178E 01 0.4718E-01
 0.1523E 01 0.2094E 01 0.4702E-01
 0.1528E 01 0.2116E 01 0.4642E-01
 0.1532E 01 0.2073E 01 0.4611E-01
 0.1537E 01 0.2100E 01 0.4610E-01
 0.1542E 01 0.2095E 01 0.4605E-01
 0.1546E 01 0.2104E 01 0.4568E-01
 0.1551E 01 0.2119E 01 0.4550E-01
 0.1556E 01 0.2013E 01 0.4554E-01
 0.1560E 01 0.2023E 01 0.4489E-01
 0.1565E 01 0.2047E 01 0.4507E-01
 0.1570E 01 0.2056E 01 0.4469E-01
 0.1574E 01 0.2095E 01 0.4480E-01
 0.1579E 01 0.2081E 01 0.4443E-01
 0.1584E 01 0.2005E 01 0.4436E-01
 0.1589E 01 0.2004E 01 0.4452E-01
 0.1593E 01 0.2026E 01 0.4441E-01
 0.1598E 01 0.1966E 01 0.4409E-01
 0.1603E 01 0.2029E 01 0.4339E-01
 0.1608E 01 0.2031E 01 0.4316E-01
 0.1613E 01 0.1925E 01 0.4255E-01
 0.1618E 01 0.1911E 01 0.4225E-01
 0.1623E 01 0.1983E 01 0.4246E-01
 0.1628E 01 0.1912E 01 0.4170E-01
 0.1633E 01 0.1921E 01 0.4154E-01
 0.1638E 01 0.1932E 01 0.4169E-01
 0.1643E 01 0.1876E 01 0.4115E-01
 0.1648E 01 0.1903E 01 0.4125E-01
 0.1653E 01 0.1862E 01 0.4124E-01
 0.1658E 01 0.1912E 01 0.4098E-01
 0.1663E 01 0.1886E 01 0.4047E-01
 0.1668E 01 0.1910E 01 0.3996E-01
 0.1674E 01 0.1838E 01 0.3983E-01
 0.1679E 01 0.1885E 01 0.3992E-01
 0.1684E 01 0.1859E 01 0.3981E-01
 0.1689E 01 0.1840E 01 0.3943E-01
 0.1695E 01 0.1838E 01 0.3931E-01
 0.1700E 01 0.1767E 01 0.3897E-01
 0.1705E 01 0.1819E 01 0.3916E-01
 0.1711E 01 0.1766E 01 0.3896E-01
 0.1716E 01 0.1780E 01 0.3883E-01
 0.1721E 01 0.1805E 01 0.3889E-01
 0.1727E 01 0.1843E 01 0.3870E-01
 0.1732E 01 0.1800E 01 0.3837E-01
 0.1738E 01 0.1784E 01 0.3803E-01
 0.1743E 01 0.1769E 01 0.3803E-01
 0.1749E 01 0.1709E 01 0.3803E-01
 0.1754E 01 0.1795E 01 0.3828E-01
 0.1760E 01 0.1754E 01 0.3807E-01
 0.1766E 01 0.1734E 01 0.3813E-01
 0.1771E 01 0.1701E 01 0.3795E-01
 0.1777E 01 0.1767E 01 0.3785E-01
 0.1783E 01 0.1756E 01 0.3744E-01
 0.1788E 01 0.1713E 01 0.3733E-01
 0.1794E 01 0.1749E 01 0.3707E-01
 0.1800E 01 0.1718E 01 0.3677E-01
 0.1806E 01 0.1750E 01 0.3663E-01
 0.1812E 01 0.1710E 01 0.3623E-01
 0.1818E 01 0.1681E 01 0.3615E-01
 0.1823E 01 0.1680E 01 0.3559E-01
 0.1829E 01 0.1744E 01 0.3601E-01
 0.1835E 01 0.1770E 01 0.3621E-01
 0.1841E 01 0.1773E 01 0.3568E-01
 0.1847E 01 0.1777E 01 0.3555E-01
 0.1853E 01 0.1742E 01 0.3527E-01
 0.1859E 01 0.1702E 01 0.3525E-01
 0.1866E 01 0.1654E 01 0.3496E-01
 0.1872E 01 0.1694E 01 0.3460E-01
 0.1878E 01 0.1657E 01 0.3455E-01
 0.1884E 01 0.1688E 01 0.3427E-01
 0.1890E 01 0.1671E 01 0.3446E-01
 0.1897E 01 0.1701E 01 0.3434E-01
 0.1903E 01 0.1678E 01 0.3415E-01
 0.1909E 01 0.1653E 01 0.3394E-01
 0.1915E 01 0.1710E 01 0.3396E-01
 0.1922E 01 0.1694E 01 0.3374E-01
 0.1928E 01 0.1637E 01 0.3336E-01
 0.1935E 01 0.1653E 01 0.3320E-01
 0.1941E 01 0.1670E 01 0.3330E-01
 0.1948E 01 0.1683E 01 0.3329E-01
 0.1954E 01 0.1637E 01 0.3289E-01
 0.1961E 01 0.1683E 01 0.3275E-01
 0.1967E 01 0.1716E 01 0.3293E-01
 0.1974E 01 0.1682E 01 0.3261E-01
 0.1981E 01 0.1661E 01 0.3226E-01
 0.1987E 01 0.1670E 01 0.3239E-01
 0.1994E 01 0.1688E 01 0.3242E-01
 0.2001E 01 0.1733E 01 0.3213E-01
 0.2008E 01 0.1663E 01 0.3192E-01
 0.2015E 01 0.1641E 01 0.3197E-01
 0.2022E 01 0.1690E 01 0.3198E-01
 0.2028E 01 0.1663E 01 0.3149E-01
 0.2035E 01 0.1665E 01 0.3150E-01
 0.2042E 01 0.1654E 01 0.3114E-01
 0.2049E 01 0.1736E 01 0.3145E-01
 0.2057E 01 0.1760E 01 0.3139E-01
 0.2064E 01 0.1730E 01 0.3119E-01
 0.2071E 01 0.1749E 01 0.3112E-01
 0.2078E 01 0.1709E 01 0.3118E-01
 0.2085E 01 0.1723E 01 0.3115E-01
 0.2092E 01 0.1700E 01 0.3078E-01
 0.2100E 01 0.1740E 01 0.3057E-01
 0.2107E 01 0.1789E 01 0.3061E-01
 0.2114E 01 0.1724E 01 0.3060E-01
 0.2122E 01 0.1719E 01 0.3048E-01
 0.2129E 01 0.1762E 01 0.3039E-01
 0.2137E 01 0.1790E 01 0.3040E-01
 0.2144E 01 0.1769E 01 0.3038E-01
 0.2152E 01 0.1802E 01 0.3035E-01
 0.2159E 01 0.1775E 01 0.3009E-01
 0.2167E 01 0.1825E 01 0.3015E-01
 0.2175E 01 0.1805E 01 0.3008E-01
 0.2182E 01 0.1818E 01 0.2988E-01
 0.2190E 01 0.1843E 01 0.3016E-01
 0.2198E 01 0.1825E 01 0.2997E-01
 0.2206E 01 0.1838E 01 0.2984E-01
 0.2214E 01 0.1865E 01 0.2991E-01
 0.2222E 01 0.1901E 01 0.2971E-01
 0.2230E 01 0.1915E 01 0.2964E-01
 0.2238E 01 0.1903E 01 0.2977E-01
 0.2246E 01 0.1925E 01 0.2974E-01
 0.2254E 01 0.1955E 01 0.2940E-01
 0.2262E 01 0.1929E 01 0.2940E-01
 0.2270E 01 0.1940E 01 0.2922E-01
 0.2278E 01 0.2014E 01 0.2930E-01
 0.2287E 01 0.1978E 01 0.2912E-01
 0.2295E 01 0.1975E 01 0.2914E-01
 0.2303E 01 0.1994E 01 0.2904E-01
 0.2312E 01 0.2031E 01 0.2910E-01
 0.2320E 01 0.2038E 01 0.2900E-01
 0.2329E 01 0.2070E 01 0.2906E-01
 0.2337E 01 0.2118E 01 0.2904E-01
 0.2346E 01 0.2128E 01 0.2905E-01
 0.2355E 01 0.2130E 01 0.2883E-01
 0.2363E 01 0.2125E 01 0.2891E-01
 0.2372E 01 0.2110E 01 0.2880E-01
 0.2381E 01 0.2188E 01 0.2892E-01
 0.2390E 01 0.2241E 01 0.2913E-01
 0.2399E 01 0.2277E 01 0.2915E-01
 0.2408E 01 0.2241E 01 0.2898E-01
 0.2417E 01 0.2273E 01 0.2911E-01
 0.2426E 01 0.2306E 01 0.2906E-01
 0.2435E 01 0.2281E 01 0.2897E-01
 0.2444E 01 0.2384E 01 0.2917E-01
 0.2453E 01 0.2443E 01 0.2930E-01
 0.2462E 01 0.2444E 01 0.2908E-01
 0.2472E 01 0.2453E 01 0.2919E-01
 0.2481E 01 0.2502E 01 0.2948E-01
 0.2491E 01 0.2529E 01 0.2945E-01
 0.2500E 01 0.2579E 01 0.2961E-01
 0.2510E 01 0.2571E 01 0.2960E-01
 0.2519E 01 0.2633E 01 0.2960E-01
 0.2529E 01 0.2694E 01 0.2971E-01
 0.2538E 01 0.2702E 01 0.2967E-01
 0.2548E 01 0.2724E 01 0.2991E-01
 0.2558E 01 0.2827E 01 0.2999E-01
 0.2568E 01 0.2841E 01 0.3028E-01
 0.2578E 01 0.2896E 01 0.3031E-01
 0.2588E 01 0.2936E 01 0.3042E-01
 0.2598E 01 0.2997E 01 0.3068E-01
 0.2608E 01 0.3057E 01 0.3065E-01
 0.2618E 01 0.3109E 01 0.3093E-01
 0.2628E 01 0.3124E 01 0.3100E-01
 0.2639E 01 0.3289E 01 0.3159E-01
 0.2649E 01 0.3373E 01 0.3205E-01
 0.2659E 01 0.3522E 01 0.3243E-01
 0.2670E 01 0.3676E 01 0.3329E-01
 0.2680E 01 0.3852E 01 0.3431E-01
 0.2691E 01 0.4031E 01 0.3523E-01
 0.2701E 01 0.4160E 01 0.3553E-01
 0.2712E 01 0.4212E 01 0.3591E-01
 0.2723E 01 0.4190E 01 0.3570E-01
 0.2734E 01 0.4150E 01 0.3515E-01
 0.2745E 01 0.4100E 01 0.3507E-01
 0.2756E 01 0.4019E 01 0.3449E-01
 0.2767E 01 0.3951E 01 0.3412E-01
 0.2778E 01 0.3870E 01 0.3354E-01
 0.2789E 01 0.3850E 01 0.3342E-01
 0.2800E 01 0.3823E 01 0.3315E-01
 0.2811E 01 0.3737E 01 0.3277E-01
 0.2823E 01 0.3729E 01 0.3276E-01
 0.2834E 01 0.3720E 01 0.3245E-01
 0.2846E 01 0.3662E 01 0.3222E-01
 0.2857E 01 0.3596E 01 0.3192E-01
 0.2869E 01 0.3592E 01 0.3187E-01
 0.2881E 01 0.3533E 01 0.3146E-01
 0.2892E 01 0.3502E 01 0.3153E-01
 0.2904E 01 0.3433E 01 0.3113E-01
 0.2916E 01 0.3435E 01 0.3088E-01
 0.2928E 01 0.3412E 01 0.3092E-01
 0.2940E 01 0.3409E 01 0.3082E-01
 0.2952E 01 0.3318E 01 0.3061E-01
 0.2965E 01 0.3229E 01 0.3019E-01
 0.2977E 01 0.3266E 01 0.3006E-01
 0.2989E 01 0.3215E 01 0.2983E-01
 0.3002E 01 0.3123E 01 0.2938E-01
 0.3014E 01 0.3103E 01 0.2917E-01
 0.3027E 01 0.3039E 01 0.2892E-01
 0.3040E 01 0.3045E 01 0.2871E-01
 0.3053E 01 0.2979E 01 0.2850E-01
 0.3065E 01 0.2957E 01 0.2835E-01
 0.3078E 01 0.2904E 01 0.2821E-01
 0.3091E 01 0.2898E 01 0.2805E-01
 0.3104E 01 0.2875E 01 0.2788E-01
 0.3118E 01 0.2826E 01 0.2778E-01
 0.3131E 01 0.2865E 01 0.2772E-01
 0.3144E 01 0.2801E 01 0.2748E-01
 0.3158E 01 0.2745E 01 0.2727E-01
 0.3171E 01 0.2783E 01 0.2724E-01
 0.3185E 01 0.2704E 01 0.2702E-01
 0.3199E 01 0.2717E 01 0.2705E-01
 0.3212E 01 0.2713E 01 0.2696E-01
 0.3226E 01 0.2702E 01 0.2680E-01
 0.3240E 01 0.2578E 01 0.2651E-01
 0.3254E 01 0.2619E 01 0.2644E-01
 0.3269E 01 0.2622E 01 0.2638E-01
 0.3283E 01 0.2607E 01 0.2639E-01
 0.3297E 01 0.2583E 01 0.2624E-01
 0.3312E 01 0.2539E 01 0.2604E-01
 0.3326E 01 0.2526E 01 0.2601E-01
 0.3341E 01 0.2554E 01 0.2611E-01
 0.3355E 01 0.2447E 01 0.2583E-01
 0.3370E 01 0.2512E 01 0.2594E-01
 0.3385E 01 0.2471E 01 0.2609E-01
 0.3400E 01 0.2430E 01 0.2591E-01
 0.3415E 01 0.2430E 01 0.2595E-01
 0.3431E 01 0.2394E 01 0.2587E-01
 0.3446E 01 0.2435E 01 0.2600E-01
 0.3461E 01 0.2381E 01 0.2606E-01
 0.3477E 01 0.2409E 01 0.2600E-01
 0.3493E 01 0.2376E 01 0.2614E-01
 0.3508E 01 0.2388E 01 0.2625E-01
 0.3524E 01 0.2308E 01 0.2614E-01
 0.3540E 01 0.2310E 01 0.2614E-01
 0.3556E 01 0.2361E 01 0.2616E-01
 0.3572E 01 0.2296E 01 0.2606E-01
 0.3589E 01 0.2275E 01 0.2596E-01
 0.3605E 01 0.2338E 01 0.2593E-01
 0.3622E 01 0.2309E 01 0.2594E-01
 0.3638E 01 0.2254E 01 0.2569E-01
 0.3655E 01 0.2255E 01 0.2559E-01
 0.3672E 01 0.2209E 01 0.2545E-01
 0.3689E 01 0.2189E 01 0.2523E-01
 0.3706E 01 0.2173E 01 0.2510E-01
 0.3723E 01 0.2174E 01 0.2501E-01
 0.3741E 01 0.2146E 01 0.2489E-01
 0.3758E 01 0.2171E 01 0.2487E-01
 0.3776E 01 0.2168E 01 0.2483E-01
 0.3793E 01 0.2125E 01 0.2456E-01
 0.3811E 01 0.2124E 01 0.2445E-01
 0.3829E 01 0.2143E 01 0.2435E-01
 0.3847E 01 0.2115E 01 0.2428E-01
 0.3865E 01 0.2087E 01 0.2415E-01
 0.3884E 01 0.2080E 01 0.2409E-01
 0.3902E 01 0.2057E 01 0.2399E-01
 0.3921E 01 0.2061E 01 0.2404E-01
 0.3940E 01 0.2086E 01 0.2397E-01
 0.3958E 01 0.2041E 01 0.2389E-01
 0.3977E 01 0.2023E 01 0.2416E-01
 0.3997E 01 0.1997E 01 0.2414E-01
 0.4016E 01 0.2005E 01 0.2417E-01
 0.4035E 01 0.2005E 01 0.2447E-01
 0.4055E 01 0.1980E 01 0.2454E-01
 0.4075E 01 0.1997E 01 0.2464E-01
 0.4094E 01 0.1930E 01 0.2447E-01
 0.4114E 01 0.1894E 01 0.2436E-01
 0.4135E 01 0.1883E 01 0.2431E-01
 0.4155E 01 0.1881E 01 0.2433E-01
 0.4175E 01 0.1893E 01 0.2453E-01
 0.4196E 01 0.1877E 01 0.2440E-01
 0.4217E 01 0.1929E 01 0.2462E-01
 0.4238E 01 0.1908E 01 0.2457E-01
 0.4259E 01 0.1992E 01 0.2466E-01
 0.4280E 01 0.1969E 01 0.2467E-01
 0.4301E 01 0.2014E 01 0.2479E-01
 0.4323E 01 0.2040E 01 0.2481E-01
 0.4345E 01 0.2036E 01 0.2490E-01
 0.4366E 01 0.2018E 01 0.2473E-01
 0.4389E 01 0.2023E 01 0.2480E-01
 0.4411E 01 0.2029E 01 0.2470E-01
 0.4433E 01 0.1992E 01 0.2464E-01
 0.4456E 01 0.2002E 01 0.2462E-01
 0.4478E 01 0.2035E 01 0.2450E-01
 0.4501E 01 0.2011E 01 0.2444E-01
 0.4524E 01 0.1984E 01 0.2427E-01
 0.4548E 01 0.1934E 01 0.2419E-01
 0.4571E 01 0.1955E 01 0.2420E-01
 0.4595E 01 0.1971E 01 0.2419E-01
 0.4618E 01 0.1955E 01 0.2401E-01
 0.4642E 01 0.1953E 01 0.2369E-01
 0.4667E 01 0.1953E 01 0.2359E-01
 0.4691E 01 0.1946E 01 0.2333E-01
 0.4716E 01 0.1909E 01 0.2304E-01
 0.4740E 01 0.1947E 01 0.2285E-01
 0.4765E 01 0.1914E 01 0.2268E-01
 0.4790E 01 0.1921E 01 0.2261E-01
 0.4816E 01 0.1939E 01 0.2251E-01
 0.4841E 01 0.1906E 01 0.2241E-01
 0.4867E 01 0.1901E 01 0.2222E-01
 0.4893E 01 0.1918E 01 0.2199E-01
 0.4919E 01 0.1900E 01 0.2181E-01
 0.4946E 01 0.1880E 01 0.2163E-01
 0.4972E 01 0.1876E 01 0.2162E-01
 0.4999E 01 0.1878E 01 0.2152E-01
 0.5026E 01 0.1894E 01 0.2166E-01
 0.5053E 01 0.1913E 01 0.2190E-01
 0.5081E 01 0.1930E 01 0.2223E-01
 0.5108E 01 0.1927E 01 0.2276E-01
 0.5136E 01 0.1909E 01 0.2337E-01
 0.5164E 01 0.1863E 01 0.2387E-01
 0.5193E 01 0.1916E 01 0.2440E-01
 0.5221E 01 0.1927E 01 0.2491E-01
 0.5250E 01 0.1908E 01 0.2514E-01
 0.5279E 01 0.1888E 01 0.2551E-01
 0.5309E 01 0.1896E 01 0.2560E-01
 0.5338E 01 0.1942E 01 0.2574E-01
 0.5368E 01 0.1922E 01 0.2566E-01
 0.5398E 01 0.1890E 01 0.2564E-01
 0.5428E 01 0.1887E 01 0.2571E-01
 0.5459E 01 0.1889E 01 0.2557E-01
 0.5490E 01 0.1886E 01 0.2558E-01
 0.5521E 01 0.1900E 01 0.2555E-01
 0.5552E 01 0.1866E 01 0.2552E-01
 0.5584E 01 0.1868E 01 0.2562E-01
 0.5616E 01 0.1864E 01 0.2550E-01
 0.5648E 01 0.1857E 01 0.2556E-01
 0.5681E 01 0.1903E 01 0.2583E-01
 0.5713E 01 0.1864E 01 0.2597E-01
 0.5746E 01 0.1878E 01 0.2636E-01
 0.5780E 01 0.1881E 01 0.2715E-01
 0.5813E 01 0.1873E 01 0.2833E-01
 0.5847E 01 0.1850E 01 0.2976E-01
 0.5882E 01 0.1827E 01 0.3157E-01
 0.5916E 01 0.1842E 01 0.3371E-01
 0.5951E 01 0.1851E 01 0.3642E-01
 0.5986E 01 0.1885E 01 0.3949E-01
 0.6022E 01 0.1843E 01 0.4183E-01
 0.6057E 01 0.1905E 01 0.4485E-01
 0.6093E 01 0.1853E 01 0.4732E-01
 0.6130E 01 0.1897E 01 0.5207E-01
 0.6167E 01 0.1847E 01 0.5572E-01
 0.6204E 01 0.1812E 01 0.5727E-01
 0.6241E 01 0.1841E 01 0.5766E-01
 0.6279E 01 0.1868E 01 0.5852E-01
 0.6317E 01 0.1814E 01 0.5854E-01
 0.6355E 01 0.1838E 01 0.5803E-01
 0.6394E 01 0.1882E 01 0.5871E-01
 0.6433E 01 0.1758E 01 0.5882E-01
 0.6473E 01 0.1831E 01 0.5954E-01
 0.6513E 01 0.1804E 01 0.5971E-01
 0.6553E 01 0.1859E 01 0.5967E-01
 0.6594E 01 0.1865E 01 0.5956E-01
 0.6635E 01 0.1810E 01 0.5917E-01
 0.6676E 01 0.1796E 01 0.5916E-01
 0.6718E 01 0.1790E 01 0.5996E-01
 0.6760E 01 0.1900E 01 0.5953E-01
 0.6802E 01 0.1823E 01 0.5928E-01
 0.6845E 01 0.1746E 01 0.5938E-01
 0.6889E 01 0.1815E 01 0.5955E-01
 0.6933E 01 0.1778E 01 0.5886E-01
 0.6977E 01 0.1806E 01 0.5858E-01
 0.7022E 01 0.1932E 01 0.5889E-01
 0.7067E 01 0.1804E 01 0.5834E-01
 0.7112E 01 0.1829E 01 0.5778E-01
 0.7158E 01 0.1772E 01 0.5760E-01
 0.7205E 01 0.1834E 01 0.5786E-01
 0.7251E 01 0.1792E 01 0.5673E-01
 0.7299E 01 0.1804E 01 0.5689E-01
 0.7347E 01 0.1813E 01 0.5659E-01
 0.7395E 01 0.1766E 01 0.5680E-01
 0.7444E 01 0.1781E 01 0.5747E-01
 0.7493E 01 0.1799E 01 0.5753E-01
 0.7543E 01 0.1726E 01 0.5887E-01
 0.7593E 01 0.1638E 01 0.5858E-01
 0.7643E 01 0.1681E 01 0.5938E-01
 0.7695E 01 0.1864E 01 0.5956E-01
 0.7746E 01 0.1734E 01 0.5940E-01
 0.7799E 01 0.1726E 01 0.5937E-01
 0.7852E 01 0.1708E 01 0.5989E-01
 0.7905E 01 0.1713E 01 0.5831E-01
 0.7959E 01 0.1739E 01 0.5799E-01
 0.8013E 01 0.1741E 01 0.5777E-01
 0.8068E 01 0.1747E 01 0.5724E-01
 0.8124E 01 0.1771E 01 0.5708E-01
 0.8180E 01 0.1788E 01 0.5609E-01
 0.8237E 01 0.1737E 01 0.5618E-01
 0.8294E 01 0.1822E 01 0.5533E-01
 0.8352E 01 0.1772E 01 0.5543E-01
 0.8411E 01 0.1720E 01 0.5536E-01
 0.8470E 01 0.1682E 01 0.5474E-01
 0.8530E 01 0.1741E 01 0.5514E-01
 0.8590E 01 0.1733E 01 0.5462E-01
 0.8652E 01 0.1744E 01 0.5463E-01
 0.8713E 01 0.1789E 01 0.5498E-01
 0.8776E 01 0.1782E 01 0.5473E-01
 0.8839E 01 0.1726E 01 0.5474E-01
 0.8903E 01 0.1665E 01 0.5476E-01
 0.8967E 01 0.1790E 01 0.5600E-01
 0.9032E 01 0.1709E 01 0.5679E-01
 0.9098E 01 0.1740E 01 0.5726E-01
 0.9165E 01 0.1746E 01 0.5841E-01
 0.9232E 01 0.1752E 01 0.5935E-01
 0.9301E 01 0.1677E 01 0.5958E-01
 0.9369E 01 0.1684E 01 0.6123E-01
 0.9439E 01 0.1736E 01 0.6301E-01
 0.9510E 01 0.1676E 01 0.6408E-01
 0.9581E 01 0.1707E 01 0.6565E-01
 0.9653E 01 0.1738E 01 0.6621E-01
 0.9726E 01 0.1743E 01 0.6746E-01
 0.9800E 01 0.1747E 01 0.6787E-01
 0.9874E 01 0.1705E 01 0.6765E-01
 0.9950E 01 0.1654E 01 0.6809E-01
 0.1003E 02 0.1831E 01 0.7010E-01
 0.1010E 02 0.1694E 01 0.6825E-01
 0.1018E 02 0.1711E 01 0.6999E-01
 0.1026E 02 0.1794E 01 0.7031E-01
 0.1034E 02 0.1705E 01 0.7251E-01
 0.1042E 02 0.1754E 01 0.7534E-01
 0.1050E 02 0.1596E 01 0.7780E-01
 0.1059E 02 0.1689E 01 0.8099E-01
 0.1067E 02 0.1742E 01 0.8427E-01
 0.1075E 02 0.1713E 01 0.8632E-01
 0.1084E 02 0.1584E 01 0.8895E-01
ENDDATA            582
ENDSUBENT          596
ENDENTRY             6
