ENTRY            23668   20250227   20250814   20250814       2321
SUBENT        23668001   20250227   20250814   20250814       2321
BIB                 13         70
TITLE      High-resolution cross section measurements for
            neutron interactions on 89Y with incident neutron
            energies up to 95 keV
AUTHOR     (G.Tagliente, P.M.Milazzo, C.Paradela, S.Kopecky,
            D.Vescovi, G.Alaerts, L.A.Damone, J.Heyse, M.Krticka,
            P.Schillebeeckx, A.Mengoni, R.Wynants, S.Valenta,
            O.Aberle, V.Alcayne, S.Amaducci, J.Andrzejewski,
            L.Audouin, V.Babiano-Suarez, M.Bacak, M.Barbagallo,
            V.Becares, F.Becvar, G.Bellia, E.Berthoumieux,
            J.Billowes, D.Bosnar, A.S.Brown, M.Busso, M.Caamano,
            L.Caballero, M.Calviani, F.Calvino, D.Cano-Ott,
            A.Casanovas, F.Cerutti, Y.H.Chen, E.Chiaveri,
            N.Colonna, G.P.Cortes, M.A.Cortes-Giraldo,
            L.Cosentino, S.Cristallo, M.Diakaki, M.Dietz,
            C.Domingo-Pardo, R.Dressler, E.Dupont, I.Duran,
            Z.Eleme, B.Fernandez-Domingez, A.Ferrari,
            I.Ferro-Goncalves, P.Finocchiaro, V.Furman, R.Garg,
            A.Gawlik, S.Gilardoni, T.Glodariu, K.Goebel,
            E.Gonzalez-Romero, C.Guerrero, F.Gunsing, S.Heinitz,
            D.G.Jenkins, E.Jericha, Y.Kadi, F.Kaeppeler, A.Kimura,
            N.Kivel, M.Kokkoris, Y.Kopatch, D.Kurtulgil,
            I.Ladarescu, A.C.Larsen, C.Lederer-Woods,
            J.Lerendegui-Marco, S.Lo Meo, S.J.Lonsdale, M.Lugaro,
            D.Macina, A.Manna, T.Martinez, A.Masi, C.Massimi,
            P.F.Mastinu, M.Mastromarco, F.Matteucci, E.Maugeri,
            A.Mazzone, E.Mendoza, V.Michalopoulou, F.Mingrone,
            A.Musumarra, A.Negret, R.Nolte, F.Ogallar, A.Oprea,
            N.Patronis, A.Pavlik, J.Perkowski, L.Piersanti,
            I.Porras, J.Praena, J.M.Quesada, D.Radeck,
            D.Ramos Doval, R.Reifarth, D.Rochman, C.Rubbia,
            M.Sabate-Gilarte, A.Saxena, D.Schumann, A.G.Smith,
            M.Spelta, N.Sosnin, A.Stamatopoulos, J.L.Tain,
            Z.Talip, A.E.Tarifeno-Saldivia, L.Tassan-Got,
            P.Torres-Sanchez, A.Tsinganis, J.Ulrich, S.Urlass,
            G.Vannini, V.Variale, P.Vaz, A.Ventura, V.Vlachoudis,
            R.Vlastou, A.Wallner, P.J.Woods, T.J.Wright, P.Zugec)
INSTITUTE  (2ITYBAU,2ITYTRI,2ZZZGEL,2ZZZCER,3CZRCHU,2ITYBOL,
            2ITYUBO,2SPNPCM,2ITYLNS,2ITYCAT,3POLLOU,2FR PAR,
            2SPNVAL,2AUSTHV,2FR SAC,2UK MAN,3CROZAG,2UK YRK,
            2ITYUPG,2SPNSAU,2SPNUPC,2SPNSEU,2ITYOAC,2GRCTUA,
            2UK EDG,2SWTPSI,2GRCIOA,2PRTLFE,4ZZZDUB,3RUMBUC,
            2GERFRK,2GERKFK,2JPNJAE,2NOROSL,2ITYPAD,2GERPTB,
            2SPNGRU,2AUSVIE,3INDTRM,2GERZFK,3AULCBR)
           (3HUNHUN) Konkoly Observatory Research Centre for
            Astronomy and Earth Sciences, Budapest
           (2ITYITY)  Consiglio Nazionale delle Ricerche, Bari
REFERENCE  (J,EPJ/A,60,21,2024)
FACILITY   (SYNCY,2ZZZCER) CERN nTOF facility.
            Protons (7E+12 protons/pulse, pulse width of 7 nsec
             in RMS)  were accelerated to 20 GeV/c.
INC-SOURCE (SPALL) 7E+12 neutrons/pulse were produced in a
            spallation target.
SAMPLE     Cylindrical (30.0(1) mm diameter, 1.0 mm thick)
            metallic sample (3.161(1) g, 3.0291(8)E-3 at/b)
            at about 20 deg-C
           Giuseppe Tagliente (2025-03-01):
            In the sample diameter in Table 2, 20.0(1) mm should
           read 30.0(1) mm.
DETECTOR   (SCIN) C6D6 liquid scintillator placed at 125 deg with
            respect to neutron beam direction.
METHOD     (PHWT)
MONITOR    (79-AU-197(N,G)79-AU-198,,SIG)
            Absolute normalization to the saturated 4.9 eV
            capture resonance of 197Au.
CORRECTION Corrected for background determined by measurements
            with no sample and with almost purely scattering
            natural carbon sample
STATUS     (APRVD) Approved by Giuseppe Tagliente (2025-0?-??)
HISTORY    (20250226R) On. Received from G.Tagliente via E.Dupont
           (20250227A) On+ED
ENDBIB              70
NOCOMMON             0          0
ENDSUBENT           73
SUBENT        23668002   20250227   20250814   20250814       2321
BIB                  3          4
REACTION   (39-Y-89(N,G)39-Y-90,,RYL,,REL)
           Unnormalized yield after background subtraction
ERR-ANALYS (ERR-S) Statistical uncertainty
STATUS     (TABLE) Data received from  Giuseppe Tagliente
ENDBIB               4
COMMON               2          3
THICKNESS  THICK-ERR
ATOMS/B    ATOMS/B
 3.0291E-03 0.0008E-03
ENDCOMMON            3
DATA                 3       1610
EN         DATA       ERR-S
EV         ARB-UNITS  ARB-UNITS
  1000.7   0.000313083 6.1287E-05
  1003.    0.0004547196.85436E-05
  1005.31  0.000271141 5.3737E-05
  1007.62  0.0003670046.05791E-05
  1009.94  0.0003275795.99848E-05
  1012.27  0.0001678235.51436E-05
  1014.6   0.0002947546.49975E-05
  1016.93  0.0005016986.47325E-05
  1019.27  0.00041071 5.85485E-05
  1021.62  0.0003608696.31633E-05
  1023.97  0.000284984 6.7661E-05
  1026.33  0.00031895 5.82455E-05
  1028.69  0.0004633156.63454E-05
  1031.06  0.0002978325.36538E-05
  1033.43  0.0002677065.47699E-05
  1035.81  0.000592545  6.782E-05
  1038.2   0.0004233086.38763E-05
  1040.59  0.0002465  5.30153E-05
  1042.98  0.0003414895.86142E-05
  1045.38  0.0006129396.28727E-05
  1047.79  0.0003331176.54409E-05
  1050.2   0.00038511 6.31122E-05
  1052.62  0.0004272616.82198E-05
  1055.04  0.0005265846.56155E-05
  1057.47  0.0005900336.40445E-05
  1059.9   0.0003393946.21059E-05
  1062.34  0.0002469276.21087E-05
  1064.79  0.0005362038.07097E-05
  1067.24  0.000561241 6.5931E-05
  1069.69  0.0003239626.16245E-05
  1072.16  0.0008686768.48337E-05
  1074.62  0.0008869878.01061E-05
  1077.1   0.0003251416.46325E-05
  1079.58  0.0004055837.15723E-05
  1082.06  0.0004164986.59488E-05
  1084.55  0.00051102 7.79598E-05
  1087.05  0.000337727 7.2078E-05
  1089.55  0.000426637 7.1216E-05
  1092.06  0.0004945026.64058E-05
  1094.57  0.0005701096.89401E-05
  1097.09  0.0004127296.71486E-05
  1099.62  0.0002458385.50416E-05
  1102.15  0.000202937 6.2113E-05
  1104.69  0.00037472 7.11412E-05
  1107.23  0.00044859 6.89728E-05
  1109.78  0.0005177357.72712E-05
  1112.33  0.0004017026.46285E-05
  1114.89  0.0005892256.74916E-05
  1117.46  0.0002238675.45992E-05
  1120.03  0.0004350477.48055E-05
  1122.61  0.0003433826.88049E-05
  1125.19  0.0003870636.27437E-05
  1127.78  0.0005952546.41494E-05
  1130.38  0.0004342147.07957E-05
  1132.98  0.0005116776.63468E-05
  1135.59  0.0001969295.34839E-05
  1138.2   0.0003322586.25937E-05
  1140.82  0.00035519 5.91826E-05
  1143.45  0.0005388316.68473E-05
  1146.08  0.0004985396.21902E-05
  1148.72  0.0003931496.16555E-05
  1151.36  0.0004414776.25992E-05
  1154.01  0.0004593086.74468E-05
  1156.67  0.0002166145.38735E-05
  1159.33  0.0003958036.32141E-05
  1162.    0.0002547455.42938E-05
  1164.67  0.0004484545.51825E-05
  1167.35  0.0003859775.84305E-05
  1170.04  0.0005012656.21627E-05
  1172.73  0.0003565786.46706E-05
  1175.43  0.0005041266.75037E-05
  1178.14  0.0004322626.06018E-05
  1180.85  0.0005646257.14161E-05
  1183.56  0.0004444397.18793E-05
  1186.29  0.0003114736.10384E-05
  1189.02  0.000384471 5.4116E-05
  1191.76  0.0006485247.20479E-05
  1194.5   0.0004417556.49572E-05
  1197.25  0.0002212795.26634E-05
  1200.    0.0002848256.13818E-05
  1202.76  0.0002096134.95099E-05
  1205.53  0.0005026986.43695E-05
  1208.31  0.0005330247.12567E-05
  1211.09  0.0002900256.83292E-05
  1213.88  0.0003416456.69708E-05
  1216.67  0.0002886035.79418E-05
  1219.47  0.0004417255.95719E-05
  1222.28  0.00030321 6.12077E-05
  1225.09  0.00044105 7.61014E-05
  1227.91  0.0004344146.21635E-05
  1230.74  0.0002587955.42344E-05
  1233.57  0.0002727485.69157E-05
  1236.41  0.0002224915.43876E-05
  1239.25  0.0003552946.18704E-05
  1242.1   0.0003222666.08793E-05
  1244.96  0.0002971715.73026E-05
  1247.83  0.0004797296.25311E-05
  1250.7   0.0003550015.99415E-05
  1253.58  0.0003399986.49133E-05
  1256.46  0.0002906165.80486E-05
  1259.36  0.0004487416.24929E-05
  1262.25  0.0005422616.19605E-05
  1265.16  0.0004268866.45161E-05
  1268.07  0.0002543935.79192E-05
  1270.99  0.0001975865.33175E-05
  1273.91  0.000407133 6.4104E-05
  1276.85  0.0004242116.47739E-05
  1279.78  0.0003107075.93462E-05
  1282.73  0.0003306326.36287E-05
  1285.68  0.0003156966.02178E-05
  1288.64  0.0003582536.58642E-05
  1291.61  0.0002640975.36873E-05
  1294.58  0.00053697 6.60709E-05
  1297.56  0.0003021346.47796E-05
  1300.54  0.0006210847.31909E-05
  1303.54  0.0003541296.41568E-05
  1306.54  0.0003547057.05911E-05
  1309.54  0.0003813556.60447E-05
  1312.56  0.0003218755.97145E-05
  1315.58  0.0005142256.43534E-05
  1318.61  0.000425685 6.5707E-05
  1321.64  0.0002692075.70464E-05
  1324.68  0.0003935516.46145E-05
  1327.73  0.0003494526.71491E-05
  1330.79  0.0004708356.33135E-05
  1333.85  0.0003795676.58513E-05
  1336.92  0.00036974 6.26728E-05
  1340.    0.0003078115.85999E-05
  1343.08  0.0004186046.32184E-05
  1346.17  0.0002504685.55224E-05
  1349.27  0.0003349116.72845E-05
  1352.37  0.0003352826.68395E-05
  1355.49  0.0002212365.63166E-05
  1358.61  0.0003524226.55172E-05
  1361.73  0.0003271736.14592E-05
  1364.87  0.0004419985.83198E-05
  1368.01  0.0003383345.80189E-05
  1371.16  0.0003743626.10454E-05
  1374.31  0.0003984045.78918E-05
  1377.47  0.000386832 5.9226E-05
  1380.64  0.0003340976.07986E-05
  1383.82  0.0001988185.11018E-05
  1387.01  0.0001985175.61629E-05
  1390.2   0.000488752 6.9208E-05
  1393.4   0.0003411845.81519E-05
  1396.6   0.0003812796.40831E-05
  1399.82  0.0006116656.95001E-05
  1403.04  0.0002544965.30141E-05
  1406.27  0.0003293435.83632E-05
  1409.5   0.0004552866.52027E-05
  1412.75  0.000343676 6.5379E-05
  1416.    0.0002866075.45872E-05
  1419.26  0.0003441696.42193E-05
  1422.52  0.0001179874.78805E-05
  1425.8   0.0003577  5.74084E-05
  1429.08  0.0002686395.29103E-05
  1432.37  0.0004282736.02659E-05
  1435.66  0.0003867936.16691E-05
  1438.97  0.0004082586.71895E-05
  1442.28  0.0003474716.17051E-05
  1445.6   0.0002713035.66513E-05
  1448.92  0.0003401325.92942E-05
  1452.26  0.0004076645.58547E-05
  1455.6   0.00043235 5.98094E-05
  1458.95  0.00027958 5.31541E-05
  1462.31  0.0002886015.73197E-05
  1465.67  0.0003039075.95387E-05
  1469.04  0.0002356534.97475E-05
  1472.42  0.0001638194.84508E-05
  1475.81  0.0004487866.09566E-05
  1479.21  0.0003159635.61523E-05
  1482.61  0.0003417816.28278E-05
  1486.02  0.0002791575.60594E-05
  1489.44  0.0003451235.91942E-05
  1492.87  0.0002802916.16388E-05
  1496.31  0.0001712415.48402E-05
  1499.75  0.0002392435.66069E-05
  1503.2   0.0003072545.67199E-05
  1506.66  0.0002248875.27451E-05
  1510.13  0.0003363  5.84153E-05
  1513.6   0.0002276645.27962E-05
  1517.08  0.0004029326.26774E-05
  1520.57  0.0005422566.46565E-05
  1524.07  0.0002483875.39128E-05
  1527.58  0.0003558346.11743E-05
  1531.1   0.0002485595.52814E-05
  1534.62  0.00037913 5.56624E-05
  1538.15  0.0003051085.86374E-05
  1541.69  0.0002793685.48897E-05
  1545.24  0.0003906746.09387E-05
  1548.79  0.0002976296.25389E-05
  1552.36  0.0002722466.37041E-05
  1555.93  0.0004231855.93507E-05
  1559.51  0.000417797 6.2972E-05
  1563.1   0.0003650066.66907E-05
  1566.69  0.0005896  6.51604E-05
  1570.3   0.000367843 6.6647E-05
  1573.91  0.0001919555.55425E-05
  1577.53  0.0003253265.68982E-05
  1581.16  0.000261944 5.2934E-05
  1584.8   0.0002384245.37614E-05
  1588.45  0.00040022 5.89861E-05
  1592.1   0.0004499176.82967E-05
  1595.77  0.0002514515.56767E-05
  1599.44  0.0003995976.69107E-05
  1603.12  0.0002475075.29154E-05
  1606.81  0.0003465145.77979E-05
  1610.51  0.0003826555.87684E-05
  1614.21  0.00028427  5.8094E-05
  1617.93  0.0004358215.89454E-05
  1621.65  0.0002155245.46595E-05
  1625.38  0.0003415745.68345E-05
  1629.12  0.0002467475.76707E-05
  1632.87  0.0002724735.65182E-05
  1636.63  0.0001908815.10841E-05
  1640.39  0.0003386486.02778E-05
  1644.17  0.00022106  5.5991E-05
  1647.95  0.000303222 5.8041E-05
  1651.74  0.0003902335.66959E-05
  1655.54  0.0003223325.73972E-05
  1659.35  0.0002887235.31786E-05
  1663.17  0.0002403315.56671E-05
  1666.99  0.0002872115.86111E-05
  1670.83  0.0003041895.74815E-05
  1674.67  0.0003601695.69054E-05
  1678.53  0.0003886876.45894E-05
  1682.39  0.0003344195.34319E-05
  1686.26  0.0003891426.20193E-05
  1690.14  0.0003350725.74957E-05
  1694.03  0.0003760986.09255E-05
  1697.93  0.0004305376.06186E-05
  1701.83  0.0003564455.80989E-05
  1705.75  0.0003009055.44652E-05
  1709.67  0.0002354065.29814E-05
  1713.61  0.0003786266.28168E-05
  1717.55  0.0003789886.74709E-05
  1721.5   0.0003929475.80048E-05
  1725.46  0.0003706676.25548E-05
  1729.43  0.0002916716.02646E-05
  1733.41  0.0003474355.79305E-05
  1737.4   0.0003615635.55453E-05
  1741.4   0.0002747225.59322E-05
  1745.41  0.0004796736.55428E-05
  1749.42  0.0001973055.02067E-05
  1753.45  0.0004396145.94244E-05
  1757.48  0.0001845654.98682E-05
  1761.52  0.0003587736.37365E-05
  1765.58  0.00021801 5.24958E-05
  1769.64  0.000454222 6.0372E-05
  1773.71  0.0002427845.43216E-05
  1777.79  0.0002813515.55971E-05
  1781.88  0.00044367 7.06249E-05
  1785.98  0.0003006645.46429E-05
  1790.09  0.0003476786.35022E-05
  1794.21  0.00036739 6.45897E-05
  1798.34  0.0002782925.89212E-05
  1802.47  0.0003728696.29184E-05
  1806.62  0.0002623645.33628E-05
  1810.78  0.0004658586.81032E-05
  1814.94  0.0003137715.78128E-05
  1819.12  0.0003217825.80265E-05
  1823.3   0.0003901456.17232E-05
  1827.5   0.0002727895.76092E-05
  1831.7   0.0002888155.35252E-05
  1835.92  0.0001987765.31292E-05
  1840.14  0.0001980715.45391E-05
  1844.38  0.0004816386.31038E-05
  1848.62  0.0003838926.34068E-05
  1852.87  0.0003301326.12313E-05
  1857.13  0.00029338 5.75084E-05
  1861.41  0.0001909255.11884E-05
  1865.69  0.0003260425.61109E-05
  1869.98  0.0002842375.51998E-05
  1874.28  0.0002773785.67478E-05
  1878.6   0.00025636 5.17846E-05
  1882.92  0.0003338716.01273E-05
  1887.25  0.0003060825.41141E-05
  1891.59  0.0002962785.41408E-05
  1895.94  0.0004440387.02959E-05
  1900.31  0.0003099415.77219E-05
  1904.68  0.0004304476.20313E-05
  1909.06  0.0002223435.58478E-05
  1913.45  0.0002699075.50008E-05
  1917.85  0.0002042685.32735E-05
  1922.27  0.0002320835.70582E-05
  1926.69  0.0001870785.00815E-05
  1931.12  0.0003219945.88961E-05
  1935.56  0.0003596036.14855E-05
  1940.02  0.0001898744.63227E-05
  1944.48  0.000252722 5.4405E-05
  1948.95  0.0003865686.00462E-05
  1953.44  0.0003745475.95074E-05
  1957.93  0.0002153615.53044E-05
  1962.43  0.0003335196.34496E-05
  1966.95  0.0003185625.86585E-05
  1971.47  0.0003077145.54982E-05
  1976.01  0.0002638835.06401E-05
  1980.56  0.000213843 5.4868E-05
  1985.11  0.00023922 5.61493E-05
  1989.68  0.0003304056.20992E-05
  1994.26  0.0001601295.02617E-05
  1998.84  0.000336226 6.4716E-05
  2003.44  0.0003398775.59697E-05
  2008.05  0.0003724586.34598E-05
  2012.67  0.0002214924.81475E-05
  2017.3   0.0003418015.37129E-05
  2021.94  0.0004292965.88345E-05
  2026.59  0.0003712586.50571E-05
  2031.25  0.0003171375.95006E-05
  2035.93  0.0002423585.68188E-05
  2040.61  0.0004254135.78329E-05
  2045.3   0.0002322215.34944E-05
  2050.01  0.0002246185.54874E-05
  2054.73  0.0003045266.14766E-05
  2059.45  0.0002951675.86371E-05
  2064.19  0.00031995 5.77327E-05
  2068.94  0.0003104325.91828E-05
  2073.7   0.0003843176.45783E-05
  2078.47  0.0002751415.71154E-05
  2083.25  0.0001682154.71765E-05
  2088.04  0.0004334226.24161E-05
  2092.85  0.0002101055.02328E-05
  2097.66  0.0002987356.26074E-05
  2102.48  0.0003264876.42989E-05
  2107.32  0.000282397 5.9209E-05
  2112.17  0.00027907 5.38196E-05
  2117.03  0.000268084 5.9105E-05
  2121.9   0.0002209715.23306E-05
  2126.78  0.0004119866.69943E-05
  2131.67  0.0003593565.76795E-05
  2136.57  0.0003797995.62899E-05
  2141.49  0.0004207776.19548E-05
  2146.42  0.0002533875.83057E-05
  2151.35  0.0003678586.32636E-05
  2156.3   0.0004550566.55462E-05
  2161.26  0.0002348735.67948E-05
  2166.23  0.0003717016.39569E-05
  2171.22  0.0002983146.06092E-05
  2176.21  0.0001685655.06471E-05
  2181.22  0.0002639426.09216E-05
  2186.23  0.0002661745.96474E-05
  2191.26  0.0002341165.55334E-05
  2196.3   0.0004228466.53679E-05
  2201.36  0.0002149435.66878E-05
  2206.42  0.0001416114.89911E-05
  2211.49  0.0003066476.05984E-05
  2216.58  0.0002794165.88774E-05
  2221.68  0.0004009896.78454E-05
  2226.79  0.0003151385.66401E-05
  2231.91  0.0002627125.95646E-05
  2237.05  0.00037359 6.00173E-05
  2242.19  0.0001876764.57544E-05
  2247.35  0.0003531976.69941E-05
  2252.52  0.0002963296.00505E-05
  2257.7   0.000243238 5.5161E-05
  2262.89  0.0002323115.42104E-05
  2268.1   0.0003143786.44472E-05
  2273.32  0.000365352 5.8911E-05
  2278.54  0.0002648075.59418E-05
  2283.79  0.0003427455.94619E-05
  2289.04  0.0001819735.42708E-05
  2294.3   0.0002606045.81783E-05
  2299.58  0.0002434095.31108E-05
  2304.87  0.0003428156.39178E-05
  2310.17  0.0003622476.40327E-05
  2315.49  0.0002619485.50669E-05
  2320.81  0.0002916355.87384E-05
  2326.15  0.0003468166.79546E-05
  2331.5   0.0002921385.50209E-05
  2336.86  0.0002415625.69455E-05
  2342.24  0.000337255 6.6965E-05
  2347.62  0.0003750846.16936E-05
  2353.02  0.0003652626.08104E-05
  2358.44  0.0002626656.03784E-05
  2363.86  0.0003567486.54101E-05
  2369.3   0.0003672686.54553E-05
  2374.75  0.0002678775.69064E-05
  2380.21  0.0004527597.10219E-05
  2385.68  0.0003872936.75575E-05
  2391.17  0.0002626446.23144E-05
  2396.67  0.0003731596.39455E-05
  2402.18  0.0004069266.37539E-05
  2407.71  0.0005000427.40538E-05
  2413.25  0.0002415345.86003E-05
  2418.8   0.0002575995.98213E-05
  2424.36  0.0003292136.05082E-05
  2429.94  0.0003400316.67712E-05
  2435.52  0.0003521166.06173E-05
  2441.13  0.000215456 5.9277E-05
  2446.74  0.0003911716.76107E-05
  2452.37  0.0004216356.39517E-05
  2458.01  0.0003186575.58257E-05
  2463.66  0.0002276965.89671E-05
  2469.33  0.0002350065.76484E-05
  2475.01  0.0002974015.97913E-05
  2480.7   0.0003115195.83052E-05
  2486.41  0.000332048  5.975E-05
  2492.12  0.0003746126.48291E-05
  2497.86  0.0004562267.24516E-05
  2503.6   0.0004123496.97791E-05
  2509.36  0.000451372  6.723E-05
  2515.13  0.0004389916.62973E-05
  2520.91  0.00045491 6.20351E-05
  2526.71  0.0005692917.31137E-05
  2532.52  0.000365722 6.1415E-05
  2538.35  0.0003946  6.42122E-05
  2544.19  0.0006157067.60693E-05
  2550.04  0.0006974247.74877E-05
  2555.9   0.00080232 8.37439E-05
  2561.78  0.0007801327.89032E-05
  2567.67  0.0008952868.03062E-05
  2573.58  0.00125689 9.65648E-05
  2579.5   0.00147033 0.000100475
  2585.43  0.00240178 0.000125438
  2591.37  0.00395415 0.000151511
  2597.33  0.0151977  0.000286748
  2603.31  0.0439286  0.000473392
  2609.3   0.0674576  0.000664771
  2615.3   0.0854438  0.000741064
  2621.31  0.00988726 0.000249712
  2627.34  0.00325192 0.000147083
  2633.38  0.00197933 0.000119621
  2639.44  0.00138094 0.000100895
  2645.51  0.00140246 0.000104369
  2651.59  0.00114022 9.78437E-05
  2657.69  0.0009193088.55873E-05
  2663.8   0.00100949 8.87603E-05
  2669.93  0.00101891 9.35297E-05
  2676.07  0.0007721167.83764E-05
  2682.22  0.0008895548.86142E-05
  2688.39  0.0006735817.84306E-05
  2694.57  0.0004923166.61437E-05
  2700.77  0.0005550867.06112E-05
  2706.98  0.000482977 6.3888E-05
  2713.21  0.0006435467.63032E-05
  2719.45  0.0005052196.87282E-05
  2725.7   0.0005900446.97744E-05
  2731.97  0.0004124245.93275E-05
  2738.25  0.0003797876.07437E-05
  2744.55  0.0002526035.51142E-05
  2750.86  0.0002964975.44136E-05
  2757.19  0.00037552 6.11589E-05
  2763.53  0.00028284 5.64451E-05
  2769.88  0.0003035795.69305E-05
  2776.25  0.0003522566.31717E-05
  2782.64  0.0002490715.21485E-05
  2789.03  0.0002598345.27535E-05
  2795.45  0.000290804 5.7949E-05
  2801.88  0.000286536 6.0473E-05
  2808.32  0.0003407756.27211E-05
  2814.78  0.000331715 5.9959E-05
  2821.25  0.000354964 6.2551E-05
  2827.74  0.0002237755.36309E-05
  2834.24  0.0003127415.68946E-05
  2840.76  0.0001780855.17832E-05
  2847.29  0.0003423676.39719E-05
  2853.84  0.0003562536.51432E-05
  2860.4   0.0002437275.23077E-05
  2866.98  0.0002399095.55883E-05
  2873.57  0.0002262934.86539E-05
  2880.18  0.00024478 5.42325E-05
  2886.8   0.0001879395.13013E-05
  2893.44  0.0003038256.07383E-05
  2900.09  0.000331733 6.0888E-05
  2906.76  0.0004058126.68376E-05
  2913.45  0.0003432086.04079E-05
  2920.15  0.0003052285.83367E-05
  2926.86  0.0002349955.19132E-05
  2933.59  0.0002600535.35625E-05
  2940.34  0.0002216384.64205E-05
  2947.1   0.000278116 5.8458E-05
  2953.88  0.0003561166.30204E-05
  2960.67  0.0002590935.57184E-05
  2967.48  0.000365709  6.185E-05
  2974.3   0.000211546  4.776E-05
  2981.14  0.0001624134.78068E-05
  2987.99  0.0003503716.11769E-05
  2994.86  0.0002483124.60423E-05
  3001.75  0.0003117365.63912E-05
  3008.65  0.0002812165.88189E-05
  3015.57  0.0002985295.85715E-05
  3022.5   0.0002430795.18634E-05
  3029.45  0.0003485695.86408E-05
  3036.42  0.0003671985.74875E-05
  3043.4   0.0002630945.40128E-05
  3050.4   0.0001525544.83878E-05
  3057.41  0.0001947654.73515E-05
  3064.44  0.0001636224.75839E-05
  3071.49  0.0002829065.39487E-05
  3078.55  0.0002313575.38535E-05
  3085.63  0.0002646275.66001E-05
  3092.73  0.0001479155.23392E-05
  3099.84  0.0003289956.14187E-05
  3106.97  0.0002116885.06125E-05
  3114.11  0.0003292665.98163E-05
  3121.27  0.0002296845.50598E-05
  3128.45  0.0002563416.09555E-05
  3135.64  0.0003093846.53943E-05
  3142.85  0.0003775736.50662E-05
  3150.08  0.0003524856.61253E-05
  3157.32  0.000441753 7.1355E-05
  3164.58  0.00031177 6.55544E-05
  3171.85  0.0002858526.45485E-05
  3179.15  0.00030027 6.97383E-05
  3186.46  0.0003281775.63157E-05
  3193.78  0.0003257726.37078E-05
  3201.13  0.000173101  5.514E-05
  3208.49  0.0004460157.74161E-05
  3215.86  0.0002615156.17395E-05
  3223.26  0.0002798196.03294E-05
  3230.67  0.0003569956.11581E-05
  3238.1   0.0003403166.52044E-05
  3245.54  0.0001943785.52579E-05
  3253.    0.0002861996.49645E-05
  3260.48  0.0002904645.90823E-05
  3267.98  0.0001538884.76889E-05
  3275.49  0.0004173376.33198E-05
  3283.02  0.0003621975.84078E-05
  3290.57  0.000199257 5.1869E-05
  3298.14  0.0002784336.32688E-05
  3305.72  0.0002582086.14933E-05
  3313.32  0.00050833 8.63792E-05
  3320.94  0.0002829956.53556E-05
  3328.57  0.00041555 7.21423E-05
  3336.23  0.0004017547.23478E-05
  3343.9   0.0004383786.92956E-05
  3351.58  0.0005200937.39719E-05
  3359.29  0.0007251738.04791E-05
  3367.01  0.00116884 0.000105245
  3374.75  0.00203283 0.000126863
  3382.51  0.0139874  0.000295201
  3390.29  0.0280212  0.000404664
  3398.08  0.0008690629.23011E-05
  3405.9   0.00070371 8.70648E-05
  3413.73  0.0004302666.96558E-05
  3421.57  0.0004290827.25205E-05
  3429.44  0.0004128676.61061E-05
  3437.32  0.00035152 7.10899E-05
  3445.23  0.0004982257.16775E-05
  3453.15  0.0004139396.56105E-05
  3461.09  0.0004499556.73935E-05
  3469.04  0.0003076645.54283E-05
  3477.02  0.0002791685.49195E-05
  3485.01  0.0003334935.89525E-05
  3493.02  0.00027316 5.14267E-05
  3501.05  0.0003602836.24114E-05
  3509.1   0.0002042245.04335E-05
  3517.17  0.0004039246.88677E-05
  3525.26  0.0002825315.16549E-05
  3533.36  0.0002591035.35229E-05
  3541.48  0.0003596176.16777E-05
  3549.62  0.000263837 5.7202E-05
  3557.79  0.000338296 6.0285E-05
  3565.96  0.0002162165.54293E-05
  3574.16  0.0002412445.71737E-05
  3582.38  0.0001564134.71661E-05
  3590.61  0.0002227394.71206E-05
  3598.87  0.000163507 4.7533E-05
  3607.14  0.0003167166.27947E-05
  3615.43  0.0002823415.90075E-05
  3623.75  0.0004100876.80294E-05
  3632.08  0.0003078315.95727E-05
  3640.43  0.0001887125.05759E-05
  3648.79  0.000100556 4.7041E-05
  3657.18  0.00031111 6.27062E-05
  3665.59  0.0004142036.60469E-05
  3674.02  0.000284883 5.9098E-05
  3682.46  0.00029082 6.07848E-05
  3690.93  0.00022996 5.54593E-05
  3699.41  0.000261125 5.9492E-05
  3707.92  0.0003366846.63741E-05
  3716.44  0.0003059346.82941E-05
  3724.98  0.0003155276.96553E-05
  3733.54  0.0003196767.14116E-05
  3742.13  0.0004180426.94046E-05
  3750.73  0.0003115546.69836E-05
  3759.35  0.0002236475.76612E-05
  3767.99  0.000187437 6.1102E-05
  3776.65  0.0002034435.79263E-05
  3785.34  0.000246025  6.242E-05
  3794.04  0.0002482245.54426E-05
  3802.76  0.0003534466.77641E-05
  3811.5   0.0001395125.11362E-05
  3820.26  0.0002648826.67108E-05
  3829.04  0.0002487755.93105E-05
  3837.84  0.0002817856.22012E-05
  3846.67  0.0003156066.86186E-05
  3855.51  0.000284054 6.1655E-05
  3864.37  0.0003403526.97041E-05
  3873.25  0.0002606685.93411E-05
  3882.16  0.000202033 5.8268E-05
  3891.08  0.0002417665.78717E-05
  3900.02  0.0003311256.18696E-05
  3908.99  0.00022758 5.71434E-05
  3917.97  0.0002661845.63401E-05
  3926.98  0.0001515865.05229E-05
  3936.01  0.0002341995.69747E-05
  3945.05  0.0002397335.62348E-05
  3954.12  0.000209749 5.1571E-05
  3963.21  0.0001596835.32801E-05
  3972.32  0.0002125745.54197E-05
  3981.45  0.0001942954.89625E-05
  3990.6   0.0002756885.88208E-05
  3999.77  0.0003013436.34271E-05
  4008.97  0.0002793895.75673E-05
  4018.18  0.0001339714.46195E-05
  4027.42  0.000213603 5.8864E-05
  4036.68  0.0002501015.80738E-05
  4045.95  0.0002933745.55594E-05
  4055.25  0.00027029 6.00087E-05
  4064.57  0.00038819 7.10794E-05
  4073.92  0.0001813525.23885E-05
  4083.28  0.0001924585.41957E-05
  4092.67  0.0001718785.14888E-05
  4102.07  0.0003093276.36643E-05
  4111.5   0.0003065866.50746E-05
  4120.95  0.0003776136.96901E-05
  4130.42  0.0002541635.72608E-05
  4139.92  0.0003972266.60589E-05
  4149.43  0.0002918155.61953E-05
  4158.97  0.0002854755.84059E-05
  4168.53  0.0001430595.16658E-05
  4178.11  0.0001904255.55231E-05
  4187.71  8.14706E-054.45851E-05
  4197.33  0.00030328 6.32649E-05
  4206.98  0.0002255765.73392E-05
  4216.65  0.000254254 5.1695E-05
  4226.34  0.000245439 5.7313E-05
  4236.06  0.000178607 4.9585E-05
  4245.79  0.00020718 5.31314E-05
  4255.55  0.0002309075.12094E-05
  4265.33  0.000310534 6.4242E-05
  4275.13  0.0001839784.53656E-05
  4284.96  0.0001445634.72573E-05
  4294.81  0.0002661236.09746E-05
  4304.68  0.0002012884.85648E-05
  4314.57  0.0002498575.80376E-05
  4324.49  0.0001658685.33719E-05
  4334.43  0.0002186825.67305E-05
  4344.39  0.000245718 5.3579E-05
  4354.37  0.0002872595.37059E-05
  4364.38  0.0002812245.80482E-05
  4374.41  0.0002373455.45177E-05
  4384.46  0.0002521814.74122E-05
  4394.54  0.0001940315.00614E-05
  4404.64  0.00023225 5.06992E-05
  4414.76  0.0001636554.56713E-05
  4424.91  0.0002508635.41279E-05
  4435.08  0.0002049524.35739E-05
  4445.27  0.0002603975.19367E-05
  4455.48  0.000266447 5.4334E-05
  4465.72  0.0002069015.20892E-05
  4475.99  0.0001385765.04011E-05
  4486.27  0.0002129515.21171E-05
  4496.58  0.00027093 5.77698E-05
  4506.92  0.0001437834.68765E-05
  4517.27  0.0002404365.22674E-05
  4527.65  0.0001709495.01618E-05
  4538.06  0.0002496765.59241E-05
  4548.49  0.0002519515.04503E-05
  4558.94  0.0001807695.43941E-05
  4569.42  0.0002658225.57052E-05
  4579.92  0.0002147734.57794E-05
  4590.44  0.0001970865.00129E-05
  4600.99  0.0002534265.26967E-05
  4611.57  0.0002845295.60082E-05
  4622.16  0.0002215785.35855E-05
  4632.79  0.0002327185.18786E-05
  4643.43  0.0002091354.93402E-05
  4654.1   0.0001890934.76006E-05
  4664.8   0.0002745555.46459E-05
  4675.52  0.0001571814.88731E-05
  4686.26  0.0001932855.42441E-05
  4697.03  0.0002241865.45928E-05
  4707.82  0.0002063975.83346E-05
  4718.64  0.0001142624.62824E-05
  4729.48  0.0002298345.40693E-05
  4740.35  0.0002843216.07931E-05
  4751.25  0.0002915335.87009E-05
  4762.16  0.0004406316.23463E-05
  4773.11  0.0009039837.66831E-05
  4784.07  0.00728696 0.000191854
  4795.07  0.00102391 8.14067E-05
  4806.09  0.0003312566.03725E-05
  4817.13  0.0002280195.38558E-05
  4828.2   0.0002564125.60393E-05
  4839.29  0.0002162695.63042E-05
  4850.41  0.0002007295.38211E-05
  4861.56  0.0002391465.39099E-05
  4872.73  0.00021175 4.84263E-05
  4883.93  0.0002384936.02452E-05
  4895.15  0.000274122 5.5901E-05
  4906.4   0.0002067585.38225E-05
  4917.67  0.0001868634.80923E-05
  4928.97  0.0002915875.93048E-05
  4940.3   0.00025703 6.33788E-05
  4951.65  0.0001897555.55806E-05
  4963.03  0.0003149016.57814E-05
  4974.43  0.0002015555.16696E-05
  4985.86  0.0003002456.53818E-05
  4997.32  0.0003212696.29655E-05
  5008.8   0.000154236 5.1054E-05
  5020.31  0.0001927535.64389E-05
  5031.84  0.00023763 5.21024E-05
  5043.4   0.0002297645.48028E-05
  5054.99  0.0001574065.00282E-05
  5066.61  0.0002192135.28796E-05
  5078.25  0.000214905 5.0567E-05
  5089.92  0.00019145  5.4601E-05
  5101.61  0.0001876825.53031E-05
  5113.33  0.0002318445.37669E-05
  5125.08  0.0003140126.26175E-05
  5136.86  0.0001056084.75706E-05
  5148.66  0.0002002815.45808E-05
  5160.49  0.0002119794.98098E-05
  5172.35  0.00019946 5.37681E-05
  5184.23  0.0002236056.00001E-05
  5196.14  0.0002121835.26123E-05
  5208.08  0.0002464945.82261E-05
  5220.05  0.0002508695.69016E-05
  5232.04  0.0002167675.54096E-05
  5244.06  0.000267352 5.6104E-05
  5256.11  0.0002773576.26466E-05
  5268.18  0.000135149 4.8159E-05
  5280.29  0.00023621 5.60283E-05
  5292.42  0.0002540955.53951E-05
  5304.58  0.0002948866.10231E-05
  5316.77  0.0002621235.95373E-05
  5328.98  0.0002573255.72822E-05
  5341.22  0.0002371015.37825E-05
  5353.5   0.0001706384.72309E-05
  5365.8   0.000168115 4.6212E-05
  5378.12  0.0002243295.28728E-05
  5390.48  0.0002473235.85935E-05
  5402.86  0.0002590975.55988E-05
  5415.28  0.0001905445.27942E-05
  5427.72  0.0003534336.39268E-05
  5440.19  0.000316508 6.2056E-05
  5452.69  0.0002275715.30043E-05
  5465.21  0.00019178  5.0234E-05
  5477.77  0.00020318  5.0029E-05
  5490.35  0.0001131894.10828E-05
  5502.97  0.00022652 5.04173E-05
  5515.61  0.0002497345.25198E-05
  5528.28  0.0001943464.51139E-05
  5540.98  0.00014355 4.00051E-05
  5553.71  0.0001574884.77965E-05
  5566.47  0.0001256574.16689E-05
  5579.26  0.0002364975.25641E-05
  5592.07  0.0002328665.16819E-05
  5604.92  0.0001837535.00397E-05
  5617.8   0.0001432574.50764E-05
  5630.7   0.0002870425.63137E-05
  5643.64  0.0002882096.12232E-05
  5656.6   0.0002922435.71788E-05
  5669.6   0.00034393 6.21821E-05
  5682.62  0.00049928 7.64336E-05
  5695.67  0.00073342 8.27415E-05
  5708.76  0.00251591 0.000139475
  5721.87  0.0187859  0.000368817
  5735.02  0.00110512 9.95269E-05
  5748.19  0.0002810756.23749E-05
  5761.4   0.0002643076.34731E-05
  5774.63  0.0002504995.89196E-05
  5787.9   0.0002464286.07918E-05
  5801.19  0.000240577 6.0079E-05
  5814.52  0.0002564376.09907E-05
  5827.87  0.0004258117.45181E-05
  5841.26  0.0002093085.31483E-05
  5854.68  0.0004071086.95306E-05
  5868.13  0.0002288185.60733E-05
  5881.61  0.0001997945.73485E-05
  5895.12  0.00012973 5.47921E-05
  5908.66  0.0003168457.37289E-05
  5922.23  0.00014371 6.28488E-05
  5935.84  0.0003845917.69185E-05
  5949.47  0.0002948196.91951E-05
  5963.14  0.0003670887.32217E-05
  5976.84  0.000177504 5.4336E-05
  5990.56  0.0001971926.03161E-05
  6004.33  0.0002763456.54182E-05
  6018.12  0.0002875376.53806E-05
  6031.94  0.0002224745.36469E-05
  6045.8   0.000311213 5.3968E-05
  6059.68  0.0002530676.23814E-05
  6073.6   0.000214362 5.2303E-05
  6087.55  0.0002696615.65257E-05
  6101.54  0.0002598255.83525E-05
  6115.55  0.0002012935.17395E-05
  6129.6   0.0002477545.57038E-05
  6143.68  0.0001926995.03651E-05
  6157.79  0.0001525964.69015E-05
  6171.93  0.0002535475.43243E-05
  6186.11  8.95504E-054.14662E-05
  6200.32  0.0003488426.62636E-05
  6214.56  0.0001893524.69979E-05
  6228.83  0.0003543447.02742E-05
  6243.14  0.00026977 5.87891E-05
  6257.48  0.0002511815.66178E-05
  6271.85  0.0002434015.66162E-05
  6286.26  0.0001866134.65003E-05
  6300.69  0.0002181185.70544E-05
  6315.17  0.0001139923.77497E-05
  6329.67  0.0001317354.23416E-05
  6344.21  0.0003524915.95333E-05
  6358.78  0.0001601614.52211E-05
  6373.38  0.0001450144.46285E-05
  6388.02  0.0002444394.68827E-05
  6402.69  0.0001855244.50881E-05
  6417.4   0.000188141 4.5893E-05
  6432.14  0.00026945 5.40614E-05
  6446.91  0.0002762645.36351E-05
  6461.72  0.00013376 4.32136E-05
  6476.56  0.0002432935.24865E-05
  6491.43  0.0001307964.34251E-05
  6506.34  0.0001848474.53967E-05
  6521.28  0.0001612924.76539E-05
  6536.26  0.0001418094.22574E-05
  6551.27  0.0002194734.93255E-05
  6566.32  0.0001434894.42797E-05
  6581.4   0.00022602 4.89933E-05
  6596.51  0.00017023 5.13598E-05
  6611.66  0.0001164993.79664E-05
  6626.85  0.0002142885.18557E-05
  6642.07  0.0001633944.50544E-05
  6657.32  0.0002963526.10016E-05
  6672.61  0.0002401755.25689E-05
  6687.94  0.0002651725.91781E-05
  6703.29  0.0002106365.20908E-05
  6718.69  0.0001325814.60229E-05
  6734.12  0.000205385 5.3676E-05
  6749.58  0.000133407 4.4353E-05
  6765.08  0.00017636 4.71193E-05
  6780.62  0.0002488045.20623E-05
  6796.19  0.0002415525.26778E-05
  6811.8   0.0002325835.14187E-05
  6827.44  0.0002315555.55997E-05
  6843.12  0.0001475664.47765E-05
  6858.84  0.0001436374.67735E-05
  6874.59  0.0002042175.12471E-05
  6890.37  0.0001186354.50197E-05
  6906.2   0.00020752  5.1426E-05
  6922.06  0.0001828064.91992E-05
  6937.95  0.0003443  5.89483E-05
  6953.88  0.0002254465.30533E-05
  6969.85  0.0001983684.96897E-05
  6985.86  0.0001785714.38529E-05
  7001.9   0.0001816994.31449E-05
  7017.98  0.0002089784.83067E-05
  7034.09  0.000164879 4.6319E-05
  7050.25  0.0001477414.35103E-05
  7066.44  0.0002505945.57395E-05
  7082.66  0.0001983285.36031E-05
  7098.93  0.0003167586.05947E-05
  7115.23  0.0002941525.78735E-05
  7131.57  0.0002073485.12735E-05
  7147.94  0.0002646585.78192E-05
  7164.36  0.0002288355.95101E-05
  7180.81  0.000142105 5.2432E-05
  7197.3   0.0002809186.37003E-05
  7213.82  0.0002636185.75541E-05
  7230.39  0.0001363574.27853E-05
  7246.99  0.0002286115.36815E-05
  7263.63  0.0003031546.19102E-05
  7280.31  0.0001661115.17704E-05
  7297.03  0.0002449995.31624E-05
  7313.78  0.0002316495.19377E-05
  7330.58  0.0002495975.78615E-05
  7347.41  0.0001261164.43082E-05
  7364.28  0.000175404 5.0287E-05
  7381.19  8.68903E-054.45513E-05
  7398.14  0.0002513395.78337E-05
  7415.12  0.0002701325.45235E-05
  7432.15  0.0002172085.37505E-05
  7449.21  0.0002707  5.33486E-05
  7466.32  0.000305514 5.5631E-05
  7483.46  0.0003299025.51362E-05
  7500.64  0.0005026616.66121E-05
  7517.86  0.0004967836.53469E-05
  7535.13  0.0004196065.94458E-05
  7552.43  0.0004042496.69938E-05
  7569.77  0.0003653236.19121E-05
  7587.15  0.0002098294.93738E-05
  7604.57  0.000276019 5.3698E-05
  7622.03  0.0001772735.16247E-05
  7639.53  0.00028181 6.41858E-05
  7657.07  0.0003283256.71573E-05
  7674.65  0.0002768746.11851E-05
  7692.27  0.0002488095.68109E-05
  7709.93  0.0001951365.81311E-05
  7727.63  0.0002313485.59317E-05
  7745.37  0.0002395235.73638E-05
  7763.15  0.0002478395.44607E-05
  7780.98  0.000198193 4.8356E-05
  7798.84  0.000181186 4.8875E-05
  7816.75  0.0002760735.77694E-05
  7834.69  0.0001981554.91654E-05
  7852.68  0.0002041395.18185E-05
  7870.71  0.000178543 5.0664E-05
  7888.78  0.0002449095.16456E-05
  7906.89  0.000221088 5.1529E-05
  7925.04  0.0002347485.14875E-05
  7943.24  0.00023919 4.99666E-05
  7961.47  0.0002474055.42681E-05
  7979.75  0.0002362015.15556E-05
  7998.07  0.0001853954.69959E-05
  8016.43  0.0002925355.47441E-05
  8034.83  0.0001411674.08956E-05
  8053.28  0.0001468034.42582E-05
  8071.77  0.0002321975.48165E-05
  8090.3   0.0002249334.82091E-05
  8108.87  0.0001552874.37299E-05
  8127.49  0.0001190663.98769E-05
  8146.14  0.0002157224.89934E-05
  8164.84  0.0001263794.27469E-05
  8183.59  8.15811E-053.62255E-05
  8202.37  0.0002988385.65399E-05
  8221.2   0.00017353 4.07497E-05
  8240.08  0.0001866544.58724E-05
  8258.99  0.0001457214.83387E-05
  8277.95  0.0002160174.92469E-05
  8296.95  0.00018081 4.58079E-05
  8316.    0.0001525374.57362E-05
  8335.09  0.0001289554.44698E-05
  8354.22  0.0001750574.72078E-05
  8373.4   0.0001016084.15351E-05
  8392.62  0.000210812 5.6835E-05
  8411.89  0.000257243 5.6021E-05
  8431.2   0.0002708096.23074E-05
  8450.55  0.0002027755.49848E-05
  8469.95  8.74827E-054.18665E-05
  8489.39  0.0001678324.40166E-05
  8508.88  0.0001882085.26203E-05
  8528.41  0.0002656375.53493E-05
  8547.99  0.0002201665.50151E-05
  8567.61  0.000153593 5.1708E-05
  8587.27  0.00015774  4.7645E-05
  8606.98  0.0001376844.72705E-05
  8626.74  0.0001810064.91326E-05
  8646.54  0.0001741374.53734E-05
  8666.39  0.0003005995.82951E-05
  8686.28  0.0001782335.28504E-05
  8706.22  0.0001146184.35804E-05
  8726.2   0.0001682734.98624E-05
  8746.23  0.0002227444.97218E-05
  8766.31  0.0001446674.12775E-05
  8786.43  0.00015662  4.1051E-05
  8806.6   0.000149577 4.6906E-05
  8826.81  0.0002468575.56707E-05
  8847.07  5.86801E-053.76981E-05
  8867.38  7.22855E-053.68622E-05
  8887.73  0.000201844 4.8054E-05
  8908.13  0.0001914234.98492E-05
  8928.57  0.0001782934.72806E-05
  8949.07  0.0002645165.61402E-05
  8969.61  0.0001911055.16512E-05
  8990.19  0.0001540395.00045E-05
  9010.83  0.0002571255.38099E-05
  9031.51  0.0002716755.33199E-05
  9052.24  0.00014113 4.22477E-05
  9073.01  0.0001683894.85752E-05
  9093.84  0.000171446  4.755E-05
  9114.71  0.00016681 4.80148E-05
  9135.63  0.0002018944.95314E-05
  9156.6   0.0001580134.92217E-05
  9177.61  0.000218404   5.23E-05
  9198.67  0.0002084745.00981E-05
  9219.79  0.00023739 5.23131E-05
  9240.95  0.0001937845.46095E-05
  9262.15  0.0001417154.92894E-05
  9283.41  0.000197266 5.3127E-05
  9304.72  0.0002832166.14425E-05
  9326.07  0.0001997324.90223E-05
  9347.47  0.0003317485.83537E-05
  9368.93  0.0003039725.32233E-05
  9390.43  0.0004546725.78138E-05
  9411.98  0.00152168 9.01894E-05
  9433.58  0.00580662 0.000157119
  9455.23  0.0004660815.62383E-05
  9476.93  0.000200039 4.7009E-05
  9498.67  0.00026723 5.24422E-05
  9520.47  0.0002720955.55927E-05
  9542.32  0.00011542 4.47896E-05
  9564.22  0.000136844 4.5555E-05
  9586.17  0.000224123 5.0119E-05
  9608.17  0.0002539285.79674E-05
  9630.22  0.0001660474.22596E-05
  9652.32  0.0001983424.74908E-05
  9674.47  0.0002044614.91595E-05
  9696.67  0.0003586195.71023E-05
  9718.92  0.0006260746.50106E-05
  9741.22  0.00328468 0.000127227
  9763.57  0.00255666 0.000112939
  9785.98  0.0001463384.46951E-05
  9808.44  0.0001583343.99348E-05
  9830.94  0.0001811764.86484E-05
  9853.5   0.0002049024.34383E-05
  9876.11  0.0001495294.25107E-05
  9898.78  0.0001718144.68245E-05
  9921.49  0.0001824334.40463E-05
  9944.26  0.0001504874.51202E-05
  9967.08  0.0001742224.38961E-05
  9989.95  0.000180644 4.5332E-05
 10012.9   0.000128588 4.1364E-05
 10035.8   0.0002330825.23845E-05
 10058.9   0.0001525594.20044E-05
 10082.    0.0001780194.34159E-05
 10105.1   0.0001454314.06679E-05
 10128.3   0.0001635964.51207E-05
 10151.5   0.0002004834.71671E-05
 10174.8   0.0002299355.02893E-05
 10198.2   0.0002023364.66142E-05
 10221.6   0.0001633594.04737E-05
 10245.    8.85741E-053.65597E-05
 10268.5   0.00013246 4.30932E-05
 10292.1   0.0002071755.31168E-05
 10315.7   0.000128475 4.1988E-05
 10339.4   0.0002399115.44206E-05
 10363.1   0.000121794  4.189E-05
 10386.9   8.97061E-053.89397E-05
 10410.7   0.0001459  4.44604E-05
 10434.6   0.0002177755.37158E-05
 10458.5   0.0002264285.24261E-05
 10482.5   0.0001406674.31814E-05
 10506.6   0.0001939865.37414E-05
 10530.7   0.0001838795.42836E-05
 10554.8   0.0001452544.72817E-05
 10579.    0.0001696294.43946E-05
 10603.3   0.0001182345.11552E-05
 10627.6   0.0003258766.44728E-05
 10652.    0.00026618 5.82683E-05
 10676.5   0.0002029315.49778E-05
 10701.    0.000165992 4.6998E-05
 10725.5   0.00047788 5.83742E-05
 10750.1   0.00137578 8.45076E-05
 10774.8   0.0001673944.87034E-05
 10799.5   0.0002127825.75347E-05
 10824.3   0.000278267  6.255E-05
 10849.1   0.00015908 4.44157E-05
 10874.    0.0002856385.90574E-05
 10899.    0.0001905935.03654E-05
 10924.    0.0002130266.08093E-05
 10949.    0.0002072544.64465E-05
 10974.1   0.0001042214.39092E-05
 10999.3   0.0001474134.72187E-05
 11024.5    7.3501E-053.69123E-05
 11049.8   0.00012412 3.76255E-05
 11075.2   0.00015681 4.88799E-05
 11100.6   0.0001788464.98378E-05
 11126.1   0.0001683024.65404E-05
 11151.6   0.0002341874.97522E-05
 11177.2   0.0001065793.96384E-05
 11202.8   0.000114266 4.1351E-05
 11228.5   0.0001920764.70294E-05
 11254.3   0.0002210535.19053E-05
 11280.1   0.0001374184.22388E-05
 11306.    0.0001563934.52348E-05
 11331.9   0.0001827764.47196E-05
 11357.9   0.0002141434.82694E-05
 11383.9   0.0001230774.18057E-05
 11410.1   0.0001829744.42967E-05
 11436.2   0.0002589025.20941E-05
 11462.5   0.0002912155.54633E-05
 11488.8   0.0002632355.15836E-05
 11515.1   0.0004375476.07826E-05
 11541.5   0.0005031815.86232E-05
 11568.    0.00118637 9.09363E-05
 11594.5   0.00419923 0.000153955
 11621.1   0.00253658 0.000127694
 11647.8   0.0005142166.37596E-05
 11674.5   0.0003566015.77594E-05
 11701.3   0.0002015474.60098E-05
 11728.1   0.0002109474.96604E-05
 11755.    0.0002106724.89848E-05
 11782.    9.08451E-053.68835E-05
 11809.    0.0002240294.97747E-05
 11836.1   0.000174883 4.1261E-05
 11863.2   0.0001442234.12969E-05
 11890.4   0.0001860724.37011E-05
 11917.7   0.0002169324.82005E-05
 11945.1   0.0001296994.34071E-05
 11972.5   0.0001585414.20552E-05
 11999.9   0.0001191294.00848E-05
 12027.4   0.0001178093.63048E-05
 12055.    0.0001907544.24179E-05
 12082.7   0.0001947114.86248E-05
 12110.4   0.0002822345.67646E-05
 12138.2   0.0001319654.33409E-05
 12166.    0.0001317344.29237E-05
 12193.9   0.0001612144.40869E-05
 12221.9   0.0002288515.25948E-05
 12249.9   0.0002055534.60814E-05
 12278.    0.0001729785.02142E-05
 12306.2   0.0001306384.11791E-05
 12334.4   0.0001953275.08552E-05
 12362.7   0.000166   4.53495E-05
 12391.    0.000130839 4.3389E-05
 12419.4   0.0002118544.90091E-05
 12447.9   0.0001617574.82576E-05
 12476.5   0.0001547994.70615E-05
 12505.1   0.0001072614.36023E-05
 12533.8   0.0001767275.15299E-05
 12562.5   0.0001434974.63163E-05
 12591.3   0.0002836085.56613E-05
 12620.2   0.0002452165.11313E-05
 12649.1   0.0001801875.10209E-05
 12678.1   0.00022144 5.11865E-05
 12707.2   0.0001474614.22327E-05
 12736.4   0.0002222115.54291E-05
 12765.6   0.0001743725.06759E-05
 12794.8   0.00020925 4.58597E-05
 12824.2   0.00022107 5.30614E-05
 12853.6   0.0002158644.79021E-05
 12883.1   0.0002477825.27045E-05
 12912.6   0.0002540215.05562E-05
 12942.2   0.0002757655.05129E-05
 12971.9   0.0006210866.80827E-05
 13001.6   0.00212755 0.000115169
 13031.5   0.00547702 0.000177384
 13061.3   0.0006349837.13656E-05
 13091.3   0.0002341285.05597E-05
 13121.3   0.0001249314.31194E-05
 13151.4   0.0001490124.09242E-05
 13181.6   0.0001426794.58138E-05
 13211.8   0.0001934084.70136E-05
 13242.1   0.0001041554.20416E-05
 13272.4   0.0002647325.28567E-05
 13302.9   0.0002048414.96167E-05
 13333.4   0.000252   4.97417E-05
 13364.    0.0002509895.57364E-05
 13394.6   0.0001728524.51846E-05
 13425.3   0.0002117494.90498E-05
 13456.1   0.000205866 5.0547E-05
 13487.    0.0001801014.82478E-05
 13517.9   0.0002529045.49827E-05
 13548.9   0.0001767794.11424E-05
 13579.9   0.0001114253.92042E-05
 13611.1   0.0001659624.14575E-05
 13642.3   0.0002341524.58468E-05
 13673.6   0.0001140523.64996E-05
 13704.9   0.00013893 3.88228E-05
 13736.3   0.0001561434.21777E-05
 13767.8   0.0002965665.00336E-05
 13799.4   0.0006788065.72563E-05
 13831.    0.0019292  9.17246E-05
 13862.7   0.0002380214.87162E-05
 13894.5   0.00011964 3.89808E-05
 13926.4   0.00015518 4.07101E-05
 13958.3   0.00015742 4.43284E-05
 13990.3   0.0001945914.40738E-05
 14022.4   0.0001640664.21201E-05
 14054.5   0.0001200943.38449E-05
 14086.8   0.00023203 4.74407E-05
 14119.1   0.000195481 3.6692E-05
 14151.4   0.0002005624.63367E-05
 14183.9   0.0002724934.38317E-05
 14216.4   0.0006142485.32227E-05
 14249.    0.00236648 9.67339E-05
 14281.7   0.0002897244.57813E-05
 14314.4   0.0001187473.48283E-05
 14347.2   0.0001617814.39535E-05
 14380.1   0.000172761 4.2527E-05
 14413.1   0.0002795315.65914E-05
 14446.1   0.0001756064.10363E-05
 14479.2   0.0002636284.58656E-05
 14512.4   0.0004410545.37446E-05
 14545.7   0.00204419 9.81351E-05
 14579.    0.0009551797.06265E-05
 14612.5   0.000187164 4.5219E-05
 14646.    0.00019613 4.50605E-05
 14679.5   0.0002079024.67579E-05
 14713.2    8.2259E-053.52119E-05
 14746.9   0.0001644074.18229E-05
 14780.7   0.0001402433.63927E-05
 14814.6   0.0002631914.60084E-05
 14848.6   0.0001645234.35092E-05
 14882.6   0.0001739044.25497E-05
 14916.7   7.14888E-053.43837E-05
 14950.9   0.0001665373.96834E-05
 14985.2   0.0001508013.88653E-05
 15019.5   0.00020501 4.68316E-05
 15054.    0.00012205 3.84967E-05
 15088.5   0.0001355823.63389E-05
 15123.    0.0001531044.00631E-05
 15157.7   0.000280419  4.518E-05
 15192.5   0.0004794314.98782E-05
 15227.3   0.0008251266.20406E-05
 15262.2   0.0005693675.75812E-05
 15297.2   0.0002410274.22628E-05
 15332.2   0.0002094654.70436E-05
 15367.4   0.0001419073.49309E-05
 15402.6   0.0001474843.78158E-05
 15437.9   0.000161097  3.915E-05
 15473.3   0.0001571143.80538E-05
 15508.7   0.00018979 4.12774E-05
 15544.3   0.0001749394.08238E-05
 15579.9   0.0001914134.43906E-05
 15615.6   0.0001754684.30975E-05
 15651.4   0.0001118283.47939E-05
 15687.3   0.0001464  4.12904E-05
 15723.2   0.0001007333.34033E-05
 15759.3   0.000111784 3.5962E-05
 15795.4   0.0001226273.96342E-05
 15831.6   0.00019645 4.35277E-05
 15867.9   0.0001327583.72446E-05
 15904.3   0.0002094144.82108E-05
 15940.7   0.0001688854.14803E-05
 15977.2   0.0001067744.11312E-05
 16013.9   0.0001578194.60774E-05
 16050.6   0.0001950355.06083E-05
 16087.3   0.0001624854.28054E-05
 16124.2   0.0001257664.17657E-05
 16161.2   0.0002202484.88064E-05
 16198.2   0.0001269713.81563E-05
 16235.3   0.0001278493.85269E-05
 16272.5   0.0001481124.08624E-05
 16309.8   0.0001507484.25111E-05
 16347.2   0.0001909684.17129E-05
 16384.7   0.0001428983.97407E-05
 16422.2   9.91415E-053.43741E-05
 16459.8   0.0001854234.19514E-05
 16497.6   9.76563E-053.42166E-05
 16535.4   0.0001746874.21594E-05
 16573.3   0.0001443293.88823E-05
 16611.2   0.0003109384.37816E-05
 16649.3   0.0001693544.20531E-05
 16687.5   0.0001661564.28368E-05
 16725.7   0.0001102813.64893E-05
 16764.    0.0001192433.78433E-05
 16802.4   0.000141187  3.983E-05
 16840.9   0.0001342794.32941E-05
 16879.5   0.0001697543.91367E-05
 16918.2   7.69395E-05   3.33E-05
 16957.    0.0001345194.08687E-05
 16995.8   0.000219845 4.7825E-05
 17034.8   0.0002447995.21651E-05
 17073.8   0.0002108384.52656E-05
 17112.9   0.0003177014.96151E-05
 17152.1   0.0006327866.32278E-05
 17191.4   0.0001612734.20781E-05
 17230.8   0.0001396743.97211E-05
 17270.3   9.20158E-053.47094E-05
 17309.9   0.0001337943.93958E-05
 17349.6   0.00016118 4.17262E-05
 17389.3   0.0001763674.32037E-05
 17429.2   0.000121139 3.7493E-05
 17469.1   0.000101489 3.5638E-05
 17509.1   0.0001485483.84885E-05
 17549.2   0.0001179283.41791E-05
 17589.4   0.00012942 3.78646E-05
 17629.7   0.0001238143.58513E-05
 17670.1   0.0001710624.15209E-05
 17710.6   0.00010374 3.57153E-05
 17751.2   0.0001401873.71562E-05
 17791.9   0.0001164813.66057E-05
 17832.6   0.00010203 3.70045E-05
 17873.5   0.0001525033.85942E-05
 17914.4   7.17089E-053.14059E-05
 17955.5   0.0001708324.05126E-05
 17996.6   0.000174017 4.0483E-05
 18037.8   0.000218315 4.3465E-05
 18079.2   0.0001416473.92008E-05
 18120.6   0.0001138533.37869E-05
 18162.1   0.0001297173.71192E-05
 18203.7   0.0001282193.63075E-05
 18245.4   0.0001318723.97582E-05
 18287.2   0.0001595664.01584E-05
 18329.1   0.0001121513.27802E-05
 18371.1   0.0001301254.10492E-05
 18413.2   0.0002125024.72412E-05
 18455.4   0.0001135013.24809E-05
 18497.6   8.79421E-052.89288E-05
 18540.    0.0001185643.67453E-05
 18582.5   0.0001971724.03945E-05
 18625.1   0.0004165865.12842E-05
 18667.7   9.06961E-052.95037E-05
 18710.5   0.0001230573.71772E-05
 18753.3   8.51931E-053.33569E-05
 18796.3   0.0001620874.01937E-05
 18839.4   9.73927E-053.59764E-05
 18882.5   0.0001145883.48312E-05
 18925.8   8.84637E-053.17925E-05
 18969.1   0.0001500093.99345E-05
 19012.6   0.0001789674.31423E-05
 19056.1   0.0001075733.75689E-05
 19099.8   0.0001773834.28797E-05
 19143.5   9.83314E-053.01677E-05
 19187.4   0.00010731   3.323E-05
 19231.3   0.0001396033.81572E-05
 19275.4   0.0001178333.47978E-05
 19319.5   0.0001192393.53582E-05
 19363.8   0.0001656774.28448E-05
 19408.1   0.0001588273.97252E-05
 19452.6   6.96515E-053.16394E-05
 19497.1   9.55557E-05 3.1552E-05
 19541.8   0.0001186393.72134E-05
 19586.5   0.00013679 4.15114E-05
 19631.4   0.0001189183.84177E-05
 19676.4   0.0001878854.25094E-05
 19721.4   0.0001428783.64404E-05
 19766.6   0.0001565683.96134E-05
 19811.9   0.0001306013.69906E-05
 19857.3   0.0001101573.06075E-05
 19902.7   0.0001800994.24686E-05
 19948.3   0.0001136363.45185E-05
 19994.    9.16288E-053.14124E-05
 20039.8   0.0001623323.63727E-05
 20085.7   0.0001058433.33704E-05
 20131.7   9.42146E-053.12008E-05
 20177.8   0.0002228454.25372E-05
 20224.    0.000131756 2.8376E-05
 20270.3   0.00038733 4.41497E-05
 20316.7   0.00164854 8.64599E-05
 20363.3   0.00076669 6.45355E-05
 20409.9   0.0001059183.13374E-05
 20456.6   6.40759E-052.56091E-05
 20503.5   0.0001106613.48961E-05
 20550.4   8.83022E-053.22804E-05
 20597.5   0.0001855434.20253E-05
 20644.7   0.0001270973.23029E-05
 20692.    0.0001941834.12468E-05
 20739.3   0.0001242593.60397E-05
 20786.8   0.0001530413.98063E-05
 20834.4   0.0001143783.44088E-05
 20882.1   0.0001743664.23061E-05
 20930.    7.92055E-053.52547E-05
 20977.9   0.0001524874.02446E-05
 21025.9   0.0001704244.32289E-05
 21074.1   0.0001711984.16216E-05
 21122.3   0.0001165173.88841E-05
 21170.7   0.0001856384.45958E-05
 21219.2   0.0001609734.18581E-05
 21267.8   0.0001534223.87433E-05
 21316.5   0.0002471344.83638E-05
 21365.3   0.0002975554.84637E-05
 21414.2   0.000154406 3.8044E-05
 21463.2   0.00015865 3.97279E-05
 21512.4   0.0001390263.92355E-05
 21561.6   0.0002232835.19706E-05
 21611.    0.0001589283.81912E-05
 21660.5   0.0001498953.77512E-05
 21710.1   0.0001674144.27873E-05
 21759.8   0.0002110374.72417E-05
 21809.6   0.0001507383.93979E-05
 21859.5   0.0001160323.78333E-05
 21909.6   7.14066E-05 3.1108E-05
 21959.7   0.0001370283.17309E-05
 22010.    0.0002450864.81373E-05
 22060.4   0.0001990694.30829E-05
 22110.9   0.0002987294.56466E-05
 22161.5   0.0005311165.50038E-05
 22212.3   0.000114682 3.1204E-05
 22263.1   0.0001422153.74292E-05
 22314.1   0.0001619074.07164E-05
 22365.2   0.000183682 4.5777E-05
 22416.4   0.0001720084.28187E-05
 22467.7   9.21261E-053.05177E-05
 22519.1   7.00958E-052.73391E-05
 22570.7   0.0001515283.59071E-05
 22622.4   0.0002125944.13611E-05
 22674.2   0.0001966544.35018E-05
 22726.1   0.0001594673.39852E-05
 22778.1   0.000226371 4.1959E-05
 22830.2   0.0002276733.92441E-05
 22882.5   0.0002338144.16521E-05
 22934.9   0.0003516494.71012E-05
 22987.4   0.000547687 5.4021E-05
 23040.    0.00159184 8.84238E-05
 23092.8   0.00134204 7.94595E-05
 23145.6   0.0002665454.31425E-05
 23198.6   0.00017394 3.71015E-05
 23251.7   0.0002169333.98727E-05
 23304.9   0.0001187223.25117E-05
 23358.3   0.0001326613.49193E-05
 23411.7   0.0001398563.39623E-05
 23465.3   0.00017027 3.55869E-05
 23519.    0.0001136523.67609E-05
 23572.9   0.0001897223.91797E-05
 23626.8   0.0002038383.91418E-05
 23680.9   0.0003411074.12195E-05
 23735.1   0.0002020323.96512E-05
 23789.4   0.0001399173.25634E-05
 23843.9   0.0002331694.08117E-05
 23898.5   0.0001307313.12969E-05
 23953.2   0.0001739113.66207E-05
 24008.    0.0001748693.56064E-05
 24063.    0.0002412124.11187E-05
 24118.    0.0002832944.24316E-05
 24173.2   0.0007726786.24044E-05
 24228.6   0.0005785545.46867E-05
 24284.    0.0002505594.00777E-05
 24339.6   0.0001814074.04539E-05
 24395.3   0.0002803025.09495E-05
 24451.1   0.0003000214.58994E-05
 24507.1   0.000359133 5.0947E-05
 24563.2   0.0006846926.41354E-05
 24619.4   0.00145751 8.80019E-05
 24675.7   0.00117244 7.76114E-05
 24732.2   0.0002701894.08732E-05
 24788.8   0.0002051183.92972E-05
 24845.5   0.0002297624.04004E-05
 24902.4   0.0002138873.81594E-05
 24959.4   0.00018364 3.75808E-05
 25016.5   0.0001548423.71682E-05
 25073.8   0.0002040224.41728E-05
 25131.1   0.0001976343.86753E-05
 25188.6   0.0001752433.58147E-05
 25246.3   0.0001841274.54898E-05
 25304.1   0.00014626 3.73286E-05
 25362.    0.0001673053.93026E-05
 25420.    0.0002091124.48726E-05
 25478.2   0.0001378193.38517E-05
 25536.5   0.0001555773.35999E-05
 25594.9   0.0001025443.47132E-05
 25653.5   0.000169228 4.1785E-05
 25712.2   0.0001588783.42667E-05
 25771.    0.0001741913.84846E-05
 25830.    0.0001657423.68817E-05
 25889.1   0.0001413543.47748E-05
 25948.3   0.0001054212.88663E-05
 26007.7   0.0001393563.42338E-05
 26067.2   0.0001346873.22098E-05
 26126.9   0.000130563 3.2602E-05
 26186.6   0.0001033982.97416E-05
 26246.6   7.72815E-052.30557E-05
 26306.6   0.0002086943.88295E-05
 26366.8   0.0001846  4.09427E-05
 26427.1   0.00015341 3.26945E-05
 26487.6   0.0002697884.29189E-05
 26548.2   0.0001793743.53821E-05
 26608.9   0.0001775484.30391E-05
 26669.8   0.0001874264.04676E-05
 26730.8   0.0001810643.28332E-05
 26792.    0.0002102763.61037E-05
 26853.3   0.000285964 4.3655E-05
 26914.7   0.0005250474.93389E-05
 26976.3   0.0003025724.32873E-05
 27038.    0.0001217483.31115E-05
 27099.9   0.0001371623.40757E-05
 27161.9   0.00014561 3.16228E-05
 27224.    7.41771E-05 2.8781E-05
 27286.3   0.0001386323.66318E-05
 27348.7   0.0001251293.02662E-05
 27411.3   0.0001014072.97616E-05
 27474.    0.0001279873.28614E-05
 27536.9   0.0001664623.70313E-05
 27599.9   0.000131703 3.6543E-05
 27663.    0.0001179033.32138E-05
 27726.3   0.0001370323.03119E-05
 27789.7   0.0002029844.04539E-05
 27853.3   0.0002199444.15818E-05
 27917.    0.0001765463.48283E-05
 27980.9   0.0001218143.10454E-05
 28044.9   0.0002345494.34322E-05
 28109.    0.0003103414.26629E-05
 28173.3   0.00109543 7.63865E-05
 28237.8   0.0009983337.08746E-05
 28302.4   0.0001778133.81942E-05
 28367.1   0.0001212683.11835E-05
 28432.    0.0001143963.03008E-05
 28497.    8.50086E-052.84699E-05
 28562.2   0.0002169733.83594E-05
 28627.5   0.0001017652.87589E-05
 28693.    0.0001842043.19513E-05
 28758.6   0.0002394243.82972E-05
 28824.4   8.87054E-05 2.8037E-05
 28890.3   0.0002011233.71158E-05
 28956.4   0.0001679433.37709E-05
 29022.7   0.0001516023.21902E-05
 29089.    0.0001989473.74546E-05
 29155.6   0.0002347983.77397E-05
 29222.2   0.0002388173.58598E-05
 29289.1   0.0005851  5.24021E-05
 29356.1   0.0008570416.08753E-05
 29423.2   0.0004773284.94637E-05
 29490.5   0.0002965334.13284E-05
 29557.9   0.000270901 3.7202E-05
 29625.5   0.0004941015.04811E-05
 29693.3   0.0003109364.24131E-05
 29761.2   0.0002070363.64153E-05
 29829.3   0.0001852923.61617E-05
 29897.5   0.0002215844.23903E-05
 29965.9   0.0001784663.25439E-05
 30034.4   0.0003278294.30221E-05
 30103.1   0.0006286785.64213E-05
 30171.9   0.00106804 6.86796E-05
 30240.9   0.0003711294.52333E-05
 30310.1   0.0002017113.48391E-05
 30379.4   0.0002258593.87017E-05
 30448.9   0.0001256182.80028E-05
 30518.5   0.0001784683.73609E-05
 30588.3   0.000116897 2.9433E-05
 30658.2   0.00013782 3.06689E-05
 30728.3   0.0001522222.99648E-05
 30798.6   0.0001056542.79378E-05
 30869.    0.0001248733.12146E-05
 30939.6   0.0001068272.86015E-05
 31010.4   0.00014687  3.0415E-05
 31081.3   0.0002093023.72414E-05
 31152.3   0.0001153152.90076E-05
 31223.6   6.46452E-052.63589E-05
 31295.    0.0001176623.03629E-05
 31366.5   0.0001472733.01649E-05
 31438.2   8.56258E-052.78129E-05
 31510.1   0.0001672653.42301E-05
 31582.2   0.0001372143.14549E-05
 31654.4   0.0001111643.19525E-05
 31726.7   0.0001468263.35479E-05
 31799.3   0.0001226652.93838E-05
 31872.    7.66367E-052.47617E-05
 31944.9   0.0001015492.75192E-05
 32017.9   0.0001641843.87032E-05
 32091.1   9.45123E-052.85527E-05
 32164.5   0.00010206 3.01628E-05
 32238.    0.0001184443.34559E-05
 32311.7   0.0002183664.35966E-05
 32385.6   0.0001506583.66391E-05
 32459.6   0.00015895 3.62095E-05
 32533.8   0.0001146543.28424E-05
 32608.2   0.0001543934.02397E-05
 32682.7   0.0002075214.70514E-05
 32757.5   0.0002149044.45667E-05
 32832.3   0.0002050784.14518E-05
 32907.4   0.0004337645.22003E-05
 32982.6   0.0004509895.07592E-05
 33058.    0.0002258444.48463E-05
 33133.6   0.0001650013.71278E-05
 33209.3   0.0002230024.99019E-05
 33285.3   0.00013719 3.74577E-05
 33361.3   0.0001957634.38633E-05
 33437.6   0.000191305 4.0942E-05
 33514.    0.0006076517.18891E-05
 33590.6   0.0001535374.13122E-05
 33667.4   0.0002578995.95459E-05
 33744.4   9.78698E-053.65385E-05
 33821.5   0.0001817265.25151E-05
 33898.8   0.0002503396.22678E-05
 33976.3   0.0002646186.00297E-05
 34054.    0.0002011666.46082E-05
 34131.8   0.0002219246.06335E-05
 34209.8   0.0001650185.36148E-05
 34288.    0.000156867 5.1839E-05
 34366.4   0.0001714535.44864E-05
 34444.9   0.000241532 6.0961E-05
 34523.7   0.0002742446.70465E-05
 34602.6   0.0002722256.74801E-05
 34681.7   0.0003489697.99869E-05
 34760.9   0.0002319836.01177E-05
 34840.4   0.0004459878.77704E-05
 34920.    0.0004400568.64349E-05
 34999.8   0.0003646618.31833E-05
 35079.8   0.0003264268.61114E-05
 35160.    0.0001874176.64388E-05
 35240.3   0.0002451947.33313E-05
 35320.9   0.000269945 6.4903E-05
 35401.6   0.0002646147.89556E-05
 35482.5   0.00040507 8.35493E-05
 35563.6   0.0004142587.21874E-05
 35644.8   0.0002610117.21495E-05
 35726.3   0.000205356 6.1405E-05
 35807.9   0.0003454537.36231E-05
 35889.8   0.0002275166.26084E-05
 35971.8   0.0001753476.69651E-05
 36054.    0.0002688326.49722E-05
 36136.4   0.0003566258.14451E-05
 36219.    0.00026293 6.72437E-05
 36301.7   0.0002242576.24264E-05
 36384.7   0.0002582596.46798E-05
 36467.8   0.0003338986.80194E-05
 36551.1   0.0001866754.97987E-05
 36634.7   0.0001605424.81666E-05
 36718.4   0.00021027 5.38496E-05
 36802.3   0.0002278785.61874E-05
 36886.4   0.0002870596.02601E-05
 36970.6   0.0002947575.34093E-05
 37055.1   0.0001452134.02512E-05
 37139.8   0.00026927 5.10807E-05
 37224.6   0.0002102054.88754E-05
 37309.7   6.89342E-053.60655E-05
 37394.9   0.0002190235.05296E-05
 37480.4   0.0001681154.62555E-05
 37566.    0.0001945834.47187E-05
 37651.8   0.0001282183.94391E-05
 37737.9   0.0001646774.44488E-05
 37824.1   0.0001485474.03404E-05
 37910.5   0.0002188675.28079E-05
 37997.1   0.00034094 5.30279E-05
 38083.9   0.0006228467.39385E-05
 38170.9   0.0002824115.13186E-05
 38258.1   0.0005852416.83766E-05
 38345.5   0.00120947 9.38568E-05
 38433.1   0.0002706975.09939E-05
 38520.9   0.0001607394.51831E-05
 38608.9   0.000165008 4.1551E-05
 38697.1   7.74389E-053.18102E-05
 38785.5   0.0001229293.45283E-05
 38874.1   0.0002631724.84737E-05
 38962.9   0.0002911735.34354E-05
 39051.9   0.0002189994.70967E-05
 39141.1   0.0001322443.41919E-05
 39230.6   9.67546E-053.33722E-05
 39320.2   0.0001948034.18451E-05
 39410.    0.0001768454.25397E-05
 39500.     9.6206E-053.17924E-05
 39590.2   0.0001630513.54223E-05
 39680.7   0.0001309394.18026E-05
 39771.3   0.0001627214.23391E-05
 39862.1   0.0001386893.96231E-05
 39953.2   0.0002489354.78953E-05
 40044.4   7.85961E-052.86481E-05
ENDDATA           1612
ENDSUBENT         1625
ENDENTRY             2
