ENTRY            F1307   20170112   20170504   20170410       F064
SUBENT        F1307001   20170112   20170504   20170410       F064
BIB                 11         42
TITLE      Neutron emission in interactions of H-1, H-2, He-4,
           and C-12 nuclei with lead nuclei at 1 to 2 GeV per
           nucleon.
AUTHOR     (V.I.Yurevich,R.M.Yakovlev,V.G.Lyapin)
INSTITUTE  (4ZZZDUB) Laboratory of High Energies Physics
REFERENCE  (J,YF,69,(9),1531,2006)
           (J,PAN,69,1496,2006) English translation
           #doi:10.1134/S1063778806090080
REL-REF    (N,A0736002,V.I.Yurevich+,J,NIM/A,562,747,2006)
           Data for proton interactions with lead are given.
           (N,,V.I.Yurevich+,J,FCY/L,3,(3),49,2006)
           (N,,V.I.Yurevich+,J,PPN/L,3,169,2006) English
           translation
           The same data for proton and deuteron interactions
           with lead are given. Detectors description was taken.
FACILITY   (SYNCH,4ZZZDUB)
METHOD     (TOF,EXTB)
DETECTOR   (SCIN) The detector based on a stilbene crystal 10 mm
           in thickness and 40 mm in diameter was used for
           energies below 2.5 MeV.
           The energy region above 2.5 MeV was studied with the
           detectors based on stilbene crystals 50 mm in thickness
           and 50 mm in diameter.
           The neutron detectors with plastic scintillators (200
           mm in thickness and 120 mm in diameter) were used for
           energies above 25 MeV.
ERR-ANALYS (E-ERR-DIG)Digitizing error of outgoing particle energy
           (ERR-DIG)  Data digitizing error
           (DATA-ERR) Statistical uncertainties and neutron-
           energy-dependent experimental errors
           (ERR-1,16.,25.)   Nonenergy-dependent uncertainty. It
           consisted of uncertainty in measurement of a number of
           target nuclei, a number of beam particles fell on
           a target and contribution of background effects.
           (ERR-2,4.,10.) Efficient uncertainty for detector
           used below 2.5 MeV energy
           (ERR-3,7.,12.) Efficient uncertainty for detector
           used above 2.5 MeV energy
           (ERR-4,10.,20.) Efficient uncertainty for detector
           used above 25 MeV energy
STATUS     No response from authors was received.
HISTORY    (20170112C)
ENDBIB              42
NOCOMMON             0          0
ENDSUBENT           45
SUBENT        F1307002   20170112   20170504   20170410       F064
BIB                  3          3
REACTION   (82-PB-0(D,X)0-NN-1,,DA/DE)
SAMPLE     The lead sample with the thickness of 6.93 mm.
STATUS     (CURVE) Figure 4 from YF,69,(9),1531,2006.
ENDBIB               3
COMMON               3          3
EN         E-ERR-DIG  ERR-DIG
GEV        PER-CENT   PER-CENT
         2.      1.53        2.01
ENDCOMMON            3
DATA                 4         56
ANG        E          DATA       DATA-ERR
ADEG       MEV        MB/SR/MEV  MB/SR/MEV
        30.      2.249 2.9706E+02
        30.      2.931 2.7479E+02
        30.      3.764 2.3518E+02
        30.      4.904 1.4749E+02 2.6046E+01
        30.      6.296 9.2502E+01 1.3479E+01
        30.      8.204 6.6466E+01 1.2702E+01
        30.     10.688 3.3663E+01 5.6609E+00
        30.     13.926 2.4188E+01 3.5242E+00
        30.     18.147 1.8784E+01 3.1594E+00
        30.     23.640 8.3037E+00 1.5868E+00
        30.     31.265 8.4646E+00 1.6176E+00
        30.     41.340 5.5189E+00 1.1836E+00
        30.     55.483 5.4114E+00 1.4211E+00
        30.     73.370 4.2849E+00 1.0211E+00
        30.     98.443 2.3004E+00 6.6106E-01
        30.    130.210 2.9038E+00 9.0785E-01
        30.    174.710 1.6525E+00 5.5917E-01
        30.    241.420 9.7761E-01 3.3081E-01
        30.    333.620 6.0129E-01 2.6852E-01
        60.      0.622 5.0365E+02
        60.      0.720 5.3391E+02
        60.      0.847 6.3599E+02
        60.      0.996 6.2379E+02
        60.      1.171 5.4449E+02
        60.      1.356 4.9411E+02
        60.      1.571 5.0383E+02
        60.      1.820 4.3978E+02
        60.      2.172 3.8388E+02
        60.      2.958 2.5529E+02
        60.      3.478 2.3621E+02
        60.      4.030 1.5708E+02
        90.      2.352 2.1153E+02 3.7362E+01
        90.      3.020 1.9583E+02 2.8199E+01
        90.      3.824 1.3811E+02
        90.      6.500 7.0052E+01 1.0085E+01
        90.      8.477 4.1481E+01 7.3242E+00
        90.     11.057 2.1860E+01 3.8604E+00
        90.     14.414 1.7324E+01 2.9129E+00
        90.     18.800 9.6776E+00 1.6276E+00
        90.     24.525 4.7186E+00 8.3329E-01
        90.     32.931 3.3283E+00 7.9279E-01
        90.     43.540 4.1242E+00 9.8237E-01
        90.     57.613 2.7980E+00 7.0743E-01
        90.     76.282 1.2142E+00 2.8921E-01
        90.    118.640 1.0204E+00 3.2859E-01
        90.    176.650 5.3792E-01 2.0698E-01
       150.      1.922 3.5983E+02 5.1805E+01
       150.      2.467 2.6874E+02 3.9156E+01
       150.      3.167 2.0866E+02 3.0045E+01
       150.      4.065 1.2585E+02 2.0194E+01
       150.      5.296 9.2177E+01 1.1398E+01
       150.      6.797 5.2446E+01 8.4144E+00
       150.      8.853 2.9839E+01 4.7880E+00
       150.     11.536 2.6543E+01 4.4632E+00
       150.     15.026 1.5398E+01 2.2168E+00
       150.     25.500 6.9355E+00 9.9833E-01
ENDDATA             58
ENDSUBENT           70
SUBENT        F1307003   20170112   20170504   20170410       F064
BIB                  3          3
REACTION   (82-PB-0(A,X)0-NN-1,,DA/DE)
SAMPLE     The lead sample with the thickness of 6.93 mm.
STATUS     (CURVE) Figure 5a from YF,69,(9),1531,2006.
ENDBIB               3
COMMON               3          3
EN         E-ERR-DIG  ERR-DIG
GEV        PER-CENT   PER-CENT
         4.       1.32       2.43
ENDCOMMON            3
DATA                 4         86
ANG        E          DATA       DATA-ERR
ADEG       MEV        MB/SR/MEV  MB/SR/MEV
        30.      2.087 5.0329E+02
        30.      2.275 4.6286E+02
        30.      2.516 4.2569E+02
        30.      2.823 3.9153E+02
        30.      3.261 3.4053E+02
        30.      3.932 3.1326E+02
        30.      4.674 2.1780E+02
        30.      5.556 1.8944E+02
        30.      6.325 1.5149E+02
        30.      7.306 1.1454E+02
        30.      8.317 9.6868E+01
        30.      8.940 6.7331E+01
        30.     11.418 6.5517E+01
        30.     13.186 5.6982E+01
        30.     15.904 3.8526E+01
        30.     17.591 3.4454E+01
        30.     21.833 2.7558E+01
        30.     24.498 2.5346E+01
        30.     29.542 2.1438E+01
        30.     36.659 2.1451E+01
        30.     44.204 1.9734E+01
        30.     51.050 1.7650E+01
        30.     58.960 1.4515E+01
        30.     66.163 1.1936E+01
        30.     74.246 1.0094E+01
        30.     83.301 1.0678E+01
        30.     93.473 9.5503E+00
        30.    111.110 8.0775E+00
        30.    133.980 7.0261E+00
        30.    161.600 4.2472E+00 9.4593E-01
        30.    197.650 5.0268E+00 1.2276E+00
        30.    221.780 4.3716E+00 1.0675E+00
        30.    267.480 3.1259E+00 9.5360E-01
        30.    331.970 2.5712E+00 8.8167E-01
        60.      0.315 6.9834E+02
        60.      0.414 6.7910E+02
        60.      0.520 6.2442E+02
        60.      0.655 6.4218E+02
        60.      0.757 6.4220E+02
        60.      0.874 6.9848E+02
        60.      1.069 7.1834E+02
        60.      1.199 6.0729E+02
        60.      1.467 5.9054E+02
        60.      1.847 5.2801E+02
       100.      2.038 4.3505E+02 1.3271E+02
       100.      2.758 3.3825E+02
       100.      3.278 2.7810E+02
       100.      3.731 2.5573E+02
       100.      4.371 2.4184E+02
       100.      5.195 1.9884E+02
       100.      6.087 1.3439E+02
       100.      7.029 9.8781E+01
       100.      8.355 8.3521E+01
       100.      9.789 5.8051E+01
       100.     12.324 4.7731E+01
       100.     16.200 3.3179E+01
       100.     19.256 2.5081E+01
       100.     22.560 1.8960E+01 4.2227E+00
       100.     25.682 1.2814E+01 3.3963E+00
       100.     30.523 1.3554E+01
       100.     37.336 1.2464E+01
       100.     45.672 9.9654E+00
       100.     54.286 7.3253E+00
       100.     64.524 5.2360E+00
       100.     77.805 3.7427E+00 8.3357E-01
       100.     97.961 2.4598E+00 6.0066E-01
       100.    121.570 1.9124E+00 5.0686E-01
       100.    153.060 1.4457E+00 4.9575E-01
       100.    195.520 6.2438E-01 2.1410E-01
       100.    249.760 3.1898E-01 9.7308E-02
       100.    319.050 1.4167E-01 4.0423E-02
       100.    470.680 4.6251E-02 2.4531E-02
       150.      5.206 1.4103E+02
       150.      9.785 4.8646E+01
       150.     12.486 3.7803E+01
       150.     14.620 3.0213E+01
       150.     16.874 2.4147E+01
       150.     19.757 1.7745E+01
       150.     22.159 1.4183E+01
       150.     29.947 1.0421E+01
       150.     34.566 9.0582E+00
       150.     39.897 7.6565E+00
       150.     45.394 6.6556E+00
       150.     58.764 4.8904E+00
       150.     77.163 2.3611E+00
       150.     99.889 1.5952E+00 4.2278E-01
ENDDATA             88
ENDSUBENT          100
SUBENT        F1307004   20170112   20170504   20170410       F064
BIB                  3          3
REACTION   (82-PB-0(6-C-12,X)0-NN-1,,DA/DE)
SAMPLE     The lead sample with the thickness of 12 mm.
STATUS     (CURVE) Figure 5b from YF,69,(9),1531,2006.
ENDBIB               3
COMMON               3          3
EN         E-ERR-DIG  ERR-DIG
GEV        PER-CENT   PER-CENT
        24.       1.17       2.00
ENDCOMMON            3
DATA                 4        100
ANG        E          DATA       DATA-ERR
ADEG       MEV        MB/SR/MEV  MB/SR/MEV
        30.      2.317 9.8080E+02
        30.      3.084 6.7457E+02
        30.      5.313 3.2620E+02
        30.      8.642 1.5773E+02 3.0400E+01
        30.     12.718 9.2987E+01 2.0394E+01
        30.     15.100 7.7973E+01
        30.     17.424 5.9865E+01 9.9821E+00
        30.     25.274 4.9114E+01
        30.     31.324 3.8551E+01
        30.     36.660 3.9416E+01
        30.     41.699 3.2330E+01
        30.     50.222 2.8332E+01
        30.     59.631 2.2733E+01
        30.     69.796 1.8647E+01
        30.     82.869 1.5636E+01
        30.     95.610 1.5638E+01
        30.    115.160 1.0520E+01
        30.    144.780 9.4247E+00
        30.    187.300 8.2596E+00 1.4857E+00
        30.    235.480 6.4833E+00 1.3954E+00
        30.    279.590 5.5576E+00 1.1961E+00
        30.    327.230 5.3188E+00 1.3247E+00
        53.      0.235 9.1555E+02 1.8105E+02
        53.      0.304 1.0450E+03
        53.      0.372 9.3606E+02
        53.      0.455 1.0001E+03
        53.      0.556 1.3318E+03
        53.      0.700 1.1930E+03
        53.      0.868 1.2196E+03
        53.      1.393 1.1417E+03
        53.      1.937 1.0004E+03
        53.      2.695 8.2055E+02
        53.      3.803 5.5196E+02
        53.      4.784 3.8800E+02
        53.      6.848 1.9172E+02
        53.      8.019 1.4718E+02
        53.     10.684 1.1551E+02
        53.     13.062 7.4350E+01
        53.     15.077 5.9650E+01
        53.     17.655 5.3430E+01
        53.     21.275 4.5796E+01
        53.     24.557 3.8396E+01 7.5928E+00
        53.     27.544 3.3643E+01
        53.     30.454 3.0134E+01
        53.     37.228 2.7593E+01
        53.     44.223 2.4716E+01
        53.     51.782 2.4178E+01
        53.     62.402 1.5909E+01
        53.     71.003 1.3636E+01
        53.     80.791 1.0940E+01
        53.     91.929 8.2153E+00
        53.    109.200 7.8615E+00
        53.    129.720 6.5913E+00
        53.    147.600 5.4059E+00
        53.    183.040 3.8001E+00 6.8353E-01
        53.    236.980 3.1167E+00 6.7082E-01
        53.    277.500 1.8368E+00 4.5748E-01
        90.      2.159 9.2718E+02
        90.      3.129 5.4581E+02
        90.      4.409 4.3743E+02
        90.      5.232 3.2116E+02
        90.      6.863 2.3059E+02
        90.      7.803 1.7695E+02
        90.     10.088 1.0652E+02
        90.     11.308 8.5431E+01 2.1277E+01
        90.     13.416 5.1442E+01
        90.     15.474 3.9474E+01 8.4970E+00
        90.     18.626 2.6536E+01
        90.     22.111 2.3756E+01 4.6975E+00
        90.     25.144 2.0806E+01 4.4780E+00
        90.     28.996 1.4300E+01 2.5722E+00
        90.     36.440 1.0970E+01
        90.     43.872 8.6045E+00
        90.     51.351 9.1882E+00
        90.     60.935 6.1769E+00
        90.     69.296 5.5305E+00
        90.     78.783 3.9725E+00
        90.     90.868 3.1162E+00
        90.    107.840 2.3389E+00 4.6242E-01
        90.    135.500 1.5721E+00 3.9154E-01
        90.    177.700 9.4636E-01 3.0985E-01
        90.    226.420 4.7765E-01 1.1896E-01
        90.    264.930 4.0028E-01 9.9704E-02
       150.      2.396 7.6654E+02
       150.      2.686 6.8655E+02
       150.      2.927 6.8653E+02
       150.      3.282 5.2701E+02 8.5165E+01
       150.      3.627 5.0427E+02
       150.      4.009 3.0378E+02
       150.      4.559 2.4370E+02 4.3833E+01
       150.      5.039 2.1352E+02 3.8405E+01
       150.      5.650 2.6033E+02
       150.      6.156 1.3741E+02 4.2929E+01
       150.      7.002 1.4360E+02
       150.      7.850 9.4475E+01 1.5267E+01
       150.      8.676 7.0942E+01 1.5268E+01
       150.      9.728 5.9476E+01 1.1761E+01
       150.     10.907 5.4456E+01 1.0768E+01
       150.     12.228 4.8773E+01 1.0497E+01
       150.     13.908 3.9127E+01 8.4212E+00
ENDDATA            102
ENDSUBENT          114
ENDENTRY             4
