ENTRY            F1372   20181206   20190529   20190514       F071
SUBENT        F1372001   20181206   20190529   20190514       F071
BIB                 11         20
TITLE      The reaction C12(a,p0)N15 at 16 to 26 MeV alpha-
           particle energy.
AUTHOR     (I.B.Teplov,L.N.Fateeva)
INSTITUTE  (4RUSMOS)
REFERENCE  (J,ZET,48,385,1965)
           (J,JET,21,253,1965) English translation
METHOD     (EDEG)
FACILITY   (CYCLO,4RUSMOS) 120-cm cyclotron.
DETECTOR   (TELES,PROPC) Telescope of four proportional counters
           was used for proton registration.
SAMPLE     Lavsan (mylar) polyester film C(10)H(8)O(4) of
           10 mu-m thickness was used as a target.
ADD-RES    Dependence of the differential cross section on the
           proton emission angle for different alpha-particle
           energies was obtained from the measured excitation
           functions. Total cross sections was obtained by
           integrating the angular distributions for 31 values
           of alpha-particle energy.
STATUS     (CURVE) Fig. 1
HISTORY    (20181206C)
ENDBIB              20
COMMON               4          3
E-LVL      EN-ERR     EN-ERR-DIG ERR-DIG
MEV        MEV        MEV        MB/SR
         0.        0.2      0.034    0.01513
ENDCOMMON            3
ENDSUBENT           27
SUBENT        F1372002   20181206   20190529   20190514       F071
BIB                  1          1
REACTION   (6-C-12(A,P)7-N-15,PAR,DA)
ENDBIB               1
NOCOMMON             0          0
DATA                 3        331
ANG-CM     EN         DATA-CM
ADEG       MEV        MB/SR
        19.     21.444    0.18095
        19.     21.829    0.20311
        19.     22.132    0.09475
        19.     22.463    0.11685
        19.     22.737    0.19323
        19.     23.066    0.34577
        19.     23.425    0.31355
        19.     23.727    0.38996
        19.     24.002    0.35765
        19.     24.251    0.24923
        19.     24.610    0.05397
        19.     24.968    0.03262
        19.     25.215    0.08723
        19.     25.490    0.14188
        19.     25.793    0.15308
        19.     26.123    0.14257
        19.     26.399    0.05591
        30.     18.300    0.59789
        30.     18.659    0.40042
        30.     18.990    0.21282
        30.     19.403    0.31196
        30.     19.731    0.60875
        30.     20.061    0.79680
        30.     20.419    0.66853
        30.     20.804    0.68857
        30.     21.136    0.52074
        30.     21.439    0.48140
        30.     21.769    0.54094
        30.     22.182    0.52145
        30.     22.401    0.66000
        30.     22.731    0.69976
        30.     23.089    0.62092
        30.     23.420    0.52229
        30.     23.724    0.41376
        30.     24.000    0.28544
        30.     24.303    0.22633
        30.     24.578    0.20674
        30.     24.963    0.18724
        30.     25.184    0.18739
        30.     25.514    0.17773
        30.     25.817    0.16805
        30.     26.147    0.12873
        45.     15.048    0.49834
        45.     15.432    0.79530
        45.     15.956    0.66379
        45.     16.341    0.82888
        45.     16.721    1.91700
        45.     17.104    2.66450
        45.     17.548    1.70880
        45.     17.854    0.99473
        45.     18.295    0.80822
        45.     19.040    0.27027
        45.     19.370    0.35841
        45.     19.727    0.62238
        45.     20.029    0.85335
        45.     20.331    1.05130
        45.     20.770    1.38130
        45.     21.129    1.11780
        45.     21.461    0.77739
        45.     21.791    0.82157
        45.     22.092    1.07450
        45.     22.421    1.36040
        45.     22.779    1.33870
        45.     23.028    1.14110
        45.     23.359    0.89955
        45.     23.635    0.74590
        45.     23.994    0.52636
        45.     24.325    0.35077
        45.     24.628    0.32899
        45.     24.902    0.49401
        45.     25.150    0.60407
        45.     25.452    0.60427
        45.     25.811    0.51660
        45.     26.059    0.34095
        60.     15.510    0.82985
        60.     16.061    0.88431
        60.     16.419    0.50401
        60.     16.832    0.64538
        60.     17.217    1.34100
        60.     17.630    1.24330
        60.     18.016    0.96080
        60.     18.319    0.79785
        60.     18.732    0.49363
        60.     19.063    0.29808
        60.     19.476    0.21122
        60.     19.889    0.27652
        60.     20.164    0.52654
        60.     20.494    0.83091
        60.     20.797    1.03750
        60.     21.155    1.09190
        60.     21.513    0.76592
        60.     21.871    0.58124
        60.     22.201    0.74433
        60.     22.421    0.96173
        60.     22.834    0.97269
        60.     23.110    0.88580
        60.     23.496    0.59245
        60.     23.771    0.48383
        60.     24.074    0.41869
        60.     24.377    0.25573
        60.     24.736    0.13626
        60.     25.011    0.19066
        60.     25.231    0.31025
        60.     25.506    0.42986
        60.     25.892    0.41907
        60.     26.195    0.27785
        60.     26.415    0.16922
        75.     15.527    0.73909
        75.     15.898    1.08910
        75.     16.355    0.72283
        75.     16.770    0.38982
        75.     17.184    0.30672
        75.     17.515    0.35686
        75.     17.887    0.39037
        75.     18.260    0.44053
        75.     18.591    0.47401
        75.     19.005    0.30761
        75.     19.419    0.27449
        75.     19.709    0.34127
        75.     20.370    0.87473
        75.     20.743    0.69164
        75.     21.115    0.74180
        75.     21.488    0.50874
        75.     21.860    0.62554
        75.     22.108    0.82559
        75.     22.522    0.74249
        75.     22.813    0.60935
        75.     23.103    0.45954
        75.     23.434    0.40972
        75.     23.724    0.27658
        75.     24.056    0.21010
        75.     24.304    0.12692
        75.     24.677    0.02713
        75.     25.008    0.02730
        75.     25.257    0.02742
        75.     25.505    0.09418
        75.     25.836    0.12766
        75.     26.167    0.11116
        75.     26.457    0.06132
        90.     15.371    0.82322
        90.     15.766    0.99273
        90.     16.161    1.20120
        90.     16.632    0.53961
        90.     17.093    0.69624
        90.     17.458    0.63191
        90.     17.857    0.51569
        90.     18.222    0.34746
        90.     18.586    0.42600
        90.     19.147    0.53085
        90.     19.313    0.50515
        90.     19.511    0.54445
        90.     19.674    0.75253
        90.     19.869    1.03860
        90.     19.967    1.16860
        90.     20.132    1.28580
        90.     20.499    0.94874
        90.     20.863    0.93636
        90.     21.262    0.84611
        90.     21.561    0.66479
        90.     21.926    0.65241
        90.     22.256    0.66595
        90.     22.555    0.57554
        90.     22.920    0.49823
        90.     23.285    0.40792
        90.     23.551    0.25252
        90.     23.850    0.16210
        90.     24.181    0.18864
        90.     24.445    0.21506
        90.     24.776    0.21561
        90.     25.041    0.19008
        90.     25.372    0.22960
        90.     25.669    0.28205
        90.     26.000    0.24365
        90.     26.331    0.25719
        90.     26.530    0.20557
       105.     15.079    1.47730
       105.     15.453    0.90158
       105.     15.843    0.94441
       105.     16.271    1.36010
       105.     16.681    1.49620
       105.     17.087    2.09830
       105.     17.374    2.19190
       105.     17.853    1.20100
       105.     18.204    0.89641
       105.     18.553    0.93073
       105.     18.881    0.97349
       105.     19.334    0.83846
       105.     19.660    1.17780
       105.     19.967    1.39000
       105.     20.276    1.23790
       105.     20.667    1.04340
       105.     21.078    1.09480
       105.     21.367    0.82396
       105.     21.678    0.40912
       105.     22.007    0.34173
       105.     22.294    0.43529
       105.     22.622    0.47805
       105.     22.992    0.47002
       105.     23.341    0.47044
       105.     23.629    0.41147
       105.     23.916    0.43724
       105.     24.203    0.46301
       105.     24.593    0.47195
       105.     24.859    0.61632
       105.     25.167    0.63364
       105.     25.454    0.77804
       105.     25.679    0.78678
       105.     25.988    0.68547
       105.     26.276    0.67734
       120.     15.385    0.91701
       120.     15.713    1.15060
       120.     16.182    1.74270
       120.     16.570    2.17630
       120.     16.937    2.72660
       120.     17.331    1.93530
       120.     17.682    1.51890
       120.     18.093    1.46080
       120.     18.462    1.55280
       120.     18.792    1.26140
       120.     19.143    1.00330
       120.     19.471    0.93693
       120.     19.840    1.10390
       120.     20.231    1.06250
       120.     20.539    0.93777
       120.     20.888    1.02140
       120.     21.258    0.81334
       120.     21.506    0.63020
       120.     21.650    0.43864
       120.     21.898    0.21383
       120.     22.206    0.17241
       120.     22.493    0.28930
       120.     22.863    0.28960
       120.     23.129    0.31481
       120.     23.499    0.33177
       120.     23.786    0.33200
       120.     24.074    0.35723
       120.     24.485    0.28256
       120.     24.751    0.39111
       120.     24.997    0.49130
       120.     25.346    0.51658
       120.     25.612    0.62513
       120.     25.921    0.56704
       120.     26.188    0.50892
       135.     15.379    1.30080
       135.     15.910    1.11320
       135.     16.253    1.46610
       135.     16.578    1.62230
       135.     17.006    1.60650
       135.     17.353    1.44320
       135.     17.825    1.12430
       135.     18.108    1.31320
       135.     18.310    1.53480
       135.     18.513    1.64980
       135.     18.882    1.36360
       135.     19.250    1.24940
       135.     19.559    0.92213
       135.     19.884    0.92263
       135.     20.291    0.98061
       135.     20.619    0.75987
       135.     20.965    0.85873
       135.     21.230    0.86733
       135.     21.576    0.86787
       135.     21.968    0.37680
       135.     22.275    0.14783
       135.     22.581    0.09914
       135.     22.887    0.09960
       135.     23.172    0.07546
       135.     23.539    0.06783
       135.     23.824    0.10104
       135.     24.190    0.14258
       135.     24.557    0.11037
       135.     24.781    0.19265
       135.     25.045    0.22584
       135.     25.371    0.26731
       135.     25.696    0.30878
       135.     25.982    0.21908
       135.     26.206    0.26040
       150.     16.107    2.33480
       150.     16.500    1.92210
       150.     17.000    0.84022
       150.     17.348    0.79111
       150.     17.757    0.95694
       150.     18.145    1.00710
       150.     18.450    1.28020
       150.     18.777    1.31370
       150.     19.186    1.33900
       150.     19.452    1.33110
       150.     19.884    1.14160
       150.     20.542    0.75413
       150.     20.930    0.84556
       150.     21.173    1.22600
       150.     21.538    1.68930
       150.     21.933    0.92956
       150.     22.265    0.34328
       150.     22.595    0.11233
       150.     22.902    0.03838
       150.     23.209    0.15449
       150.     23.535    0.27063
       150.     23.821    0.33713
       150.     24.210    0.39550
       150.     24.454    0.57764
       150.     24.719    0.72675
       150.     24.984    0.79322
       150.     25.352    0.84331
       150.     25.659    0.91810
       150.     25.987    0.81938
       150.     26.252    0.91064
      163.5     18.143    1.30340
      163.5     18.524    1.58500
      163.5     18.822    2.07240
      163.5     19.203    2.42990
      163.5     19.583    2.88480
      163.5     20.293    2.00790
      163.5     20.621    1.50990
      163.5     20.947    1.39090
      163.5     21.273    2.17060
      163.5     21.679    3.24270
      163.5     22.035    1.91100
      163.5     22.309    1.10980
      163.5     22.610    0.74168
      163.5     22.936    0.62267
      163.5     23.235    0.85015
      163.5     23.589    0.86109
      163.5     23.834    0.94779
      163.5     24.188    1.17530
      163.5     24.432    1.39190
      163.5     24.786    1.65190
      163.5     25.004    1.72780
      163.5     25.494    1.63050
      163.5     25.684    1.82550
      163.5     25.983    2.12870
ENDDATA            333
ENDSUBENT          339
ENDENTRY             2
