ENTRY            E2301   20181220   20190118   20190118       E119
SUBENT        E2301001   20181220   20190118   20190118       E119
BIB                  8          9
TITLE      Elastic and inelastic scattering of protons on 14N in
           the energy region of 10 to 15 MeV. I. Experimental
AUTHOR     (Y.Oda, H.Nakamura, A.Yoshida, M.Kusuhara, M.Murakami)
INSTITUTE  (2JPNTIT) Department of Physics, Faculty of Sciences
REFERENCE  (J,JPJ,30,1217,1971)
SAMPLE     Physical-form of target is gas.
FACILITY   (CYCLO,2JPNTOK) Institute for Nuclear Study
DETECTOR   (GE)
HISTORY    (20110622C) Ichinkhorloo
ENDBIB               9
NOCOMMON             0          0
ENDSUBENT           12
SUBENT        E2301002   20181220   20190118   20190118       E119
BIB                  3          3
REACTION   (7-N-14(P,EL)7-N-14,,DA)
EN-SEC     ANG-CM is polar angle (c.m.) between beam and 14N
STATUS     (CURVE) Fig.4(a) of J. Phys. Soc. Jpn. 30(1971)1217.
ENDBIB               3
NOCOMMON             0          0
DATA                 3        120
EN         ANG-CM     DATA-CM
MEV        ADEG       MB/SR
       10.5     12.876  4.474E+03
       10.5     15.755  1.636E+03
       10.5     19.241  1.143E+03
       10.5     21.574  7.445E+02
       10.5     24.121  6.032E+02
       10.5     25.602  4.450E+02
       10.5     34.934  3.038E+02
       10.5     39.179  2.105E+02
       10.5     43.627  1.268E+02
       10.5     49.148  8.130E+01
       10.5     57.835  3.092E+01
       10.5     63.145  2.317E+01
       10.5     68.447  2.144E+01
       10.5     73.749  2.354E+01
       10.5     78.409  2.905E+01
       10.5     82.865  3.343E+01
       10.5     87.743  4.063E+01
       10.5     91.557  4.461E+01
       10.5     94.743  4.357E+01
       10.5    103.388  5.213E+01
       10.5    108.786  5.295E+01
       10.5    113.380  5.014E+01
       10.5    118.271  4.495E+01
       10.5    123.763  4.224E+01
       10.5    129.051  3.642E+01
       10.5    133.941  3.215E+01
       10.5    138.032  2.860E+01
       10.5    142.428  2.816E+01
       10.5    148.628  2.974E+01
       10.5    152.830  3.265E+01
       10.5    158.333  3.587E+01
       10.5    164.137  4.094E+01
       10.5    168.971  4.848E+01
       10.5    173.304  5.443E+01
      11.90     32.298  2.283E+02
      11.90     49.628  8.527E+01
      11.90     64.595  2.186E+01
      11.90     79.956  3.139E+01
      11.90    109.496  3.790E+01
      11.90    124.464  2.186E+01
      11.90    140.218  1.457E+01
      11.90    154.100  1.760E+01
      11.90    163.400  3.471E+01
      12.50     32.370  2.694E+02
      12.50     33.085  3.629E+02
      12.50     49.000  7.563E+01
      12.50     64.340  2.561E+01
      12.50     95.290  5.021E+01
      12.50    110.200  4.201E+01
      12.50    121.706  1.864E+01
      12.50    124.800  2.494E+01
      12.50    139.825  2.033E+01
      12.50    154.004  2.920E+01
      12.50    162.400  4.318E+01
      13.29     32.298  2.920E+02
      13.29     52.385  6.201E+01
      13.29     79.562  4.194E+01
      13.29     96.780  4.197E+01
      13.29    109.890  4.778E+01
      13.29    124.857  1.864E+01
      13.29    154.004  2.454E+01
      13.29    162.600  3.666E+01
      13.56     31.904  2.454E+02
      13.56     50.022  6.201E+01
      13.56     65.777  2.350E+01
      13.56     80.460  3.317E+01
      13.56     94.660  4.608E+01
      13.56    110.000  2.199E+01
      13.56    126.800  1.840E+01
      13.56    140.800  1.528E+01
      13.56    154.100  2.259E+01
      13.56    163.200  3.236E+01
      13.93     47.530  6.223E+01
      13.93     66.250  2.561E+01
      13.93     81.720  4.159E+01
      13.93     96.780  4.573E+01
      13.93    109.700  3.273E+01
      13.93    123.600  1.869E+01
      13.93    138.400  1.563E+01
      13.93    164.900  3.582E+01
      14.33     21.920  6.201E+02
      14.33     27.571  4.134E+02
      14.33     34.080  2.341E+02
      14.33     37.280  1.727E+02
      14.33     41.357  1.000E+02
      14.33     47.540  4.555E+01
      14.33     52.670  2.660E+01
      14.33     57.899  2.004E+01
      14.33     63.080  1.979E+01
      14.33     68.380  2.314E+01
      14.33     73.460  2.858E+01
      14.33     78.540  3.475E+01
      14.33     84.270  3.672E+01
      14.33     89.570  3.760E+01
      14.33     94.460  3.618E+01
      14.33    103.800  3.297E+01
      14.33    109.500  2.396E+01
      14.33    112.700  2.050E+01
      14.33    119.100  1.467E+01
      14.33    123.600  1.562E+01
      14.33    126.800  1.189E+01
      14.33    133.400  1.010E+01
      14.33    138.900  1.144E+01
      14.33    142.900  1.257E+01
      14.33    147.600  1.459E+01
      14.33    152.000  1.759E+01
      14.33    156.900  2.073E+01
      14.33    162.400  2.621E+01
      14.62     32.691  4.509E+02
      14.62     51.991  7.595E+01
      14.62     52.779  5.365E+01
      14.62     62.650  2.560E+01
      14.62     79.956  3.735E+01
      14.62     93.600  4.067E+01
      14.62     98.040  5.181E+01
      14.62    109.500  2.911E+01
      14.62    124.400  1.433E+01
      14.62    139.037  9.715E+00
      14.62    153.500  1.565E+01
      14.62    163.457  2.250E+01
ENDDATA            122
ENDSUBENT          130
SUBENT        E2301003   20181220   20190118   20190118       E119
BIB                  4          5
REACTION   (7-N-14(P,INL)7-N-14,PAR,DA)
EN-SEC     ANG-CM is polar angle (c.m.) between beam and 14N
ERR-ANALYS (DATA-ERR) No information on source of uncertainties
STATUS     (CURVE) Fig.4 (b)-(l) of J. Phys. Soc. Jpn.
                   30(1971)1217.
ENDBIB               5
NOCOMMON             0          0
DATA                 7       1036
Q-VAL      EN         ANG-CM     DATA-CM    DATA-ERR   +DATA-ERR
-DATA-ERR
MEV        MEV        ADEG       MB/SR      MB/SR      MB/SR
MB/SR
      -2.31       10.5     17.057      0.457                +0.133
     -0.146
      -2.31       10.5     20.332      0.555                +0.090
     -0.077
      -2.31       10.5     22.540      0.526                +0.104
     -0.096
      -2.31       10.5     25.379      0.443                +0.051
     -0.048
      -2.31       10.5     28.557      0.502                +0.069
     -0.064
      -2.31       10.5     37.607      0.475                +0.043
     -0.021
      -2.31       10.5     40.792      0.536                +0.077
     -0.088
      -2.31       10.5     48.290      0.496                +0.045
     -0.043
      -2.31       10.5     54.205      0.429                +0.043
     -0.043
      -2.31       10.5     58.685      0.397                +0.043
     -0.043
      -2.31       10.5     63.732      0.285                +0.040
     -0.040
      -2.31       10.5     69.138      0.322                +0.043
     -0.043
      -2.31       10.5     73.457      0.224                +0.051
     -0.037
      -2.31       10.5     80.789      0.115                +0.035
     -0.035
      -2.31       10.5     86.195      0.152                +0.040
     -0.035
      -2.31       10.5     90.578      0.080                +0.035
     -0.048
      -2.31       10.5     96.718      0.106                +0.053
     -0.053
      -2.31       10.5    102.729      0.079                +0.045
     -0.035
      -2.31       10.5    108.920      0.127                +0.040
     -0.040
      -2.31       10.5    114.996      0.127                +0.040
     -0.040
      -2.31       10.5    118.258      0.220                +0.053
     -0.048
      -2.31       10.5    122.770      0.201                +0.053
     -0.048
      -2.31       10.5    126.714      0.262                +0.061
     -0.061
      -2.31       10.5    129.146      0.326                +0.051
     -0.051
      -2.31       10.5    134.456      0.323                +0.043
     -0.043
      -2.31       10.5    136.308      0.461                +0.045
     -0.045
      -2.31       10.5    141.669      0.480                +0.048
     -0.048
      -2.31       10.5    148.690      0.557                +0.048
     -0.048
      -2.31       10.5    153.138      0.511                +0.048
     -0.048
      -2.31       10.5    155.634      0.602                +0.040
     -0.035
      -2.31       10.5    161.703      0.599                +0.045
     -0.037
      -2.31       10.5    165.539      0.615                +0.053
     -0.053
      -2.31       10.5    170.739      0.567                +0.090
     -0.090
      -2.31      13.56     15.949      0.310

      -2.31      13.56     27.341      0.381

      -2.31      13.56     44.809      0.459

      -2.31      13.56     62.276      0.360

      -2.31      13.56     75.187      0.258

      -2.31      13.56     89.617      0.102

      -2.31      13.56    104.047      0.138

      -2.31      13.56    117.717      0.115

      -2.31      13.56    134.426      0.115

      -2.31      13.56    157.210      0.365

      -2.31      13.93     30.944      0.201

      -2.31      13.93     45.571      0.405

      -2.31      13.93     61.377      0.344

      -2.31      13.93     77.059      0.185

      -2.31      13.93     92.722      0.011

      -2.31      13.93    104.953      0.114

      -2.31      13.93    122.411      0.165

      -2.31      13.93    136.761      0.149

      -2.31      13.93    151.277      0.265

      -2.31      13.93    159.107      0.477

      -2.31      14.33     29.706      0.240

      -2.31      14.33     36.000      0.337

      -2.31      14.33     42.313      0.441

      -2.31      14.33     50.882      0.540

      -2.31      14.33     55.388      0.527

      -2.31      14.33     59.207      0.542

      -2.31      14.33     75.352      0.346

      -2.31      14.33     78.723      0.183

      -2.31      14.33     83.197      0.158

      -2.31      14.33     91.240      0.048

      -2.31      14.33     98.829      0.058

      -2.31      14.33    102.866      0.160

      -2.31      14.33    112.916      0.246

      -2.31      14.33    119.709      0.240

      -2.31      14.33    126.484      0.228

      -2.31      14.33    131.560      0.141

      -2.31      14.33    136.277      0.212

      -2.31      14.33    143.404      0.339

      -2.31      14.33    147.967      0.349

      -2.31      14.33    151.037      0.367

      -2.31      14.62     19.664      0.301

      -2.31      14.62     35.546      0.304

      -2.31      14.62     50.672      0.223

      -2.31      14.62     70.336      0.109

      -2.31      14.62     87.731      0.010

      -2.31      14.62    129.328      0.157

      -2.31      14.62    143.697      0.256

      -2.31      14.62    147.479      0.273

      -2.31      14.62    155.798      0.304

      -3.95       10.2     16.328      9.037                +0.519
     -0.518
      -3.95       10.2     29.409      8.280                +0.233
     -0.259
      -3.95       10.2     43.446      8.170                +0.207
     -0.181
      -3.95       10.2     47.389      6.665                +0.156
     -0.156
      -3.95       10.2     53.977      6.429                +0.130
     -0.156
      -3.95       10.2     57.361      5.468                +0.077
     -0.207
      -3.95       10.2     65.422      5.206                +0.130
     -0.130
      -3.95       10.2     74.240      4.995                +0.156
     -0.130
      -3.95       10.2     83.136      5.017                +0.182
     -0.156
      -3.95       10.2     94.289      5.142                +0.156
     -0.078
      -3.95       10.2    105.520      5.500                +0.130
     -0.130
      -3.95       10.2    114.563      5.963                +0.182
     -0.181
      -3.95       10.2    126.620      6.581                +0.207
     -0.155
      -3.95       10.2    135.447      6.396                +0.233
     -0.155
      -3.95       10.2    143.447      5.952                +0.156
     -0.156
      -3.95       10.2    151.465      5.560                +0.207
     -0.156
      -3.95       10.2    161.471      4.467                +0.181
     -0.311
      -3.95       10.5      9.919      7.588                +0.597
     -0.596
      -3.95       10.5     15.922      7.819                +0.207
     -0.130
      -3.95       10.5     18.936      7.973                +0.156
     -0.130
      -3.95       10.5     23.337      7.841                +0.207
     -0.156
      -3.95       10.5     26.205      7.555                +0.208
     -0.207
      -3.95       10.5     32.112      7.501                +0.259
     -0.259
      -3.95       10.5     40.069      6.927                +0.207
     -0.156
      -3.95       10.5     44.384      6.537                +0.207
     -0.207
      -3.95       10.5     48.638      5.964                +0.181
     -0.156
      -3.95       10.5     54.554      5.936                +0.156
     -0.156
      -3.95       10.5     59.635      5.623                +0.233
     -0.233
      -3.95       10.5     65.335      4.947                +0.104
     -0.130
      -3.95       10.5     70.459      4.763                +0.181
     -0.233
      -3.95       10.5     75.583      4.579                +0.130
     -0.130
      -3.95       10.5     80.053      4.655                +0.130
     -0.130
      -3.95       10.5     85.298      4.835                +0.103
     -0.207
      -3.95       10.5     89.673      4.625                +0.130
     -0.233
      -3.95       10.5     94.943      4.883                +0.181
     -0.207
      -3.95       10.5    100.903      4.984                +0.156
     -0.233
      -3.95       10.5    103.177      5.138                +0.130
     -0.156
      -3.95       10.5    106.906      5.215                +0.104
     -0.181
      -3.95       10.5    113.615      5.342                +0.207
     -0.207
      -3.95       10.5    120.246      5.235                +0.130
     -0.156
      -3.95       10.5    126.110      5.051                +0.130
     -0.129
      -3.95       10.5    131.459      5.542                +0.156
     -0.104
      -3.95       10.5    137.315      5.332                +0.233
     -0.208
      -3.95       10.5    140.820      4.734                +0.207
     -0.259
      -3.95       10.5    146.736      4.706                +0.156
     -0.130
      -3.95       10.5    152.713      4.859                +0.130
     -0.104
      -3.95       10.5    155.529      4.417                +0.181
     -0.207
      -3.95       10.5    160.050      4.649                +0.130
     -0.025
      -3.95       10.5    165.811      4.154                +0.130
     -0.156
      -3.95       10.5    169.480      4.048                +0.104
     -0.130
      -3.95       10.5    172.278      3.555                +0.104
     -0.130
      -3.95      11.90     22.161      2.086

      -3.95      11.90     32.031      2.808

      -3.95      11.90     43.382      3.530

      -3.95      11.90     63.465      3.781

      -3.95      11.90     78.613      2.556

      -3.95      11.90     92.512      2.032

      -3.95      11.90    105.400      2.080

      -3.95      11.90    121.045      3.187

      -3.95      11.90    133.921      4.037

      -3.95      11.90    148.096      4.342

      -3.95      11.90    161.212      3.689

      -3.95      12.55     33.440      1.149

      -3.95      12.55     45.930      2.284

      -3.95      12.55     65.996      2.483

      -3.95      12.55     76.360      1.853

      -3.95      12.55     79.700      1.529

      -3.95      12.55     93.920      1.135

      -3.95      12.55    106.400      0.846

      -3.95      12.55    123.100      1.145

      -3.95      12.55    135.500      1.498

      -3.95      12.55    149.500      1.322

      -3.95      12.55    161.200      0.650

      -3.95      13.56     24.545      3.724

      -3.95      13.56     38.676      3.129

      -3.95      13.56     61.028      1.974

      -3.95      13.56     73.634      1.371

      -3.95      13.56    102.990      1.487

      -3.95      13.56    119.004      1.940

      -3.95      13.56    132.392      2.302

      -3.95      13.56    155.449      3.543

      -3.95      13.93     26.516      2.028

      -3.95      13.93     29.457      3.964

      -3.95      13.93     40.854      2.859

      -3.95      13.93     41.622      2.166

      -3.95      13.93     58.465      1.888

      -3.95      13.93     61.474      1.545

      -3.95      13.93     64.331      1.547

      -3.95      13.93     72.441      1.258

      -3.95      13.93     77.830      1.797

      -3.95      13.93     89.386      0.600

      -3.95      13.93     90.974      0.998

      -3.95      13.93    105.955      1.430

      -3.95      13.93    107.208      0.737

      -3.95      13.93    118.702      1.844

      -3.95      13.93    122.891      1.271

      -3.95      13.93    135.194      2.360

      -3.95      13.93    137.747      1.447

      -3.95      13.93    144.798      2.097

      -3.95      13.93    156.956      1.236

      -3.95      13.93    158.056      1.571

      -3.95      14.33     19.299      2.917

      -3.95      14.33     26.639      2.524

      -3.95      14.33     37.660      1.973

      -3.95      14.33     49.430      1.447

      -3.95      14.33     58.284      1.158

      -3.95      14.33     70.080      0.737

      -3.95      14.33     79.685      0.473

      -3.95      14.33     87.814      0.262

      -3.95      14.33     97.515      0.389

      -3.95      14.33    108.005      0.699

      -3.95      14.33    118.502      1.035

      -3.95      14.33    124.536      1.372

      -3.95      14.33    136.481      1.551

      -3.95      14.33    146.971      1.861

      -3.95      14.33    158.160      1.988

      -3.95      14.62     18.383      2.597

      -3.95      14.62     28.085      2.916

      -3.95      14.62     39.074      2.376

      -3.95      14.62     58.822      1.269

      -3.95      14.62     76.453      0.620

      -3.95      14.62     90.477      0.401

      -3.95      14.62    103.834      0.504

      -3.95      14.62    119.486      0.929

      -3.95      14.62    132.898      1.274

      -3.95      14.62    148.434      1.189

      -3.95      14.62    158.767      1.025

      -4.91       10.2     19.850      1.407      0.090

      -4.91       10.2     31.340      1.101      0.084

      -4.91       10.2     43.740      0.782      0.040

      -4.91       10.2     47.940      0.526      0.040

      -4.91       10.2     52.820      0.423      0.032

      -4.91       10.2     58.320      0.297      0.060

      -4.91       10.2     65.340      0.217      0.066

      -4.91       10.2     75.460      0.180

      -4.91       10.2     86.430      0.187      0.037

      -4.91       10.2     97.610      0.212      0.032

      -4.91       10.2    107.100      0.337      0.046

      -4.91       10.2    116.500      0.369      0.062

      -4.91       10.2    126.100      0.418      0.073

      -4.91       10.2    135.500      0.446      0.027

      -4.91       10.2    149.600      0.440      0.029

      -4.91       10.2    156.000      0.433      0.034

      -4.91       10.5     10.140      1.251                +0.297
     -0.285
      -4.91       10.5     16.500      0.952                +0.106
     -0.106
      -4.91       10.5     18.930      1.135                +0.070
     -0.070
      -4.91       10.5     23.110      1.065                +0.059
     -0.077
      -4.91       10.5     26.250      1.121                +0.084
     -0.084
      -4.91       10.5     28.900      1.024                +0.111
     -0.127
      -4.91       10.5     35.070      0.923                +0.051
     -0.062
      -4.91       10.5     41.720      0.715                +0.040
     -0.059
      -4.91       10.5     43.910      0.546                +0.059
     -0.059
      -4.91       10.5     49.440      0.604                +0.067
     -0.057
      -4.91       10.5     56.420      0.319                +0.052
     -0.047
      -4.91       10.5     62.480      0.333                +0.046
     -0.057
      -4.91       10.5     67.510      0.335                +0.040
     -0.040
      -4.91       10.5     69.777      0.089                +0.026
     -0.026
      -4.91       10.5     75.840      0.137                +0.033
     -0.033
      -4.91       10.5     80.920      0.141                +0.037
     -0.037
      -4.91       10.5     86.840      0.267                +0.043
     -0.043
      -4.91       10.5     93.330      0.166                +0.039
     -0.039
      -4.91       10.5     97.140      0.189                +0.008
     -0.033
      -4.91       10.5    103.200      0.204                +0.036
     -0.036
      -4.91       10.5    107.400      0.194                +0.047
     -0.047
      -4.91       10.5    112.800      0.278                +0.055
     -0.055
      -4.91       10.5    119.700      0.331                +0.045
     -0.045
      -4.91       10.5    123.200      0.308                +0.062
     -0.051
      -4.91       10.5    128.000      0.348                +0.031
     -0.031
      -4.91       10.5    132.800      0.306                +0.034
     -0.034
      -4.91       10.5    136.500      0.507                +0.095
     -0.048
      -4.91       10.5    142.000      0.468                +0.043
     -0.043
      -4.91       10.5    148.800      0.471                +0.033
     -0.015
      -4.91       10.5    153.800      0.519                +0.033
     -0.040
      -4.91       10.5    157.924      0.471                +0.051
     -0.033
      -4.91       10.5    161.400      0.575                +0.043
     -0.043
      -4.91       10.5    167.100      0.626                +0.051
     -0.051
      -4.91       10.5    170.300      0.552                +0.066
     -0.066
      -4.91       10.5    176.300      0.608                +0.051
     -0.051
      -4.91      11.29     31.764      0.275

      -4.91      11.29     65.263      0.376

      -4.91      11.29     79.516      0.300

      -4.91      11.29     92.543      0.415

      -4.91      11.29    108.313      0.306

      -4.91      11.29    125.275      0.339

      -4.91      11.29    137.390      0.454

      -4.91      11.29    149.000      0.746

      -4.91      11.29    163.034      0.763

      -4.91      11.90     33.400      0.486

      -4.91      11.90     43.082      0.651

      -4.91      11.90     56.738      0.709

      -4.91      11.90     68.006      0.633

      -4.91      11.90     80.261      0.389

      -4.91      11.90     96.775      0.298

      -4.91      11.90    109.979      0.457

      -4.91      11.90    126.271      0.686

      -4.91      11.90    137.948      0.910

      -4.91      11.90    152.798      0.801

      -4.91      11.90    162.381      0.622

      -4.91      12.50     34.032      0.426

      -4.91      12.50     50.811      0.892

      -4.91      12.50     66.505      0.488

      -4.91      12.50     80.831      0.407

      -4.91      12.50     97.788      0.243

      -4.91      12.50    109.916      0.312

      -4.91      12.50    128.126      0.399

      -4.91      12.50    140.172      0.543

      -4.91      12.50    153.043      0.862

      -4.91      12.50    165.230      0.877

      -4.91      13.56     31.397      1.069

      -4.91      13.56     47.521      0.925

      -4.91      13.56     65.037      0.515

      -4.91      13.56     79.495      0.373

      -4.91      13.56     94.195      0.374

      -4.91      13.56    108.521      0.293

      -4.91      13.56    125.483      0.398

      -4.91      13.56    138.305      0.513

      -4.91      13.56    162.939      0.512

      -4.91      13.93     33.113      0.413

      -4.91      13.93     66.182      0.658

      -4.91      13.93     81.551      0.408

      -4.91      13.93     92.978      0.092

      -4.91      13.93    108.972      0.020

      -4.91      13.93    125.574      0.259

      -4.91      13.93    139.138      0.376

      -4.91      13.93    152.672      0.287

      -4.91      13.93    166.192      0.202

      -4.91      14.33     20.013      0.402

      -4.91      14.33     32.548      0.550

      -4.91      14.33     49.270      0.587

      -4.91      14.33     66.371      0.428

      -4.91      14.33     81.433      0.229

      -4.91      14.33     94.646      0.141

      -4.91      14.33    110.896      0.196

      -4.91      14.33    125.330      0.340

      -4.91      14.33    137.373      0.479

      -4.91      14.33    152.092      0.501

      -4.91      14.33    166.550      0.467

      -4.91      14.62     28.803      0.692

      -4.91      14.62     56.504      0.811

      -4.91      14.62     63.496      0.547

      -4.91      14.62     80.807      0.499

      -4.91      14.62     93.807      0.285

      -4.91      14.62    108.412      0.350

      -4.91      14.62    120.258      0.562

      -4.91      14.62    134.361      0.623

      -4.91      14.62    147.429      0.698

      -4.91      14.62    162.249      0.642

      -5.10       10.2     19.353      2.019      0.213

      -5.10       10.2     33.825      2.396      0.156

      -5.10       10.2     42.557      2.605      0.059

      -5.10       10.2     48.171      2.594      0.036

      -5.10       10.2     53.104      2.686      0.028

      -5.10       10.2     59.111      2.682      0.050

      -5.10       10.2     65.727      2.713      0.031

      -5.10       10.2     74.338      2.756      0.031

      -5.10       10.2     87.027      2.991      0.028

      -5.10       10.2     95.684      2.991      0.026

      -5.10       10.2    107.083      2.931      0.028

      -5.10       10.2    114.085      2.919      0.033

      -5.10       10.2    125.587      2.810      0.031

      -5.10       10.2    133.871      2.814      0.041

      -5.10       10.2    146.157      2.718      0.029

      -5.10       10.2    155.565      2.513      0.043

      -5.10       10.5     10.977      0.993                +0.317
     -0.317
      -5.10       10.5     14.237      0.821                +0.122
     -0.144
      -5.10       10.5     19.470      1.091                +0.086
     -0.104
      -5.10       10.5     23.301      1.268                +0.054
     -0.050
      -5.10       10.5     28.825      1.308                +0.036
     -0.043
      -5.10       10.5     30.154      1.459                +0.061
     -0.061
      -5.10       10.5     33.515      1.607                +0.040
     -0.054
      -5.10       10.5     36.953      1.693                +0.050
     -0.050
      -5.10       10.5     44.423      1.798                +0.029
     -0.029
      -5.10       10.5     48.427      1.838                +0.050
     -0.050
      -5.10       10.5     50.596      2.126                +0.112
     -0.094
      -5.10       10.5     55.080      2.187                +0.173
     -0.209
      -5.10       10.5     59.628      2.598                +0.047
     -0.144
      -5.10       10.5     64.819      2.501                +0.094
     -0.094
      -5.10       10.5     69.645      2.692                +0.101
     -0.101
      -5.10       10.5     73.312      2.998                +0.108
     -0.108
      -5.10       10.5     78.142      2.786                +0.108
     -0.090
      -5.10       10.5     83.667      2.826                +0.097
     -0.097
      -5.10       10.5     89.867      2.733                +0.119
     -0.101
      -5.10       10.5     93.835      2.802                +0.126
     -0.104
      -5.10       10.5    100.446      2.784                +0.130
     -0.108
      -5.10       10.5    103.313      2.522                +0.104
     -0.104
      -5.10       10.5    107.778      2.597                +0.133
     -0.112
      -5.10       10.5    113.494      2.087                +0.101
     -0.101
      -5.10       10.5    119.302      2.303                +0.104
     -0.086
      -5.10       10.5    125.247      2.411                +0.122
     -0.079
      -5.10       10.5    128.780      2.023                +0.115
     -0.115
      -5.10       10.5    133.492      2.304                +0.119
     -0.115
      -5.10       10.5    139.263      2.150                +0.140
     -0.126
      -5.10       10.5    146.176      2.294                +0.151
     -0.151
      -5.10       10.5    150.609      2.395                +0.104
     -0.086
      -5.10       10.5    155.773      2.320                +0.112
     -0.112
      -5.10       10.5    161.002      2.993                +0.158
     -0.191
      -5.10       10.5    165.362      2.752                +0.119
     -0.119
      -5.10       10.5    171.636      3.001                +0.086
     -0.086
      -5.10       10.5    174.046      2.699                +0.094
     -0.094
      -5.10      11.90     22.477      0.317

      -5.10      11.90     32.216      0.631

      -5.10      11.90     47.527      1.348

      -5.10      11.90     77.122      1.591

      -5.10      11.90     92.696      1.700

      -5.10      11.90    107.567      1.565

      -5.10      11.90    123.497      1.792

      -5.10      11.90    136.820      1.678

      -5.10      11.90    152.740      1.513

      -5.10      11.90    165.907      1.122

      -5.10      12.50     33.637      0.710

      -5.10      12.50     46.622      1.262

      -5.10      12.50     75.821      1.419

      -5.10      12.50     91.677      1.304

      -5.10      12.50    107.420      1.280

      -5.10      12.50    124.217      1.224

      -5.10      12.50    137.846      1.268

      -5.10      12.50    152.256      1.096

      -5.10      12.50    163.140      0.906

      -5.10      12.50    163.547      0.985

      -5.10      13.29     35.029      0.412

      -5.10      13.29     64.738      0.565

      -5.10      13.29     74.792      0.630

      -5.10      13.29     91.918      0.714

      -5.10      13.29    106.862      0.521

      -5.10      13.29    122.304      0.734

      -5.10      13.29    136.640      0.620

      -5.10      13.29    149.114      0.775

      -5.10      13.29    161.884      0.697

      -5.10      13.56     22.112      0.605

      -5.10      13.56     47.781      0.747

      -5.10      13.56     65.451      0.802

      -5.10      13.56     77.053      0.846

      -5.10      13.56     90.754      0.833

      -5.10      13.56    105.392      0.881

      -5.10      13.56    124.162      0.867

      -5.10      13.56    136.248      0.929

      -5.10      13.93     28.620      0.657

      -5.10      13.93     47.214      0.831

      -5.10      13.93     64.702      0.637

      -5.10      13.93     76.211      0.843

      -5.10      13.93     89.417      0.338

      -5.10      13.93    121.010      0.966

      -5.10      13.93    137.210      1.008

      -5.10      13.93    151.938      1.012

      -5.10      13.93    163.349      0.899

      -5.10      14.33     28.641      0.871

      -5.10      14.33     34.870      0.789

      -5.10      14.33     38.977      0.761

      -5.10      14.33     45.695      0.690

      -5.10      14.33     51.100      0.787

      -5.10      14.33     56.734      0.755

      -5.10      14.33     64.693      0.842

      -5.10      14.33     81.892      0.865

      -5.10      14.33     86.619      0.772

      -5.10      14.33     90.758      0.726

      -5.10      14.33     97.083      0.591

      -5.10      14.33    104.560      0.663

      -5.10      14.33    112.284      0.882

      -5.10      14.33    116.391      0.854

      -5.10      14.33    121.904      0.890

      -5.10      14.33    126.257      1.009

      -5.10      14.33    131.086      1.145

      -5.10      14.33    145.845      1.114

      -5.10      14.33    151.004      1.065

      -5.10      14.33    158.386      1.191

      -5.10      14.33    161.884      1.219

      -5.10      14.33    167.378      1.267

      -5.10      14.33    171.864      1.310

      -5.10      14.62     27.955      1.258

      -5.10      14.62     46.771      0.941

      -5.10      14.62     62.322      1.035

      -5.10      14.62     77.822      1.158

      -5.10      14.62     93.729      1.052

      -5.10      14.62    108.146      0.928

      -5.10      14.62    118.944      1.130

      -5.10      14.62    136.035      1.214

      -5.10      14.62    163.577      0.837

      -5.69       10.2     21.878      1.810                +0.193
     -0.213
      -5.69       10.2     33.202      1.622                +0.116
     -0.105
      -5.69       10.2     53.443      1.199                +0.057
     -0.057
      -5.69       10.2     71.261      1.002                +0.026
     -0.026
      -5.69       10.2     74.949      0.975                +0.072
     -0.061
      -5.69       10.2     78.172      0.998                +0.027
     -0.027
      -5.69       10.2     92.390      1.060                +0.027
     -0.027
      -5.69       10.2    105.432      1.092                +0.041
     -0.041
      -5.69       10.2    115.386      1.393

      -5.69       10.2    126.168      1.559                +0.062
     -0.064
      -5.69       10.2    133.853      1.689                +0.046
     -0.049
      -5.69       10.2    145.149      1.788                +0.087
     -0.087
      -5.69       10.2    156.969      1.773                +0.090
     -0.104
      -5.69       10.5      8.869      1.107                +0.293
     -0.278
      -5.69       10.5     13.240      1.068                +0.221
     -0.175
      -5.69       10.5     16.110      1.225                +0.061
     -0.061
      -5.69       10.5     19.770      1.227                +0.111
     -0.098
      -5.69       10.5     22.760      1.355                +0.101
     -0.097
      -5.69       10.5     27.451      1.452                +0.137
     -0.126
      -5.69       10.5     38.740      1.372                +0.057
     -0.057
      -5.69       10.5     44.860      1.344                +0.066
     -0.066
      -5.69       10.5     49.560      1.393                +0.094
     -0.094
      -5.69       10.5     54.950      1.349                +0.093
     -0.093
      -5.69       10.5     58.834      1.141                +0.190
     -0.163
      -5.69       10.5     59.040      1.053                +0.016
     -0.016
      -5.69       10.5     64.420      1.022                +0.017
     -0.017
      -5.69       10.5     64.600      1.183                +0.084
     -0.084
      -5.69       10.5     82.797      0.839                +0.091
     -0.103
      -5.69       10.5     85.320      0.965                +0.080
     -0.080
      -5.69       10.5     88.250      0.991                +0.079
     -0.096
      -5.69       10.5     94.870      1.006                +0.104
     -0.104
      -5.69       10.5     97.790      0.754                +0.085
     -0.085
      -5.69       10.5    105.200      1.040                +0.060
     -0.089
      -5.69       10.5    109.757      1.107                +0.095
     -0.080
      -5.69       10.5    113.660      1.228                +0.091
     -0.091
      -5.69       10.5    121.000      1.377                +0.106
     -0.081
      -5.69       10.5    125.000      1.524                +0.092
     -0.091
      -5.69       10.5    130.300      1.527                +0.112
     -0.112
      -5.69       10.5    134.400      1.740                +0.100
     -0.083
      -5.69       10.5    140.100      1.449                +0.095
     -0.095
      -5.69       10.5    145.000      1.401                +0.103
     -0.103
      -5.69       10.5    150.300      1.482                +0.080
     -0.080
      -5.69       10.5    157.200      1.432                +0.139
     -0.139
      -5.69       10.5    161.700      1.524                +0.068
     -0.068
      -5.69       10.5    166.200      1.489                +0.102
     -0.102
      -5.69       10.5    169.700      1.361                +0.222
     -0.222
      -5.69       10.5    175.500      1.186                +0.113
     -0.134
      -5.69      11.90     27.090      0.273

      -5.69      11.90     36.490      0.661

      -5.69      11.90     52.880      0.514

      -5.69      11.90     59.920      0.797

      -5.69      11.90     70.220      0.660

      -5.69      11.90    100.100      0.403

      -5.69      11.90    115.300      0.585

      -5.69      11.90    126.800      0.867

      -5.69      11.90    157.000      1.135

      -5.69      11.90    168.300      0.857

      -5.69      12.50     52.800      0.666

      -5.69      12.50     70.940      0.379

      -5.69      12.50    100.000      0.297

      -5.69      12.50    116.700      0.436

      -5.69      12.50    128.500      0.523

      -5.69      12.50    142.800      1.169

      -5.69      12.50    143.515      1.306

      -5.69      12.50    153.800      1.084

      -5.69      12.50    165.100      0.840

      -5.69      13.54     39.604      1.721

      -5.69      13.54     52.010      1.198

      -5.69      13.54     70.352      0.728

      -5.69      13.54    100.385      0.247

      -5.69      13.54    114.514      0.472

      -5.69      13.54    129.670      0.626

      -5.69      13.54    142.795      0.862

      -5.69      13.54    165.447      0.747

      -5.69      14.33     28.349      1.200

      -5.69      14.33     60.551      0.898

      -5.69      14.33     69.535      0.687

      -5.69      14.33     87.489      0.746

      -5.69      14.33     89.925      0.928

      -5.69      14.33     93.325      0.138

      -5.69      14.33    100.002      0.128

      -5.69      14.33    103.538      0.176

      -5.69      14.33    112.747      0.143

      -5.69      14.33    117.689      0.179

      -5.69      14.33    124.502      0.306

      -5.69      14.33    129.566      0.373

      -5.69      14.33    134.068      0.496

      -5.69      14.33    137.906      0.532

      -5.69      14.33    145.897      0.622

      -5.69      14.33    152.723      0.624

      -5.69      14.33    155.055      0.802

      -5.69      14.33    164.127      0.859

      -5.69      14.33    167.474      1.053

      -5.69      14.33    172.163      1.014

      -5.69      14.62     52.538      0.908

      -5.69      14.62     69.336      0.709

      -5.69      14.62     83.689      0.536

      -5.69      14.62    101.221      0.310

      -5.69      14.62    116.464      0.033

      -5.69      14.62    132.245      0.433

      -5.69      14.62    146.044      0.610

      -5.69      14.62    158.550      0.700

      -5.69      14.62    171.172      0.619

      -5.83       10.2     22.120      2.624      0.247

      -5.83       10.2     32.260      2.459      0.165

      -5.83       10.2     54.470      2.025      0.062

      -5.83       10.2     61.120      2.032      0.048

      -5.83       10.2     68.160      2.031      0.048

      -5.83       10.2     76.780      2.065

      -5.83       10.2     85.780      2.078

      -5.83       10.2    106.500      1.802

      -5.83       10.2    116.200      1.822      0.069

      -5.83       10.2    126.800      1.753

      -5.83       10.2    136.500      1.608      0.069

      -5.83       10.2    147.100      1.367

      -5.83       10.2    156.800      1.147

      -5.83       10.5     10.420      1.061                +0.322
     -0.300
      -5.83       10.5     14.300      0.917                +0.067
     -0.088
      -5.83       10.5     16.700      1.157                +0.070
     -0.070
      -5.83       10.5     21.800      1.204                +0.102
     -0.102
      -5.83       10.5     25.830      1.345                +0.103
     -0.103
      -5.83       10.5     28.130      1.526                +0.123
     -0.124
      -5.83       10.5     34.020      1.615                +0.096
     -0.126
      -5.83       10.5     39.500      1.601                +0.053
     -0.066
      -5.83       10.5     44.190      1.587                +0.144
     -0.144
      -5.83       10.5     49.670      1.580                +0.185
     -0.185
      -5.83       10.5     54.000      1.703                +0.071
     -0.071
      -5.83       10.5     58.290      1.641                +0.290
     -0.407
      -5.83       10.5     64.550      1.620                +0.103
     -0.103
      -5.83       10.5     69.700      1.914                +0.110
     -0.110
      -5.83       10.5     73.980      1.784                +0.096
     -0.096
      -5.83       10.5     78.660      1.742                +0.103
     -0.103
      -5.83       10.5     83.790      1.907                +0.137
     -0.137
      -5.83       10.5     88.410      1.598                +0.088
     -0.108
      -5.83       10.5     93.900      1.625                +0.130
     -0.130
      -5.83       10.5     98.170      1.515                +0.108
     -0.108
      -5.83       10.5    104.400      1.418                +0.123
     -0.100
      -5.83       10.5    109.100      1.363                +0.103
     -0.103
      -5.83       10.5    115.000      1.417                +0.117
     -0.117
      -5.83       10.5    120.400      1.218                +0.084
     -0.102
      -5.83       10.5    126.300      1.211                +0.096
     -0.096
      -5.83       10.5    131.800      1.183                +0.130
     -0.130
      -5.83       10.5    135.300      1.258                +0.137
     -0.137
      -5.83       10.5    138.000      1.155                +0.151
     -0.206
      -5.83       10.5    143.400      0.928                +0.274
     -0.233
      -5.83       10.5    147.000      1.127                +0.089
     -0.089
      -5.83       10.5    151.300      1.024                +0.165
     -0.165
      -5.83       10.5    156.700      0.975                +0.086
     -0.136
      -5.83       10.5    163.000      0.989                +0.093
     -0.057
      -5.83       10.5    166.500      0.755                +0.158
     -0.158
      -5.83       10.5    171.900      0.604                +0.151
     -0.151
      -5.83      11.90     26.283      0.259

      -5.83      11.90     36.953      0.764

      -5.83      11.90     49.543      1.068

      -5.83      11.90     66.859      1.552

      -5.83      11.90     82.154      1.696

      -5.83      11.90     97.097      2.049

      -5.83      11.90    113.166      2.152

      -5.83      11.90    129.557      1.922

      -5.83      11.90    142.931      2.288

      -5.83      11.90    155.300      1.768

      -5.83      11.90    166.261      1.587

      -5.83      12.50     48.362      1.540

      -5.83      12.50     65.846      2.703

      -5.83      12.50     81.563      3.131

      -5.83      12.50     95.559      3.054

      -5.83      12.50    110.541      2.528

      -5.83      12.50    128.662      1.544

      -5.83      12.50    142.190      1.810

      -5.83      12.50    155.081      1.600

      -5.83      12.50    164.900      1.393

      -5.83      13.56     35.707      1.144

      -5.83      13.56     48.612      0.974

      -5.83      13.56     66.931      0.945

      -5.83      13.56     82.027      0.982

      -5.83      13.56     94.412      0.925

      -5.83      13.56    111.132      0.999

      -5.83      13.56    126.742      0.895

      -5.83      13.56    141.882      1.185

      -5.83      13.56    164.018      1.419

      -5.83      14.33     21.671      1.004

      -5.83      14.33     30.286      0.956

      -5.83      14.33     94.930      0.803

      -5.83      14.33    102.483      0.849

      -5.83      14.33    110.578      0.915

      -5.83      14.33    118.170      1.187

      -5.83      14.33    127.891      1.308

      -5.83      14.33    139.220      1.373

      -5.83      14.33    154.324      1.457

      -5.83      14.33    162.966      1.569

      -5.83      14.62     29.058      1.100

      -5.83      14.62     45.615      0.990

      -5.83      14.62     65.317      0.891

      -5.83      14.62     94.208      0.994

      -5.83      14.62    107.844      0.807

      -5.83      14.62    122.295      1.062

      -5.83      14.62    134.812      1.345

      -5.83      14.62    148.448      1.344

      -5.83      14.62    161.677      1.143

      -6.22       10.2     23.682      0.593                +0.076
     -0.076
      -6.22       10.2     34.063      0.666

      -6.22       10.2     45.497      0.689                +0.082
     -0.082
      -6.22       10.2     55.881      0.692                +0.049
     -0.049
      -6.22       10.2     77.692      0.551                +0.024
     -0.024
      -6.22       10.2     89.117      0.513                +0.018
     -0.018
      -6.22       10.2     97.427      0.495                +0.015
     -0.015
      -6.22       10.2    107.340      0.509                +0.024
     -0.024
      -6.22       10.2    116.687      0.550                +0.052
     -0.052
      -6.22       10.2    126.482      0.639                +0.040
     -0.040
      -6.22       10.2    134.818      0.764                +0.058
     -0.049
      -6.22       10.2    147.801      0.842                +0.020
     -0.051
      -6.22       10.2    158.175      0.802                +0.018
     -0.018
      -6.22       10.5     12.774      0.730                +0.071
     -0.066
      -6.22       10.5     15.890      0.570                +0.057
     -0.057
      -6.22       10.5     24.719      0.560                +0.075
     -0.064
      -6.22       10.5     28.873      0.590                +0.066
     -0.062
      -6.22       10.5     30.951      0.637                +0.057
     -0.058
      -6.22       10.5     34.586      0.633                +0.057
     -0.049
      -6.22       10.5     35.105      0.721                +0.066
     -0.044
      -6.22       10.5     40.299      0.529                +0.047
     -0.040
      -6.22       10.5     46.011      0.568                +0.033
     -0.035
      -6.22       10.5     54.321      0.590                +0.049
     -0.040
      -6.22       10.5     59.514      0.688                +0.068
     -0.053
      -6.22       10.5     70.420      0.542                +0.047
     -0.046
      -6.22       10.5     75.614      0.537                +0.051
     -0.046
      -6.22       10.5     80.807      0.542                +0.049
     -0.049
      -6.22       10.5     96.387      0.537                +0.058
     -0.042
      -6.22       10.5    113.006      0.584                +0.055
     -0.057
      -6.22       10.5    119.238      0.506                +0.068
     -0.053
      -6.22       10.5    124.431      0.686                +0.060
     -0.057
      -6.22       10.5    130.144      0.732                +0.064
     -0.055
      -6.22       10.5    135.856      0.672                +0.062
     -0.055
      -6.22       10.5    138.453      0.856                +0.106
     -0.084
      -6.22       10.5    144.685      0.834                +0.066
     -0.046
      -6.22       10.5    148.321      0.858                +0.071
     -0.068
      -6.22       10.5    154.033      0.770                +0.031
     -0.051
      -6.22       10.5    156.630      0.937                +0.049
     -0.053
      -6.22       10.5    161.304      0.968                +0.046
     -0.037
      -6.22       10.5    166.497      0.988                +0.053
     -0.044
      -6.22      11.90     35.625      0.319

      -6.22      11.90     50.166      0.336

      -6.22      11.90     83.404      0.248

      -6.22      11.90    111.967      0.203

      -6.22      11.90    126.508      0.261

      -6.22      11.90    142.089      0.277

      -6.22      11.90    154.553      0.245

      -6.22      11.90    163.901      0.226

      -6.22      12.50     53.584      0.504

      -6.22      12.50     70.749      0.650

      -6.22      12.50     85.835      0.341

      -6.22      12.50     99.934      0.374

      -6.22      12.50    117.034      0.217

      -6.22      12.50    128.452      0.274

      -6.22      12.50    145.665      0.289

      -6.22      12.50    159.191      0.261

      -6.22      12.50    170.590      0.244

      -6.22      13.93     37.977      0.313

      -6.22      13.93     53.064      0.444

      -6.22      13.93     67.110      0.256

      -6.22      13.93     84.277      0.298

      -6.22      13.93    100.405      0.256

      -6.22      13.93    113.410      0.413

      -6.22      13.93    125.376      0.385

      -6.22      13.93    144.104      0.530

      -6.22      13.93    158.150      0.506

      -6.22      13.93    170.116      0.635

      -6.22      14.33     23.410      0.193

      -6.22      14.33     46.301      0.304

      -6.22      14.33     54.624      0.322

      -6.22      14.33     61.908      0.317

      -6.22      14.33     74.913      0.257

      -6.22      14.33     81.156      0.130

      -6.22      14.33     86.879      0.154

      -6.22      14.33    109.249      0.139

      -6.22      14.33    113.931      0.269

      -6.22      14.33    124.335      0.367

      -6.22      14.33    129.017      0.350

      -6.22      14.33    134.220      0.381

      -6.22      14.33    145.665      0.472

      -6.22      14.33    150.347      0.433

      -6.22      14.33    160.751      0.559

      -6.22      14.33    164.913      0.661

      -6.22      14.33    169.075      0.811

      -6.22      14.62     35.522      0.349

      -6.22      14.62     48.389      0.268

      -6.22      14.62     85.651      0.195

      -6.22      14.62    118.420      0.307

      -6.22      14.62    130.482      0.362

      -6.22      14.62    149.781      0.471

      -6.22      14.62    159.230      0.557

      -6.44       10.2     21.453      0.747                +0.053
     -0.062
      -6.44       10.2     34.012      0.692                +0.078
     -0.080
      -6.44       10.2     43.953      0.948                +0.051
     -0.049
      -6.44       10.2     53.372      0.948                +0.051
     -0.048
      -6.44       10.2     74.826      0.989                +0.023
     -0.022
      -6.44       10.2     85.291      0.991                +0.022
     -0.022
      -6.44       10.2     93.663      1.058                +0.029
     -0.025
      -6.44       10.2    106.221      1.063                +0.031
     -0.033
      -6.44       10.2    115.116      1.084                +0.033
     -0.023
      -6.44       10.2    125.581      1.063                +0.018
     -0.022
      -6.44       10.2    136.047      1.010                +0.031
     -0.022
      -6.44       10.2    145.988      0.911                +0.027
     -0.027
      -6.44       10.2    157.500      0.518                +0.022
     -0.027
      -6.44       10.5     12.035      0.374                +0.068
     -0.055
      -6.44       10.5     17.791      0.407                +0.057
     -0.049
      -6.44       10.5     19.360      0.502                +0.038
     -0.037
      -6.44       10.5     25.640      0.299                +0.071
     -0.075
      -6.44       10.5     29.302      0.414                +0.046
     -0.031
      -6.44       10.5     34.012      0.380                +0.046
     -0.031
      -6.44       10.5     40.814      0.497                +0.033
     -0.031
      -6.44       10.5     47.093      0.504                +0.075
     -0.091
      -6.44       10.5     52.326      0.617                +0.068
     -0.062
      -6.44       10.5     57.558      0.635                +0.047
     -0.046
      -6.44       10.5     62.267      0.683                +0.150
     -0.150
      -6.44       10.5     66.977      0.624                +0.071
     -0.071
      -6.44       10.5     71.686      0.832                +0.060
     -0.058
      -6.44       10.5     76.919      0.792                +0.062
     -0.055
      -6.44       10.5     80.581      0.978                +0.080
     -0.084
      -6.44       10.5     86.337      0.964                +0.058
     -0.068
      -6.44       10.5     90.523      1.119                +0.084
     -0.086
      -6.44       10.5     95.756      1.095                +0.086
     -0.078
      -6.44       10.5    100.988      1.061                +0.082
     -0.089
      -6.44       10.5    109.360      1.283                +0.082
     -0.089
      -6.44       10.5    112.500      1.095                +0.073
     -0.075
      -6.44       10.5    117.209      1.101                +0.078
     -0.073
      -6.44       10.5    125.581      1.088                +0.100
     -0.104
      -6.44       10.5    128.721      0.993                +0.100
     -0.071
      -6.44       10.5    131.860      1.020                +0.047
     -0.049
      -6.44       10.5    137.616      0.710                +0.091
     -0.082
      -6.44       10.5    146.512      0.801                +0.060
     -0.049
      -6.44       10.5    149.651      0.619                +0.077
     -0.069
      -6.44       10.5    152.267      0.509                +0.062
     -0.042
      -6.44       10.5    157.500      0.591                +0.057
     -0.046
      -6.44       10.5    162.733      0.471                +0.095
     -0.099
      -6.44       10.5    167.965      0.382                +0.046
     -0.049
      -6.44       10.5    170.058      0.294                +0.035
     -0.035
      -6.44      11.90     50.319      0.679

      -6.44      11.90     84.881      0.832

      -6.44      11.90     99.428      0.757

      -6.44      11.90    112.929      0.681

      -6.44      11.90    128.400      0.711

      -6.44      11.90    143.696      0.662

      -6.44      11.90    158.600      0.601

      -6.44      11.90    170.804      0.634

      -6.44      12.50     52.696      0.441

      -6.44      12.50     65.217      0.467

      -6.44      12.50     82.957      0.496

      -6.44      12.50     99.652      0.439

      -6.44      12.50    126.261      0.391

      -6.44      12.50    141.391      0.515

      -6.44      12.50    154.957      0.467

      -6.44      12.50    165.391      0.470

      -6.44      14.33     22.894      0.324

      -6.44      14.33     28.543      0.214

      -6.44      14.33     57.336      0.333

      -6.44      14.33     63.068      0.323

      -6.44      14.33     68.270      0.305

      -6.44      14.33     79.710      0.259

      -6.44      14.33     97.920      0.197

      -6.44      14.33    107.833      0.197

      -6.44      14.33    113.590      0.219

      -6.44      14.33    120.507      0.381

      -6.44      14.33    126.254      0.390

      -6.44      14.33    129.995      0.498

      -6.44      14.33    134.736      0.553

      -6.44      14.33    143.675      0.636

      -6.44      14.33    151.900      0.708

      -6.44      14.33    154.675      0.689

      -6.44      14.33    161.983      0.693

      -6.44      14.33    167.707      0.675

      -6.44      14.62     31.070      0.315

      -6.44      14.62     56.183      0.199

      -6.44      14.62     69.707      0.150

      -6.44      14.62     82.737      0.133

      -6.44      14.62    115.137      0.197

      -6.44      14.62    129.771      0.228

      -6.44      14.62    143.858      0.228

      -6.44      14.62    156.865      0.184

      -6.44      14.62    167.400      0.165

      -7.03       10.2     22.987      3.031                +0.314
     -0.378
      -7.03       10.2     34.696      3.065                +0.108
     -0.108
      -7.03       10.2     45.700      2.579                +0.054
     -0.054
      -7.03       10.2     51.974      3.028                +0.081
     -0.081
      -7.03       10.2     57.441      2.686                +0.099
     -0.099
      -7.03       10.2     62.364      2.262                +0.072
     -0.072
      -7.03       10.2     69.396      2.037

      -7.03       10.2     78.035      2.036

      -7.03       10.2     86.682      2.026

      -7.03       10.2    100.233      1.566

      -7.03       10.2    110.487      1.645                +0.054
     -0.054
      -7.03       10.2    119.564      1.572                +0.063
     -0.063
      -7.03       10.2    136.857      1.552

      -7.03       10.2    148.018      1.497                +0.144
     -0.090
      -7.03       10.2    155.672      1.604                +0.252
     -0.252
      -7.03       10.5     15.312      2.915                +0.261
     -0.261
      -7.03       10.5     20.401      2.924                +0.108
     -0.126
      -7.03       10.5     25.995      2.923                +0.099
     -0.099
      -7.03       10.5     29.126      3.129                +0.153
     -0.108
      -7.03       10.5     32.033      2.751                +0.198
     -0.225
      -7.03       10.5     36.187      2.976                +0.125
     -0.180
      -7.03       10.5     41.699      2.759                +0.081
     -0.081
      -7.03       10.5     46.173      2.489                +0.045
     -0.117
      -7.03       10.5     52.296      2.542                +0.153
     -0.153
      -7.03       10.5     59.440      2.604                +0.107
     -0.099
      -7.03       10.5     65.316      2.010                +0.270
     -0.297
      -7.03       10.5     70.078      2.495                +0.153
     -0.135
      -7.03       10.5     76.975      1.910                +0.108
     -0.108
      -7.03       10.5     82.153      2.152                +0.108
     -0.072
      -7.03       10.5     86.105      1.846                +0.099
     -0.099
      -7.03       10.5     92.757      1.953                +0.108
     -0.108
      -7.03       10.5     94.695      1.701                +0.126
     -0.126
      -7.03       10.5     99.843      1.862                +0.135
     -0.135
      -7.03       10.5    104.825      1.592                +0.144
     -0.144
      -7.03       10.5    107.728      1.205                +0.171
     -0.171
      -7.03       10.5    113.804      1.132                +0.162
     -0.162
      -7.03       10.5    117.889      1.177                +0.162
     -0.162
      -7.03       10.5    123.930      1.014                +0.162
     -0.135
      -7.03       10.5    127.071      1.248                +0.198
     -0.144
      -7.03       10.5    133.689      1.265                +0.090
     -0.126
      -7.03       10.5    140.318      1.309                +0.090
     -0.090
      -7.03       10.5    144.424      1.407                +0.216
     -0.216
      -7.03       10.5    148.633      1.775                +0.099
     -0.099
      -7.03       10.5    153.183      1.703                +0.117
     -0.090
      -7.03       10.5    158.774      1.693                +0.099
     -0.099
      -7.03       10.5    164.024      2.124                +0.198
     -0.198
      -7.03       10.5    168.501      1.863                +0.099
     -0.117
      -7.03       10.5    172.539      1.782                +0.144
     -0.180
      -7.03      11.90     25.724      0.370

      -7.03      11.90     36.330      1.247

      -7.03      11.90     51.434      1.945

      -7.03      11.90     69.561      2.587

      -7.03      11.90     86.767      2.434

      -7.03      11.90    114.286      1.522

      -7.03      11.90    129.202      1.932

      -7.03      11.90    143.355      1.639

      -7.03      11.90    154.765      1.263

      -7.03      11.90    166.198      0.738

      -7.03      12.50     35.959      1.508

      -7.03      12.50     51.035      2.160

      -7.03      12.50     70.497      2.437

      -7.03      12.50     85.630      2.201

      -7.03      12.50    101.015      2.460

      -7.03      12.50    115.345      2.644

      -7.03      12.50    131.624      2.660

      -7.03      12.50    144.614      2.209

      -7.03      12.50    157.985      1.506

      -7.03      12.50    167.967      1.140

      -7.03      14.33     18.238      2.757

      -7.03      14.33     22.803      2.606

      -7.03      14.33     27.362      2.419

      -7.03      14.33     35.470      2.090

      -7.03      14.33     39.013      1.913

      -7.03      14.33     45.618      1.752

      -7.03      14.33     50.164      1.495

      -7.03      14.33     56.292      1.574

      -7.03      14.33     80.152      0.916

      -7.03      14.33     89.818      0.774

      -7.03      14.33     99.021      0.942

      -7.03      14.33    112.380      1.323

      -7.03      14.33    132.324      1.739

      -7.03      14.33    140.965      1.703

      -7.03      14.33    144.497      1.534

      -7.03      14.33    150.110      1.641

      -7.03      14.33    154.149      1.436

      -7.03      14.33    159.776      1.410

      -7.03      14.33    167.412      1.374

      -7.97      13.29     34.359      2.385                +0.146
     -0.146
      -7.97      13.29     53.042      1.849                +0.087
     -0.148
      -7.97      13.29     67.697      2.023                +0.091
     -0.136
      -7.97      13.29     81.089      1.569                +0.146
     -0.146
      -7.97      13.29     97.435      1.980                +0.123
     -0.123
      -7.97      13.29    112.133      1.837                +0.113
     -0.149
      -7.97      13.29    128.311      1.554                +0.096
     -0.122
      -7.97      13.29    140.135      1.105                +0.118
     -0.127
      -7.97      13.56     37.629      1.075                +0.069
     -0.069
      -7.97      13.56     54.832      0.869                +0.069
     -0.069
      -7.97      13.56     71.088      1.218                +0.092
     -0.092
      -7.97      13.56     83.877      1.256                +0.099
     -0.124
      -7.97      13.56    111.084      0.766                +0.110
     -0.139
      -7.97      13.56    129.294      1.120                +0.136
     -0.167
      -7.97      13.56    142.098      1.239                +0.140
     -0.154
      -7.97      13.56    154.470      1.115                +0.137
     -0.158
      -7.97      13.56    167.099      1.996                +0.109
     -0.132
      -7.97      13.93     39.074      2.029                +0.093
     -0.093
      -7.97      13.93     56.692      1.858                +0.093
     -0.093
      -7.97      13.93     72.431      0.733                +0.087
     -0.087
      -7.97      13.93     84.253      1.853                +0.110
     -0.110
      -7.97      13.93     96.889      1.023                +0.098
     -0.098
      -7.97      13.93    112.173      2.479                +0.185
     -0.185
      -7.97      13.93    129.600      2.007                +0.118
     -0.141
      -7.97      13.93    141.481      1.623                +0.139
     -0.139
      -7.97      13.93    155.500      3.101

      -7.97      13.93    166.547      2.249                +0.127
     -0.127
      -7.97      14.33     26.782      0.472      0.063

      -7.97      14.33     33.121      0.379      0.059

      -7.97      14.33     38.322      0.378      0.054

      -7.97      14.33     52.015      0.338      0.046

      -7.97      14.33     58.111      0.228      0.054

      -7.97      14.33     62.629      0.278      0.050

      -7.97      14.33     67.853      0.323      0.054

      -7.97      14.33     75.380      0.247      0.054

      -7.97      14.33     79.734      0.460      0.054

      -7.97      14.33     99.301      0.842      0.063

      -7.97      14.33    107.322      0.715      0.054

      -7.97      14.33    112.635      0.509      0.059

      -7.97      14.33    117.496      0.827      0.063

      -7.97      14.33    123.164      0.826      0.059

      -7.97      14.33    127.096      1.019      0.059

      -7.97      14.33    131.738      0.905      0.054

      -7.97      14.33    137.612      0.929      0.054

      -7.97      14.33    143.108      1.385      0.059

      -7.97      14.33    147.956      1.296      0.059

      -7.97      14.33    166.343      1.616      0.059

      -7.97      14.62     25.684      1.069      0.135

      -7.97      14.62     39.028      2.469      0.144

      -7.97      14.62     52.482      1.972      0.117

      -7.97      14.62     70.885      1.224      0.081

      -7.97      14.62     85.158      1.383      0.117

      -7.97      14.62    100.858      1.345      0.108

      -7.97      14.62    114.728      1.720      0.117

      -7.97      14.62    129.332      1.512      0.081

      -7.97      14.62    143.296      2.085      0.081

      -7.97      14.62    167.279      2.405      0.081

      -8.47      13.29     24.096      1.890      0.136

      -8.47      13.29     36.317      1.434      0.144

      -8.47      13.29     82.793      1.742      0.176

      -8.47      13.29     96.250      1.656      0.129

      -8.47      13.29    111.522      1.505      0.152

      -8.47      13.29    127.566      1.731      0.168

      -8.47      13.29    141.109      1.364      0.184

      -8.47      13.29    165.108      0.580      0.160

      -8.47      13.56     36.594      1.072      0.114

      -8.47      13.56     82.098      1.288      0.147

      -8.47      13.56     97.614      1.819      0.188

      -8.47      13.56    112.497      1.029      0.155

      -8.47      13.56    125.330      1.797      0.212

      -8.47      13.56    143.461      0.688      0.204

      -8.47      13.56    154.082      0.885      0.163

      -8.47      13.56    165.213      1.049      0.106

      -8.47      13.93     36.520      0.767      0.106

      -8.47      13.93     68.295      1.115      0.098

      -8.47      13.93     80.638      1.843      0.139

      -8.47      13.93    125.631      2.369      0.212

      -8.47      13.93    140.021      1.929      0.171

      -8.47      13.93    152.561      1.775      0.131

      -8.47      13.93    164.560      2.045      0.131

      -8.47      14.33     23.208      0.652      0.064

      -8.47      14.33     27.195      0.757      0.064

      -8.47      14.33     49.556      0.816      0.064

      -8.47      14.33     73.808      0.642      0.073

      -8.47      14.33     81.687      1.087      0.073

      -8.47      14.33     87.948      1.095      0.081

      -8.47      14.33     91.600      0.927      0.073

      -8.47      14.33     97.070      0.694      0.073

      -8.47      14.33    108.886      2.500      0.081

      -8.47      14.33    114.983      1.817      0.081

      -8.47      14.33    120.715      1.865      0.073

      -8.47      14.33    124.259      2.108      0.081

      -8.47      14.33    129.201      2.108      0.089

      -8.47      14.33    132.569      2.560      0.105

      -8.47      14.33    138.297      1.779      0.081

      -8.47      14.33    142.393      1.611      0.081

      -8.47      14.33    147.417      1.385      0.089

      -8.47      14.33    151.499      1.257      0.081

      -8.47      14.33    156.581      0.871      0.089

      -8.47      14.33    160.981      0.976      0.081

      -8.47      14.33    165.445      0.904      0.073

      -8.47      14.62     17.675      1.129      0.129

      -8.47      14.62     24.568      1.824      0.113

      -8.47      14.62     69.995      2.687      0.137

      -8.47      14.62     86.669      3.609      0.153

      -8.47      14.62     95.887      4.111      0.145

      -8.47      14.62    110.226      4.170      0.121

      -8.47      14.62    122.607      3.542      0.113

      -8.47      14.62    140.512      2.583      0.121

      -8.47      14.62    152.538      1.729      0.121

      -8.47      14.62    166.621      1.327      0.097

ENDDATA           2076
ENDSUBENT         2086
SUBENT        E2301004   20181220   20190118   20190118       E119
BIB                  3          3
REACTION   (7-N-14(P,INL)7-N-14,PAR,SIG)
EN-SEC     (E-LVL,7-N-14)
STATUS     (TABLE) Taken from p.1224 and 1225 in reference
ENDBIB               3
NOCOMMON             0          0
DATA                 3          3
E-LVL      EN         DATA
MEV        MEV        MB
       2.31       10.5        4.0
       3.95       11.9       36.4
       7.03       10.2       27.2
ENDDATA              5
ENDSUBENT           13
ENDENTRY             4
