ENTRY            E2379   20200702   20200702   20200702       E126
SUBENT        E2379001   20200702   20200702   20200702       E126
BIB                 13         44
TITLE      Gamow-Teller transition strengths in the intermediate
           nucleus of the 116Cd double-beta decay by the
           116Cd(p,n)116In and 116Sn(n,p)116In reactions at 300
           MeV
AUTHOR     (M.Sasano, H.Sakai, K.Yako, T.Wakasa, M.Dozono,
            V.Rodin, A.Faessler, K.Fujita, M.B.Greenfield,
            K.Hatanaka, K.Itoh, T.Kawabata, H.Kuboki, Y.Maeda,
            K.Miki, K.Muto, S.Noji, H.Okamura, Y.Sakemi,
            K.Sekiguchi, Y.Shimizu, Y.Sasamoto, Y.Tameshige,
            A.Tamii, T.Uesaka)
INSTITUTE  (2JPNTOK) Department of Physics
           (2JPNKYU) Department of Physics
           (2GERTUE) Institut fuer Theoretische Physik
           (2JPNICU) Department of Physics
           (2JPNOSA) Research Center for Nuclear Physics
           (2JPNSUU) Department of Physics
           (2JPNTOK) Center for Nuclear Study
           (2JPNMZK) Department of Applied Physics
           (2JPNTIT) Department of Physics
           (2JPNTOH) Cyclotron and Radioisotope Center
           (2JPNIPC) RIKEN Nishina Center
REFERENCE  (J,PR/C,85,061301,2012)
           Main reference. See also TITLE and AUTHOR.
           (J,NP/A,788,76C,2007)
           Double differential cross sections for the 116Cd(p,n)
           reaction at 0 degree at 300 MeV were shown.
PART-DET   (N)
SAMPLE     - Target enrichment: greater than 99.5%.
           - Chemical-form of target is element.
           - Physical-form of target is solid.
           - Target-thickness is 103+-5 mg/cm2.
           - Target is self supported.
METHOD     (TOF) for neutron detection.
FACILITY   (CYCLO,2JPNOSA) Research Center for Nuclear Physics
DETECTOR   The neutron time-of flight (NTOF) facility in
           conjunction with the neutron detection system NPOL3.
ERR-ANALYS (ERR-S) Statistical uncertainty
ADD-RES    (COMP) 1. Multipole decomposition analysis
           (COMP) 2. DWIA (Distorted wave impulse approximation)
REL-REF    (O,23169001,M.Sasano+,J,PR/C,85,061301,2012)
           Double differential cross sections for the 116Sn(n,p)
           reaction
HISTORY    (20120127C) Tsubakihara.
           (20200221R) Received by e-mail from M.Sasano
ENDBIB              44
COMMON               2          3
EN         EN-RSL
MEV        KEV
 295.       500.
ENDCOMMON            3
ENDSUBENT           51
SUBENT        E2379002   20200702   20200702   20200702       E126
BIB                  3          5
REACTION   (48-CD-116(P,N)49-IN-116,ICL,DA/DE,N/RSD)
EN-SEC     ANG is polar angle (lab.) between beam and neutron
           (E-EXC,49-IN-116)
STATUS     (TABLE) Plotted in Fig. 1 (a) of Phys. Rev. C 85
                   (2012) 061301(R)
ENDBIB               5
COMMON               1          3
ANG
ADEG
 0.2
ENDCOMMON            3
DATA                 3        124
E-EXC      DATA       ERR-S
MEV        MB/SR/MEV  MB/SR/MEV
   -2.00000    0.00277    0.01072
   -1.50000    0.01142    0.01250
   -1.00000    0.01863    0.01381
   -0.50000    0.84294    0.06435
    0.00000    0.82427    0.06365
    0.50000    0.43946    0.04698
    1.00000    0.64987    0.05670
    1.50000    0.86267    0.06508
    2.00000    1.03187    0.07103
    2.50000    0.93173    0.06757
    3.00000    1.15412    0.07504
    3.50000    1.27826    0.07891
    4.00000    1.42589    0.08327
    4.50000    1.56824    0.08727
    5.00000    1.78823    0.09311
    5.50000    2.02069    0.09891
    6.00000    2.50379    0.11000
    6.50000    3.34775    0.12706
    7.00000    3.92622    0.13754
    7.50000    4.35372    0.14479
    8.00000    4.53777    0.14781
    8.50000    4.75681    0.15131
    9.00000    4.84741    0.15274
    9.50000    5.06500    0.15612
   10.00000    5.66312    0.16504
   10.50000    6.43424    0.17588
   11.00000    7.43876    0.18907
   11.50000    9.96439    0.21875
   12.00000   12.75840    0.24747
   12.50000   11.62740    0.23627
   13.00000   12.11817    0.24119
   13.50000   12.76996    0.24758
   14.00000   12.33483    0.24334
   14.50000   11.69458    0.23695
   15.00000   10.75624    0.22726
   15.50000    9.73164    0.21619
   16.00000    8.35096    0.20030
   16.50000    7.33498    0.18775
   17.00000    6.56438    0.17764
   17.50000    5.86758    0.16798
   18.00000    5.28915    0.15952
   18.50000    5.03853    0.15571
   19.00000    4.74861    0.15118
   19.50000    4.61444    0.14904
   20.00000    4.52676    0.14762
   20.50000    4.26032    0.14323
   21.00000    4.21529    0.14247
   21.50000    3.99055    0.13864
   22.00000    3.92683    0.13754
   22.50000    3.73898    0.13422
   23.00000    3.78932    0.13512
   23.50000    3.59908    0.13170
   24.00000    3.52961    0.13043
   24.50000    3.53155    0.13047
   25.00000    3.43956    0.12876
   25.50000    3.37919    0.12764
   26.00000    3.40749    0.12817
   26.50000    3.38738    0.12779
   27.00000    3.32893    0.12669
   27.50000    3.32033    0.12652
   28.00000    3.23648    0.12493
   28.50000    3.22260    0.12466
   29.00000    3.27773    0.12571
   29.50000    3.28111    0.12578
   30.00000    3.20301    0.12428
   30.50000    3.12252    0.12272
   31.00000    3.20210    0.12426
   31.50000    3.18055    0.12384
   32.00000    3.11108    0.12249
   32.50000    3.18251    0.12388
   33.00000    3.04786    0.12125
   33.50000    3.02967    0.12089
   34.00000    2.94199    0.11914
   34.50000    2.94920    0.11928
   35.00000    2.87637    0.11781
   35.50000    2.86058    0.11749
   36.00000    2.86060    0.11749
   36.50000    2.82851    0.11683
   37.00000    2.76383    0.11550
   37.50000    2.77392    0.11571
   38.00000    2.70492    0.11427
   38.50000    2.60430    0.11214
   39.00000    2.62541    0.11259
   39.50000    2.55211    0.11101
   40.00000    2.56219    0.11123
   40.50000    2.55598    0.11110
   41.00000    2.53060    0.11055
   41.50000    2.35714    0.10672
   42.00000    2.31259    0.10572
   42.50000    2.38641    0.10738
   43.00000    2.32605    0.10602
   43.50000    2.35099    0.10658
   44.00000    2.22736    0.10376
   44.50000    2.18185    0.10271
   45.00000    2.08459    0.10041
   45.50000    2.05489    0.09970
   46.00000    1.98447    0.09799
   46.50000    1.98209    0.09793
   47.00000    1.89489    0.09578
   47.50000    1.91360    0.09624
   48.00000    1.87336    0.09524
   48.50000    1.83792    0.09434
   49.00000    1.81446    0.09374
   49.50000    1.75505    0.09221
   50.00000    1.80443    0.09348
   50.50000    1.72346    0.09138
   51.00000    1.72444    0.09141
   51.50000    1.74123    0.09185
   52.00000    1.75467    0.09220
   52.50000    1.66699    0.08989
   53.00000    1.67372    0.09007
   53.50000    1.61431    0.08847
   54.00000    1.65315    0.08952
   54.50000    1.58752    0.08774
   55.00000    1.58945    0.08779
   55.50000    1.53628    0.08633
   56.00000    1.53822    0.08638
   56.50000    1.50229    0.08538
   57.00000    1.46637    0.08437
   57.50000    1.46256    0.08426
   58.00000    1.43526    0.08348
   58.50000    1.41228    0.08281
   59.00000    1.39025    0.08217
   59.50000    1.43149    0.08337
ENDDATA            126
ENDSUBENT          140
SUBENT        E2379003   20200702   20200702   20200702       E126
BIB                  3          5
REACTION   (48-CD-116(P,N)49-IN-116,ICL,DA/DE,N/RSD)
EN-SEC     ANG is polar angle (lab.) between beam and neutron
           (E-EXC,49-IN-116)
STATUS     (TABLE) Plotted in Fig. 1 (b) of Phys. Rev. C 85
                   (2012) 061301(R)
ENDBIB               5
COMMON               1          3
ANG
ADEG
 4.1
ENDCOMMON            3
DATA                 3        124
E-EXC      DATA       ERR-S
MEV        MB/SR/MEV  MB/SR/MEV
   -2.00000    0.00703    0.01132
   -1.50000   -0.00001    0.00987
   -1.00000    0.00650    0.01123
   -0.50000    0.15031    0.02748
    0.00000    0.24995    0.03451
    0.50000    0.49738    0.04768
    1.00000    0.70895    0.05655
    1.50000    0.61272    0.05270
    2.00000    0.62666    0.05328
    2.50000    0.61088    0.05263
    3.00000    0.67379    0.05518
    3.50000    0.70873    0.05655
    4.00000    0.81362    0.06047
    4.50000    0.91064    0.06389
    5.00000    0.99192    0.06661
    5.50000    1.07232    0.06920
    6.00000    1.24673    0.07451
    6.50000    1.35468    0.07761
    7.00000    1.50373    0.08170
    7.50000    1.55047    0.08295
    8.00000    1.61732    0.08469
    8.50000    1.62427    0.08487
    9.00000    1.75103    0.08808
    9.50000    1.78815    0.08899
   10.00000    1.87292    0.09105
   10.50000    2.03728    0.09492
   11.00000    2.25235    0.09975
   11.50000    2.80670    0.11124
   12.00000    3.53114    0.12467
   12.50000    3.45109    0.12326
   13.00000    3.58396    0.12559
   13.50000    3.90877    0.13112
   14.00000    4.15620    0.13519
   14.50000    4.29913    0.13748
   15.00000    4.49584    0.14057
   15.50000    4.70435    0.14378
   16.00000    4.81973    0.14552
   16.50000    4.95217    0.14750
   17.00000    5.29447    0.15249
   17.50000    5.30580    0.15265
   18.00000    5.58645    0.15662
   18.50000    5.83912    0.16011
   19.00000    6.00479    0.16236
   19.50000    6.24697    0.16559
   20.00000    6.37284    0.16724
   20.50000    6.68935    0.17133
   21.00000    6.76976    0.17235
   21.50000    6.74479    0.17204
   22.00000    6.62669    0.17053
   22.50000    6.62796    0.17055
   23.00000    6.48538    0.16871
   23.50000    6.35898    0.16706
   24.00000    6.13158    0.16406
   24.50000    5.92123    0.16124
   25.00000    5.78958    0.15944
   25.50000    5.65006    0.15752
   26.00000    5.40560    0.15409
   26.50000    5.20837    0.15126
   27.00000    5.05136    0.14898
   27.50000    4.90572    0.14683
   28.00000    4.76139    0.14466
   28.50000    4.76572    0.14473
   29.00000    4.58510    0.14197
   29.50000    4.46569    0.14012
   30.00000    4.31481    0.13775
   30.50000    4.26842    0.13701
   31.00000    4.13983    0.13495
   31.50000    4.00730    0.13278
   32.00000    3.95829    0.13197
   32.50000    3.85419    0.13024
   33.00000    3.71904    0.12795
   33.50000    3.67046    0.12712
   34.00000    3.61883    0.12623
   34.50000    3.47319    0.12368
   35.00000    3.37477    0.12193
   35.50000    3.37210    0.12188
   36.00000    3.32483    0.12103
   36.50000    3.25920    0.11984
   37.00000    3.08340    0.11659
   37.50000    3.05887    0.11613
   38.00000    3.00679    0.11515
   38.50000    2.88651    0.11284
   39.00000    2.78678    0.11090
   39.50000    2.78455    0.11085
   40.00000    2.78669    0.11090
   40.50000    2.71363    0.10945
   41.00000    2.78879    0.11094
   41.50000    2.64883    0.10815
   42.00000    2.57796    0.10671
   42.50000    2.54993    0.10613
   43.00000    2.56912    0.10653
   43.50000    2.39288    0.10285
   44.00000    2.40376    0.10308
   44.50000    2.30534    0.10097
   45.00000    2.26551    0.10010
   45.50000    2.16840    0.09796
   46.00000    2.11414    0.09674
   46.50000    2.09705    0.09636
   47.00000    2.01218    0.09441
   47.50000    2.04886    0.09526
   48.00000    1.96881    0.09341
   48.50000    2.01729    0.09454
   49.00000    1.95691    0.09313
   49.50000    1.94069    0.09275
   50.00000    1.90785    0.09197
   50.50000    1.86759    0.09101
   51.00000    1.87760    0.09125
   51.50000    1.87362    0.09116
   52.00000    1.84690    0.09052
   52.50000    1.82019    0.08987
   53.00000    1.73576    0.08779
   53.50000    1.76195    0.08844
   54.00000    1.66965    0.08613
   54.50000    1.67704    0.08632
   55.00000    1.61010    0.08461
   55.50000    1.61574    0.08476
   56.00000    1.59514    0.08423
   56.50000    1.59816    0.08431
   57.00000    1.59680    0.08427
   57.50000    1.55610    0.08321
   58.00000    1.54600    0.08295
   58.50000    1.52846    0.08248
   59.00000    1.55946    0.08330
   59.50000    1.54018    0.08280
ENDDATA            126
ENDSUBENT          140
SUBENT        E2379004   20200702   20200702   20200702       E126
BIB                  3          5
REACTION   (48-CD-116(P,N)49-IN-116,ICL,DA/DE,N/RSD)
EN-SEC     ANG is polar angle (lab.) between beam and neutron
           (E-EXC,49-IN-116)
STATUS     (TABLE) Plotted in Fig. 1 (c) of Phys. Rev. C 85
                   (2012) 061301(R)
ENDBIB               5
COMMON               1          3
ANG
ADEG
 10.2
ENDCOMMON            3
DATA                 3        124
E-EXC      DATA       ERR-S
MEV        MB/SR/MEV  MB/SR/MEV
   -2.00000    0.00894    0.01228
   -1.50000    0.00414    0.01119
   -1.00000    0.00842    0.01216
   -0.50000    0.03936    0.01769
    0.00000    0.09697    0.02490
    0.50000    0.23938    0.03714
    1.00000    0.36473    0.04526
    1.50000    0.34180    0.04388
    2.00000    0.31460    0.04220
    2.50000    0.38501    0.04644
    3.00000    0.48956    0.05209
    3.50000    0.52903    0.05408
    4.00000    0.59144    0.05707
    4.50000    0.62292    0.05852
    5.00000    0.66986    0.06062
    5.50000    0.70133    0.06199
    6.00000    0.72321    0.06293
    6.50000    0.76962    0.06486
    7.00000    0.89923    0.06999
    7.50000    0.93284    0.07126
    8.00000    1.04591    0.07537
    8.50000    1.02619    0.07467
    9.00000    1.06833    0.07616
    9.50000    1.09447    0.07707
   10.00000    1.15848    0.07925
   10.50000    1.20969    0.08096
   11.00000    1.25289    0.08237
   11.50000    1.39051    0.08671
   12.00000    1.46732    0.08904
   12.50000    1.52866    0.09086
   13.00000    1.57187    0.09212
   13.50000    1.59694    0.09284
   14.00000    1.66308    0.09472
   14.50000    1.71056    0.09605
   15.00000    1.77404    0.09779
   15.50000    1.84018    0.09958
   16.00000    1.83165    0.09935
   16.50000    1.89939    0.10115
   17.00000    1.91060    0.10145
   17.50000    1.98901    0.10349
   18.00000    2.01942    0.10427
   18.50000    2.03809    0.10475
   19.00000    2.06317    0.10538
   19.50000    2.13358    0.10715
   20.00000    2.19279    0.10861
   20.50000    2.22906    0.10950
   21.00000    2.27067    0.11051
   21.50000    2.35068    0.11242
   22.00000    2.30535    0.11134
   22.50000    2.40083    0.11361
   23.00000    2.37950    0.11310
   23.50000    2.41258    0.11388
   24.00000    2.48618    0.11559
   24.50000    2.52726    0.11654
   25.00000    2.52460    0.11647
   25.50000    2.54007    0.11683
   26.00000    2.62382    0.11872
   26.50000    2.69263    0.12026
   27.00000    2.70757    0.12059
   27.50000    2.70224    0.12047
   28.00000    2.74172    0.12134
   28.50000    2.74119    0.12133
   29.00000    2.86707    0.12407
   29.50000    2.86494    0.12402
   30.00000    2.96895    0.12624
   30.50000    2.93056    0.12542
   31.00000    2.98283    0.12653
   31.50000    3.01644    0.12724
   32.00000    2.96738    0.12620
   32.50000    3.05059    0.12795
   33.00000    3.08473    0.12866
   33.50000    3.07033    0.12836
   34.00000    3.09914    0.12896
   34.50000    3.07088    0.12837
   35.00000    3.11729    0.12933
   35.50000    3.09810    0.12894
   36.00000    3.17917    0.13060
   36.50000    3.19625    0.13095
   37.00000    3.13918    0.12978
   37.50000    3.21386    0.13131
   38.00000    3.17440    0.13050
   38.50000    3.03467    0.12762
   39.00000    3.16375    0.13028
   39.50000    3.19362    0.13089
   40.00000    3.12642    0.12952
   40.50000    3.08803    0.12873
   41.00000    3.22937    0.13162
   41.50000    3.13178    0.12963
   42.00000    3.14085    0.12981
   42.50000    3.07312    0.12842
   43.00000    3.04273    0.12778
   43.50000    3.02567    0.12743
   44.00000    2.90833    0.12495
   44.50000    2.92808    0.12537
   45.00000    2.83421    0.12335
   45.50000    2.80008    0.12261
   46.00000    2.76649    0.12188
   46.50000    2.68649    0.12012
   47.00000    2.62356    0.11871
   47.50000    2.65824    0.11949
   48.00000    2.70038    0.12043
   48.50000    2.65452    0.11940
   49.00000    2.61826    0.11859
   49.50000    2.55853    0.11724
   50.00000    2.50626    0.11605
   50.50000    2.51694    0.11629
   51.00000    2.45081    0.11476
   51.50000    2.50575    0.11603
   52.00000    2.44229    0.11457
   52.50000    2.42363    0.11413
   53.00000    2.40177    0.11362
   53.50000    2.33084    0.11194
   54.00000    2.25564    0.11014
   54.50000    2.16444    0.10790
   55.00000    2.20605    0.10893
   55.50000    2.21459    0.10914
   56.00000    2.16446    0.10790
   56.50000    2.09940    0.10628
   57.00000    2.08981    0.10604
   57.50000    2.04981    0.10503
   58.00000    2.01888    0.10424
   58.50000    2.10263    0.10636
   59.00000    2.03970    0.10477
   59.50000    1.98637    0.10341
ENDDATA            126
ENDSUBENT          140
ENDENTRY             4
