ENTRY            40418   20140703   20141103   20141016       4164
SUBENT        40418001   20140703   20141103   20141016       4164
BIB                  6         25
INSTITUTE  (4RUSRI)
REFERENCE  (C,73KIEV,4,138,197305) Preliminary data - figures only
            , relative to Li-6(n,a) reaction.
           (C,77KIEV,3,197,197704) Curve is given up to 10 MeV.
            Relative to U-235(n,f) reaction.
           (C,82ANTWER,,479,1982) Details of measurement relative
            to U-235.
           (P,YFI-25,43,197712)    Data for  0.015 - 2.14 MeV
AUTHOR     (M.V.Blinov,V.A.Vitenko,V.T.Tuz,N.M.Kazarinov,
           I.T.Krisyuk)
TITLE       Measurement of neutron spectrum from spontaneous
            fission of Cf-252 in a broad energy range
METHOD     (TOF)  Time-of-flight
HISTORY    (19790208C)
           (20111219A) Upper -> lower case correction.
            Dates were corrected for 4-digits year.
            DATA-ERR -> ERR-S.
            Reaction of Subent 002 was corrected ,DE,N, -> NU/DE,,
            Subent 003 was added.
           (20120303A) M.M. Subent 003 was corrected.
            Reference C,82ANTWER,,479,1982 was added.
           (20140603A) Subent 006 was added.
            Subent 004 data for flight path 50.cm were moved in
            Subent 005 (according to recommendation of NDS,IAEA,
            see memo CP-D/714 .
ENDBIB              25
NOCOMMON             0          0
ENDSUBENT           28
SUBENT        40418002   20111219   20120210   20120207       4155
BIB                  6          8
REACTION   (98-CF-252(0,F),,NU/DE,,REL)
            Reference quantity not given
DETECTOR   (SOLST)  Li-I crystal with Eu - LiI(Eu)
MONITOR    (3-LI-6(N,T)2-HE-4,,SIG)
            For neutron detector efficiency.
MONIT-REF  (,,3,ENDF/B-IV,,1974)
ERR-ANALYS (ERR-S)     Statistical Error
STATUS     (TABLE) Table of P,YFI-25,43,1977.
ENDBIB               8
NOCOMMON             0          0
DATA                 3         29
E          DATA       ERR-S
MEV        ARB-UNITS  ARB-UNITS
 1.5000E-02 1.1400E+02 2.0000E+01
 2.5000E-02 1.5200E+02 1.8000E+01
 4.0000E-02 1.9300E+02 1.6000E+01
 6.7000E-02 2.4000E+02 1.6000E+01
 9.0000E-02 2.6500E+02 1.7000E+01
 1.1300E-01 2.9000E+02 1.7000E+01
 1.2700E-01 3.4000E+02 1.5000E+01
 1.6300E-01 3.5600E+02 1.3000E+01
 1.9700E-01 3.8300E+02 1.2000E+01
 2.4300E-01 3.9000E+02 8.0000E+00
 2.6000E-01 4.0200E+02 8.0000E+00
 2.8800E-01 4.3000E+02 9.0000E+00
 3.1700E-01 4.6200E+02 1.0000E+01
 3.5200E-01 4.6000E+02 1.2000E+01
 3.9200E-01 4.9600E+02 1.4000E+01
 4.3800E-01 5.0800E+02 1.6000E+01
 4.9700E-01 4.9500E+02 1.5000E+01
 5.7000E-01 5.0500E+02 1.5000E+01
 6.5000E-01 5.2300E+02 1.4000E+01
 7.4200E-01 5.2900E+02 1.4000E+01
 8.4600E-01 5.0400E+02 1.3000E+01
 9.7000E-01 5.0200E+02 1.3000E+01
 1.1200E+00 4.7500E+02 1.2000E+01
 1.2200E+00 4.6600E+02 1.1000E+01
 1.3500E+00 4.4000E+02 1.0000E+01
 1.5000E+00 4.2800E+02 9.0000E+00
 1.6800E+00 3.8100E+02 8.0000E+00
 1.8800E+00 3.6100E+02 7.0000E+00
 2.1400E+00 3.3000E+02 6.0000E+00
ENDDATA             31
ENDSUBENT           44
SUBENT        40418003   20120303   20120702   20120621       4156
BIB                  8         31
REACTION  1(98-CF-252(0,F)0-NN-1,,KEM) Spectrum temperature.
          2(98-CF-252(0,F)0-NN-1,,KEM) Spectrum temperature.
DETECTOR  1(SOLST)  Li-I crystal with Eu - LiI(Eu)
          2(IOCH)   Ionization chamber with U-235 films
MONITOR   1(3-LI-6(N,T)2-HE-4,,SIG)
            For neutron detector efficiency.
          2(92-U-235(N,F),,SIG)
MONIT-REF 1(,,3,ENDF/B-IV,,1974)
          2(,,3,ENDF/B-V,,1978)
            G.V.Antcipov+,J,YK,1975,(20),1,1975 - was used in
            P,YFI-25,43,1977 .
CORRECTION2 For neutron scattering by detectors and environment :
           from 3% at 10 keV to 0.7% at 1 MeV for detectors,
           from 30% at 10 kev to 0.5 % at 1 MeV for air medium.
                      For time resolution
ERR-ANALYS (DATA-ERR) Not specified.
            Error of DATA 1 is 5.- 7. % .
          2(MONIT-ERR,,4.) Max.uncertainty of U-235 fis.c-s.
           (ERR-1,6.,16.) Error of intensity registration
            from 16.% at 10 keV to 6 % at 1 MeV - one sigma.
STATUS     (TABLE)
          1(DEP,40418002)
           Text  of P,YFI-25,43,1977
          2(DEP,40418004)
           Text of C,82ANTWER,,479,982 .
            Ratio of measured spectrum to Maxwellian one of
            T=1.42 MeV is given on Fig.4 of C,82ANTWER,
            together with other measurements and evaluation -
            quality of plot is not enough good for digitizing.
HISTORY    (20120303A) DATA 2 value 1.41+-0.03 of P,YFI-25,43,1977
            was replaced by that of C,282ANTWER,,479,1982.
ENDBIB              31
NOCOMMON             0          0
DATA                 3          1
DATA      1DATA      2DATA-ERR  2
MEV        MEV        MEV
 1.38       1.418      0.024
ENDDATA              3
ENDSUBENT           39
SUBENT        40418004   20140703   20141103   20141016       4164
BIB                  8         13
REACTION   (98-CF-252(0,F),,NU/DE,,REL)
            Data are given on fig. in arbitrary units.
DETECTOR   (IOCH)   Ionization chamber with U-235 films
MONITOR    (92-U-235(N,F),,SIG)
MONIT-REF  (,G.V.Antcipov+,J,YK,1975,(20),1,1975)
MISC-COL   (MISC) TOF base.
ERR-ANALYS (DATA-ERR) Not specified. Error bars digitized.
           (ERR-DIG) Error of digitizing of DATA and DATA-ERR.
           (E-ERR-DIG) Error of digitizing of E .
STATUS     (CURVE) Fig. of C,77KIEV,3,197,1977 was digitized.
           (COREL,40418005) 50 cm flight path data
HISTORY    (20140603A) Data for flight path 50.cm were moved in
            Subent 005 .
ENDBIB              13
COMMON               3          3
E-ERR-DIG  ERR-DIG    MISC
PER-CENT   ARB-UNITS  CM
   0.38E-02   0.72E-02 25.
ENDCOMMON            3
DATA                 3         35
E          DATA       DATA-ERR
MEV        ARB-UNITS  ARB-UNITS
  0.140E-01  1.999     0.893
  0.250E-01  3.186     0.680
  0.349E-01  2.665     0.595
  0.503E-01  3.363     0.397
  0.699E-01  4.318     0.397
  0.911E-01  4.224     0.354
  0.117      5.677     0.397
  0.152      5.698     0.425
  0.182      6.855     0.397
  0.223      6.693     0.354
  0.275      7.353     0.326
  0.336      7.844     0.425
  0.384      8.549     0.383
  0.435      7.892     0.397
  0.490      8.910     0.440
  0.535      8.936     0.397
  0.569      8.352     0.397
  0.627      8.945     0.326
  0.677      8.716     0.368
  0.749      8.954     0.354
  0.818      8.922     0.312
  0.900      7.912     0.255
  1.008      8.193     0.283
  1.124      7.650     0.255
  1.252      7.888     0.227
  1.415      7.672     0.212
  1.625      7.086     0.170
  1.841      6.188
  2.161      5.233
  2.552      4.363
  2.977      3.393
  3.686      2.507
  4.613      1.479
  5.746      0.635
  7.700      0.229
ENDDATA             37
ENDSUBENT           59
SUBENT        40418005   20140703   20141103   20141016       4164
BIB                  8         12
REACTION   (98-CF-252(0,F),,NU/DE,,REL)
            Data are given on fig. in arbitrary units.
DETECTOR   (IOCH)   Ionization chamber with U-235 films
MONITOR    (92-U-235(N,F),,SIG)
MONIT-REF  (,G.V.Antcipov+,J,YK,1975,(20),1,1975)
MISC-COL   (MISC) TOF base.
ERR-ANALYS (DATA-ERR) Not specified. Error bars digitized.
           (ERR-DIG) Error of digitizing of DATA and DATA-ERR.
           (E-ERR-DIG) Error of digitizing of E .
STATUS     (CURVE) Fig. of C,77KIEV,3,197,1977 was digitized.
           (COREL,40418004) 25 cm flight path data
HISTORY    (20140703T) Data were moved from Subent 004.
ENDBIB              12
COMMON               3          3
E-ERR-DIG  ERR-DIG    MISC
PER-CENT   ARB-UNITS  CM
   0.38E-02   0.72E-02 50.
ENDCOMMON            3
DATA                 3         33
E          DATA       DATA-ERR
MEV        ARB-UNITS  ARB-UNITS
  0.0536     4.397     0.680
  0.0846     4.680     0.652
  0.124      4.498     0.397
  0.175      6.615     0.482
  0.252      7.072     0.368
  0.362      7.912     0.411
  0.459      7.962     0.312
  0.567      7.629     0.297
  0.670      8.007     0.439
  0.768      8.144     0.312
  0.969      7.470     0.255
  1.160      8.032     0.397
  1.242      7.520     0.382
  1.328      7.957     0.354
  1.378      7.133     0.368
  1.504      6.932     0.297
  1.580      7.299     0.255
  1.710      6.715     0.283
  1.817      5.919     0.269
  1.964      6.129     0.255
  2.138      5.474     0.241
  2.304      5.117     0.198
  2.465      4.520     0.170
  2.703      4.049     0.156
  2.981      3.620
  3.283      2.922
  3.575      2.295
  3.940      1.739
  4.423      1.324
  5.551      0.807
  6.420      0.433
  7.219      0.288
  8.710      0.126
ENDDATA             35
ENDSUBENT           56
SUBENT        40418006   20140703   20141103   20141016       4164
BIB                 11         37
REACTION   (98-CF-252(0,F),PR,NU/DE,,MXD)
            Ratio of Cf spectrum ( average for three flight bases
           25,50,100 cm) to Maxwellian of 1.42 MeV.
DETECTOR   (IOCH)   Ionization chamber with U-235 films.
            Fast ionization chamber with Cf layers.
MONITOR    (92-U-235(N,F),,SIG)
            for dependence of neutron detector efficiency on
           energy of neutrons.
MONIT-REF  (,,3,ENDF/B-V,,1978)
SAMPLE     Cf layers of 4cm diameter, 0.75 microg (5.1E+5 fis/sec)
           and 0.3 microg (2.0E+5 fis/sec) in weight.
CORRECTION For neutron scattering by the fragment and neutron
           detectors - 3% at 10 keV to 0.7% at 1 MeV -
           and by environment  (air) - from 30% at 10 keV to 0.5%
           at 1 MeV for 25 cm flight base.
           For time resolution.
ERR-ANALYS (DATA-ERR) Total error bars digitized, where given .
           Total error in spectrum determination from 16% ( one
           sigma) at 10 keV to 5% at higher energy.
           (ERR-DIG) Error of digitizing of DATA and DATA-ERR.
           (E-ERR-DIG) Error of digitizing of E .
           Quantization error for scale X 0.247 %.
           Quantization error for scale Y 0.1641 %.
           Calibration of the time scale was done with accuracy
           0.1% with quartz generator.
           (MONIT-ERR,,4.) U-235 fis.c-s uncertainty < 4.% .
MISC-COL   (MISC) Data digitized as they given on figure -
           deviation from Maxwellian spectrum in per-cents.
COMMENT    Of compiler. Data were digitized from figure according
           to proposal of NDS,IAEA (N.Otsuka, R.Capote).
           Quality of digitized data is not very good due to
           overlapping of symbols on figure.
           To obtain NU/DE,,MXD the digitized data were multiplied
           by 100. ( for NO-DIM) and then were summed with 1. at
           each point ( for real ratio) .
STATUS     (CURVE) Fig.4 of C,82ANTWER,,479,1982. Solid circles.
HISTORY    (20140603C) Subent was added.
ENDBIB              37
COMMON               3          3
E-ERR-DIG  MISC-ERR-D KT-NRM
PER-CENT   SEE TEXT   MEV
 1.603     0.255       1.42
ENDCOMMON            3
DATA                 5         98
E          DATA       DATA-ERR   MISC       MISC-ERR
MEV        NO-DIM     NO-DIM     SEE TEXT   SEE TEXT
  11.57    0.97373     0.14212    -2.6270     14.212
  16.08    0.93643                -6.3568
  20.33    1.11426                 11.426
  24.85    0.98973                -1.0269
  28.57    1.05875     0.08593     5.8748      8.593
  34.14    0.93263                -6.7366
  38.14    1.00173                 0.17326
  47.43    1.04078                 4.0776
  56.63    1.05515                 5.5146
  65.27    1.03821                 3.8214
  76.05    1.00472                 0.47243
  85.87    1.05065                 5.0654
  87.97    1.09190                 9.1903
  97.49    0.92469                -7.5313
 101.07    0.98078                -1.9224
 106.53    1.01864                 1.8639
 112.23    1.04163                 4.1628
 120.77    1.01663                 1.6629
 133.15    1.03618                 3.6183
 144.17    1.02439                 2.4388
 148.24    1.00613                 0.61285
 153.60    1.04239                 4.2387
 161.79    1.06207                 6.2071
 168.99    0.99914                -0.08554
 178.69    0.96263                -3.7374
 179.06    1.02377                 2.3770
 187.44    1.02695                 2.6945
 194.04    1.03842                 3.8416
 200.74    1.03006                 3.0056
 204.46    1.06636                 6.6363
 207.37    0.97873                -2.1271
 213.51    0.99848                -0.15215
 216.21    1.03315                 3.3149
 227.40    1.00656                 0.65624
 232.75    1.01972                 1.9718
 245.04    1.02288                 2.2877
 259.06    0.98140                -1.8599
 261.18    1.05410                 5.4096
 273.08    1.02257                 2.2568
 286.06    1.04557                 4.5574
 299.20    1.02396                 2.3961
 302.95    1.05533                 5.5326
 322.49    1.04854                 4.8537
 343.07    1.02192                 2.1918
 357.38    1.04990                 4.9898
 359.08    1.02179                 2.1788
 376.25    1.05306                 5.3056
 389.07    1.03148                 3.1476
 418.92    1.02466                 2.4655
 443.36    1.01458                 1.4577
 469.51    1.02268                 2.2677
 475.38    1.05239                 5.2390
 502.57    1.01091                 1.0914
 526.07    1.01244                 1.2437
 541.41    1.01897                 1.8966
 579.47    1.00390                 0.38979
 620.66    1.01031                 1.0313
 660.55    0.99691                -0.30860
 699.63    1.00997                 0.99719
 719.31    0.98676                -1.3245
 740.49    1.00155                 0.15467
 785.10    1.04435                 4.4350
 789.10    1.02616                 2.6156
 802.23    1.00793                 0.79294
 830.95    1.03593                 3.5925
 874.62    1.03247                 3.2474
 919.40    0.99101                -0.89860
 991.33    1.02551                 2.5506
1031.4     1.01713                 1.7130
1042.6     0.99727                -0.27333
1091.8     1.01201                 1.2010
1110.0     0.99544                -0.45645
1169.1     1.01181                 1.1815
1259.0     1.00830                 0.82984
1267.4     1.03638                 3.6375
1380.0     1.02291                 2.2911
1469.9     1.03430                 3.4300
1637.7     1.02573                 2.5729
1695.6     1.04216                 4.2157
1824.5     1.01551                 1.5505
1954.2     1.02192                 2.1920
2033.0     1.01024                 1.0239
2093.1     1.02834                 2.8335
2165.1     1.01667                 1.6670
2254.3     1.02978                 2.9777
2331.6     1.01481                 1.4806
2483.2     1.02124                 2.1238
2659.8     1.02931                 2.9306
2798.5     1.01429                 1.4286
3016.1     1.03556                 3.5558
3190.4     1.01061                 1.0608
3514.5     1.00372                 0.37213
3762.4     0.99526                -0.47364
4076.8     1.00660                 0.66040
4813.9     1.02927                 2.9268
5271.5     1.01579                 1.5788
5841.1     1.01384                 1.3843
6696.1     1.00519                 0.51904
ENDDATA            100
ENDSUBENT          146
ENDENTRY             6
