ENTRY            40430   20120514   20121029   20120928       4157
SUBENT        40430001   20120514   20121029   20120928       4157
BIB                 15         33
TITLE       Research of neutron resonances of Ta-181 in neutron
            energy range 2-70 eV.
AUTHOR     (T.S.Belanova,A.G.Kolesov,V.A.Poruchikov,S.M.Kalebin,
           V.S.Artamonov)
INSTITUTE  (4RUSNIR)
REFERENCE  (J,AE,38,(6),430,197506) Res. Parameter Table Is Given
           (J,SJA,38,553,1975) Engl. translation of AE,38,430.
MONITOR    No information.
METHOD     (TOF) Time-of-flight method with resolution 70 nsec/m.
           (TRN) Transmissions.
DETECTOR   (PROPC) Battery of proportional He-counters.
INC-SOURCE (REAC) Reactor SM-2
ANALYSIS   (SLA) Single level analysis is made by Breit-Wigner
                  formula for neutron energy < 40 eV.
           (AREA) Area analysis is made for levels 4.28 eV and
                  over 40 eV.
SAMPLE      Metal with Ta-181 contents 99.9 percent.  Samples
            thicknesses are 132.5*10**20, 44.2*10**20 and
            5.5*10**20 nuclei/cm**2.
PART-DET   (N) Neutrons
ERR-ANALYS (ERR-S,,1.5)  Maximal statistical error
CORRECTION    Neutron background 1-2%
STATUS      Total cross-sections are received from one of the
            authors
HISTORY    (19760108C) Compiled at the centre.
           (19911009A) Explicit error headings introduced.STANDARD
             and N-SOURCE keywords changed to MONITOR and INC-SOU-
             RCE. Cross-reference to Entry 40371 is given. New
             data on res.parameter from the reference are given.
             ISO-QUANT into REACTION converted .
           (20060616A) REACTION5 SF3 of Sub.002 was corrected.
                       Dates were corrected for 4-digit year.M.M.
           (20120514U) Ref. of Engl.translation was added.
ENDBIB              33
NOCOMMON             0          0
ENDSUBENT           36
SUBENT        40430002   20120514   20121029   20120928       4157
BIB                  6         12
REACTION  1(73-TA-181(N,0),,EN)    Resonance energy
          2(73-TA-181(N,G),,WID)
          3(73-TA-181(N,EL),,WID,,G)
          4(73-TA-181(N,EL),,WID/RED,,G)
          5(73-TA-181(N,TOT),,SIG,,RES) Total peak cross-section
ASSUMED    (ASSUM,73-TA-181(N,G),,WID)
FLAG       (1.)   Analysis by the shape method
           (2.)   Analysis by the area  method
ANALYSIS   (SHAPE,AREA)
STATUS     (COREL,40371005) Other res.par.
           (TABLE) From Table of J,AE,38,(6),430,1975
HISTORY    (19911009C)  + +  Compiled at the centre - CJD  + +
ENDBIB              12
NOCOMMON             0          0
DATA                11         16
DATA      1ERR-T     1DATA      2ERR-T     2DATA      3ERR-T     3
DATA      4DATA      5ERR-T     5ASSUM      FLAG
EV         EV         MILLI-EV   MILLI-EV   MILLI-EV   MILLI-EV
MILLI-EV   B          B          MILLI-EV   NO-DIM
   4.28       0.01                            1.81       0.06
 0.87          1.9E+04    1.0E+04    65.5        2.
  10.37       0.03       76.5          3.5    1.68       0.07
 0.52         5.52E+03    6.0E+01                1.
  13.89       0.06       57.4          3.3    0.50       0.02
 0.13        1.625E+03    3.0E+01                1.
  20.35       0.07       51.8          4.5    0.48       0.02
 0.11        1.175E+03    3.0E+01                1.
  22.78       0.09       65.7         10.0    0.10       0.01
 0.02         1.71E+02    1.0E+01                1.
  24.00       0.09       76.4          7.3    2.53       0.19
 0.52         3.59E+03    7.0E+01                1.
  30.08       0.12       57.1         16.6    0.15       0.05
 0.027        2.23E+02    2.0E+01                1.
  33.51       0.13

  34.28       0.15       60.          10.     0.10       0.02
 0.02          1.3E+02    2.0E+01                1.
  35.16       0.20       70.          11.     5.2        0.6
 0.88          4.8E+03    1.0E+02                1.
  35.95       0.20       67.           8.     6.63       0.60
 1.11          6.0E+03    9.0E+02                1.
  39.2        0.20       64.          10.    23.0        6.0
 3.7           1.4E+04    1.0E+03                1.
  43.23       0.20                            0.53       0.07
 0.075         4.2E+02    4.0E+01     65.5       2.
  57.65       0.30                            0.18       0.04
 0.024        1.25E+02    3.0E+01     65.5       2.
  58.99       0.30                            0.08       0.02
 0.01          5.7E+01    1.0E+01     65.5       2.
  63.22       0.30                            2.30       0.15
 0.29          1.4E+03    6.0E+02     65.5       2.
ENDDATA             36
ENDSUBENT           53
NOSUBENT      40430003     911009              20050926       0000
SUBENT        40430004   20120514   20121029   20120928       4157
BIB                  2          5
REACTION   (73-TA-181(N,TOT),,SIG)   Total cross-section
STATUS     (TABLE) From authors.
           (APRVD)
           (COREL,40371003)
           (COREL,40371004)
ENDBIB               5
NOCOMMON             0          0
DATA                 2       1559
EN         DATA
EV         B
71.07       14.61
70.89        1.328
70.71        0.286
70.53        5.987
70.35        8.507
70.17       10.57
69.82        4.914
69.65        9.124
69.47        8.264
69.30        6.767
69.13       13.01
68.95        7.7636
68.78       10.50
68.61       10.23
68.44       11.63
68.27        7.278
68.10        9.468
67.93       11.66
67.76        7.944
67.60        8.339
67.43        4.720
67.26        7.164
67.10        5.884
66.93       12.04
66.77        9.98
66.60        5.497
66.44       11.14
66.28       11.47
66.12        6.444
65.96       10.25
65.79       13.83
65.63       11.28
65.47        6.894
65.32        9.907
65.16       10.08
65.00        4.757
64.84        5.286
64.69        7.143
64.53       12.41
64.37       12.90
64.22        8.712
64.06       14.05
63.91       25.53
63.76       40.61
63.60       64.34
63.45       95.15
63.30      111.8
63.15      118.4
63.00      119.0
62.85      107.5
62.70       86.77
62.55       64.52
62.40       39.98
62.25       21.64
62.11       12.10
61.96       13.64
61.81       10.69
61.67       10.63
61.52       13.63
61.38       11.51
61.23        7.075
61.09        8.747
60.95       10.33
60.80        8.673
60.66       11.57
60.52       12.30
60.38       10.46
60.24        5.970
60.10       10.01
59.96       13.03
59.82       15.92
59.68        8.637
59.54       13.35
59.40       14.39
59.26       14.81
59.13       14.79
58.99       15.61
58.85       16.19
58.72       13.11
58.58       13.75
58.45        7.699
58.32       12.37
58.18        9.665
58.05       14.08
57.92       15.75
57.78       20.08
57.65       15.07
57.52       19.48
57.39       22.39
57.26       19.17
57.13       17.74
57.00       14.87
56.87        7.011
56.74       12.73
56.61       10.18
56.48       11.57
56.36        7.663
56.23        8.736
56.10       11.88
55.98        9.483
55.85       11.41
55.73       14.09
55.60        9.283
55.48        7.907
55.35       11.12
55.23       13.34
55.11       10.20
54.98       11.93
54.86       11.48
54.74       13.02
54.62       13.66
54.50       11.14
54.38        8.784
54.26       12.19
54.14       11.89
54.02        5.616
53.90        8.591
53.78        5.069
53.66       10.02
53.54       15.85
53.42       16.06
53.31       12.97
53.19        7.994
53.07        8.375
52.96       15.59
52.84       11.68
52.73        5.590
52.61       13.04
52.50       14.47
52.38        9.455
52.27        5.371
52.16       14.25
52.04       12.15
51.93       14.04
51.82       14.53
51.71       12.02
51.59       13.85
51.48       12.32
51.37        9.174
51.26       11.13
51.15       12.04
51.04        9.776
50.93        9.986
50.82        9.334
50.71       10.90
50.61       11.80
50.50       11.14
50.39        6.962
50.28       13.60
50.18       14.15
50.07       14.73
49.96       11.02
49.75       15.56
49.64       23.82
49.54       29.61
49.44       45.19
49.33       54.97
49.23       61.82
49.12       61.63
49.02       63.80
48.92       46.99
48.81       40.59
48.71       29.15
48.61       23.46
48.51       14.95
48.41       14.49
48.31       11.76
48.20       20.68
48.10       15.62
48.00       13.83
47.90       14.87
47.80       11.50
47.71       14.41
47.61       13.86
47.51       10.40
47.41       14.29
47.31        9.230
47.21       12.63
47.12       18.13
47.02       16.75
46.92       12.42
46.83       13.25
46.73       12.91
46.63       13.50
46.54       13.10
46.44       11.61
46.35        8.074
46.16       14.46
45.88       19.64
45.78       15.49
45.69       13.89
45.60       16.26
45.51       12.38
45.41       17.31
45.32       10.41
45.23       15.52
45.14       12.18
45.05       15.93
44.96       11.73
44.87       12.62
44.78       14.62
44.69       17.28
44.60       11.25
44.51       13.49
44.42       11.36
44.33       12.96
44.24       18.71
44.15       15.59
44.06       15.41
43.98       23.14
43.89       16.95
43.80       21.71
43.71       18.19
43.63       19.73
43.54       16.61
43.45       13.39
43.37       16.53
43.28       19.99
43.20       22.63
43.11       15.17
43.03       21.17
42.94       19.59
42.86       24.00
42.77       19.87
42.69       19.25
42.61       21.96
42.52       18.44
42.44       24.51
42.36       23.33
42.27       24.29
42.19       18.16
42.03       24.49
41.94       24.71
41.86       22.54
41.78       24.40
41.70       25.00
41.62       27.58
41.54       26.16
41.46       27.58
41.38       27.74
41.30       34.26
41.22       31.78
41.14       35.20
41.06       33.25
40.98       40.06
40.90       45.00
40.82       28.94
40.75       38.28
40.67       44.62
40.59       50.00
40.51       51.87
40.43       49.67
40.36       66.00
40.28       68.72
40.20       78.38
40.13       85.27
40.05      102.2
39.98      118.8
39.90      133.9
39.82      159.6
39.75      193.6
39.67      238.2
39.60      297.4
39.52      373.8
39.45      452.7
39.37      559.8
39.30      669.7
39.23      786.4
39.15      781.0
39.08      772.5
39.01      656.6
38.93      528.7
38.86      429.7
38.79      326.7
38.71      265.5
38.64      201.7
38.57      145.3
38.50      116.7
38.43       94.06
38.35       66.78
38.28       58.95
38.21       49.51
38.14       42.55
38.07       34.56
38.00       34.36
37.93       33.14
37.86       29.13
37.79       30.39
37.72       29.45
37.65       24.59
37.58       25.54
37.51       22.34
37.44       23.37
37.37       22.10
37.30       24.04
37.24       24.40
37.17       25.38
37.10       25.60
37.03       28.69
36.96       25.78
36.90       34.78
36.83       29.34
36.76       33.15
36.70       42.50
36.63       44.75
36.56       60.96
36.50       72.94
36.43       98.06
36.36      129.4
36.30      170.7
36.23      229.1
36.17      311.9
36.10      404.9
36.04      518.9
35.97      629.5
35.91      646.6
35.84      594.5
35.78      498.8
35.71      438.9
35.65      396.3
35.59      373.4
35.52      358.0
35.46      371.9
35.39      411.8
35.33      478.3
35.27      571.3
35.21      655.4
35.14      641.5
35.08      550.5
35.02      435.1
34.96      998.5
34.89      253.2
34.83      182.2
34.77      131.2
34.71       94.35
34.65       70.13
34.59       50.85
34.52       46.27
34.46       38.66
34.40       46.79
34.34       45.28
34.28       38.67
34.22       31.95
34.16       36.73
34.10       34.97
34.04       22.43
33.98       25.36
33.92       23.68
33.86       12.90
33.80       12.94
33.75       10.22
33.69       13.51
33.63       10.42
33.57        4.478
33.51        6.913
33.45        5.304
33.39        6.264
33.34       10.12
33.28        9.590
33.22       12.93
33.16        5.517
33.11        7.848
33.05        6.868
32.99        7.894
32.93       11.85
32.88        7.927
32.82        3.539
32.76        9.257
32.71        4.682
32.65        7.124
32.60       12.06
32.54        6.839
32.48        7.864
32.43       11.30
32.37        9.732
32.32        4.521
32.26        4.855
32.21        6.507
32.15        8.612
32.10        9.188
32.04        6.417
31.99        8.504
31.94        8.465
31.88        8.212
31.83        6.361
31.77        6.217
31.72        8.886
31.67        8.087
31.61        9.730
31.56        6.966
31.51        7.185
31.40       12.67
31.35        6.355
31.29        3.186
31.24        2.493
31.19        6.770
31.14        6.364
31.08        9.038
31.03        5.438
30.98        6.134
30.93        6.291
30.88        5.860
30.83        4.729
30.77        8.373
30.72        3.624
30.67       10.48
30.62        8.121
30.57        2.718
30.47       14.53
30.42       11.11
30.37       14.96
30.32       21.28
30.27       28.63
30.22       34.58
30.17       44.13
30.12       54.05
30.07       54.24
30.02       53.90
29.97       47.10
29.92       41.88
29.87       34.35
29.82       22.15
29.77       19.00
29.72       14.28
29.68       12.96
29.63       13.10
29.58       12.67
29.53        3.382
29.48       12.10
29.43        3.346
29.39        7.247
29.34       11.15
29.29        7.753
29.24        4.971
29.19       10.07
29.15        5.288
29.10        7.743
29.05       10.75
29.01       10.29
28.96        7.355
28.91       11.68
28.87        8.699
28.82        6.710
28.77       10.20
28.73       12.43
28.68        6.291
28.63        1.725
28.59        6.212
28.50        6.161
28.45        7.480
28.40        6.403
28.36       13.06
28.31        7.535
28.27        9.698
28.22        8.074
28.18        6.494
28.13        9.314
28.09       10.66
28.04        9.697
28.00        3.765
27.96        8.399
27.91        6.445
27.87       10.79
27.82        5.662
27.78        7.907
27.73       11.90
27.69       11.34
27.65        7.62
27.60       10.66
27.56        6.833
27.52        6.192
27.47        8.953
27.43       11.74
27.39       10.80
27.34       11.32
27.30        8.165
27.26        6.762
27.21       10.15
27.17       11.68
27.13        6.992
27.09        8.140
27.04        7.626
27.00       10.49
26.96        9.439
26.92        8.808
26.88        4.489
26.83        9.329
26.79       12.26
26.75       12.81
26.71        7.569
26.67       10.06
26.63       10.36
26.59        7.821
26.54        4.552
26.50        9.765
26.46        9.655
26.42       11.69
26.38        8.679
26.34       12.89
26.30       12.15
26.26       14.95
26.22        8.141
26.18        9.656
26.14       9.593
26.10       15.39
26.06        9.965
26.02        2.595
25.98        9.405
25.94       11.71
25.90        6.043
25.86       12.63
25.82       10.39
25.78        5.977
25.74        6.998
25.70       16.21
25.66        9.166
25.62       10.90
25.58        9.28
25.55       10.74
25.51       13.14
25.47       13.81
25.43       15.34
25.39       11.07
25.35        8.600
25.31        9.446
25.28        7.708
25.24       11.23
25.20        8.417
25.16        8.607
25.12       11.81
25.09       11.14
25.05       14.69
25.01       13.81
24.97       17.56
24.94       11.78
24.90       15.06
24.86       17.05
24.82       17.57
24.79       18.91
24.75       17.58
24.71       24.08
24.68       26.01
24.60       25.83
24.57       25.04
24.53       29.23
24.49       36.17
24.46       36.59
24.42       45.63
24.38       50.62
24.35       63.21
24.31       83.38
24.27      105.4
24.24      142.1
24.20      191.2
24.17      250.7
24.13      324.5
24.10      427.2
24.06      543.7
24.03      672.1
23.99      753.2
23.95      787.2
23.92      743.0
23.88      624.5
23.85      511.3
23.81      404.4
23.78      313.4
23.74      236.5
23.71      174.5
23.67      131.1
23.64       97.36
23.61       66.91
23.57       52.87
23.54       45.93
23.50       43.29
23.47       32.35
23.43       28.05
23.40       26.44
23.37       24.23
23.33       22.41
23.30       21.64
23.26       16.84
23.23       26.40
23.20       16.47
23.16       17.81
23.13       19.07
23.10       16.91
23.03       17.69
23.00       21.59
22.96       20.73
22.93       29.88
22.90       32.10
22.86       39.76
22.83       50.81
22.80       52.49
22.77       54.66
22.73       61.48
22.70       55.29
22.67       48.67
22.64       46.03
22.60       40.18
22.57       27.24
22.54       24.12
22.51       25.73
22.48       18.68
22.44       13.06
22.41       10.90
22.38       15.77
22.35       10.44
22.32       12.69
22.28       12.88
22.25       10.63
22.22        7.426
22.19        9.052
22.16       11.96
22.13        7.718
22.10        9.011
22.06       13.47
22.03        1.667
22.00        5.693
21.97        9.988
21.94       11.62
21.91       12.37
21.88       11.48
21.85        4.665
21.82       10.57
21.79        9.515
21.76        8.802
21.73        8.233
21.70        2.880
21.67        3.862
21.63       11.58
21.60        7.757
21.57        8.122
21.54        7.619
21.51        5.848
21.48       11.45
21.45        9.655
21.42        1.199
21.39        1.867
21.37       12.68
21.34       11.32
21.31       13.90
21.28        6.329
21.25        8.229
21.22       11.39
21.19       11.39
21.16        8.496
21.13       11.03
21.10       11.48
21.07        9.477
21.04       12.89
21.01       10.38
20.98       11.64
20.96       11.25
20.93       15.96
20.90       11.97
20.87       15.91
20.84       13.49
20.81       18.29
20.75       20.34
20.73       17.17
20.70       15.24
20.67       20.20
20.64       15.22
20.61       24.53
20.59       31.78
20.56       42.89
20.53       61.97
20.50       78.76
20.47      110.1
20.45      146.1
20.42      179.6
20.39      224.6
20.36      256.4
20.33      277.3
20.31      282.2
20.28      268.6
20.25      239.6
20.23      193.1
20.20      153.0
20.17      148.4
20.14       84.80
20.12       67.30
20.09       44.99
20.06       30.95
20.03       29.61
20.01       23.22
19.98       18.62
19.95       15.49
19.93        8.634
19.90       11.18
19.87       12.50
19.85       16.32
19.82       12.88
19.79       13.95
19.77       11.10
19.74        7.369
19.72       15.34
19.69        5.797
19.66        4.961
19.64       16.45
19.61       12.41
19.58       10.14
19.56        9.315
19.53       12.52
19.51        6.611
19.48        8.477
19.45        4.555
19.43        7.428
19.40       11.37
19.38       10.85
19.35        6.738
19.33        6.348
19.30        6.148
19.28       12.32
19.25       10.17
19.22       13.57
19.17       11.43
19.15       17.27
19.12       10.07
19.10        8.445
19.07        3.107
19.05        7.618
19.02        9.870
19.00       11.47
18.97       11.76
18.95       10.50
18.92        9.949
18.90        8.982
18.87       12.19
18.85        6.836
18.83        9.595
18.80        7.270
18.78        8.520
18.75       10.54
18.73        9.724
18.70        5.239
18.68        9.880
18.65        7.802
18.63        3.309
18.61        5.593
18.58       14.53
18.56        9.812
18.53       12.90
18.51        7.775
18.49       12.78
18.46       11.82
18.44        5.320
18.41        9.531
18.39        3.610
18.37        4.208
18.34        8.702
18.32        6.070
18.30        6.814
18.27        9.440
18.25        5.58
18.23        9.156
18.20        5.586
18.18        5.945
18.16       11.39
18.13       10.99
18.11       14.29
18.09       13.17
18.06        9.492
18.04       13.48
18.02        6.890
17.99        8.113
17.97        6.338
17.95       11.24
17.93       12.82
17.90       14.16
17.88       12.74
17.86        5.863
17.83        5.644
17.81       11.42
17.79        8.952
17.77       14.05
17.74       10.63
17.72        3.278
17.70        8.863
17.68       14.05
17.65        8.763
17.63        9.951
17.61        6.334
17.59        7.388
17.57       10.44
17.54       10.22
17.52        2.824
17.50        7.017
17.48        6.984
17.46        5.953
17.43        6.091
17.41       11.28
17.39        3.052
17.37       10.22
17.35       16.12
17.33       11.39
17.30        6.398
17.28        9.154
17.26       14.84
17.24       13.84
17.22        8.664
17.20       11.57
17.17        6.134
17.15        6.010
17.13        4.400
17.11       10.53
17.09       89.69
17.07        7.34
17.05        7.194
17.03       10.91
17.00       18.92
16.98        6.115
16.96        9.918
16.94       14.81
16.92       11.13
16.90       17.61
16.88        5.758
16.86        7.667
16.84        5.496
16.82       12.81
16.80       13.41
16.77        8.333
16.75        9.528
16.73       11.90
16.71       11.67
16.69       10.27
16.67       14.89
16.65       12.63
16.63        7.061
16.61       13.62
16.59        9.842
16.57        7.079
16.55        8.880
16.53        8.979
16.51       16.34
16.49        5.208
16.47        3.429
16.45        7.997
16.43       77.89
16.41        5.989
16.39        4.439
16.37       13.44
16.35        6.263
16.33       11.53
16.31       12.26
16.29        1.621
16.27        3.016
16.25       11.84
16.23        6.042
16.21       12.85
16.19       12.93
16.17       14.21
16.15       13.00
16.13       13.14
16.11        6.734
16.09       13.22
16.07        9.225
16.06       11.70
16.04        3.773
16.02       14.42
16.00        8.821
15.98        6.442
15.96       11.70
15.94        5.288
15.92       10.08
15.90        3.501
15.88        9.624
15.86        8.577
15.84        3.769
15.83       17.11
15.81        6.825
15.79        8.205
15.77       11.79
15.75       10.03
15.73        6.783
15.71       14.11
15.69        9.593
15.68        6.668
15.66        6.698
15.64       21.81
15.62        8.761
15.60       16.24
15.58       15.15
15.56       11.87
15.55       14.54
15.53        6.205
15.51       16.33
15.49       10.58
15.47       13.20
15.45       13.85
15.44       13.07
15.42        6.062
15.40       15.91
15.38        9.211
15.36       11.44
15.34       12.15
15.33        6.886
15.31       14.12
15.29       16.82
15.27       11.00
15.25       15.01
15.24       10.97
15.22        2.640
15.20       10.71
15.18       13.97
15.17        7.253
15.15       12.10
15.13        7.472
15.11       17.40
15.09        6.019
15.08        6.834
15.06       11.44
15.04        8.823
15.02        8.960
15.01       15.13
14.99        8.481
14.97        9.403
14.95       13.74
14.94       11.57
14.92       12.40
14.90       12.31
14.89       12.24
14.87       10.87
14.85       12.66
14.83       13.87
14.82       19.21
14.80       11.33
14.78       18.25
14.77       11.04
14.75       13.82
14.73       10.07
14.71        8.907
14.70       17.28
14.68       15.40
14.66       88.58
14.65       14.07
14.63        9.836
14.61       10.95
14.60       15.90
14.58       19.78
14.56       10.92
14.55       17.46
14.53       19.19
14.51       11.56
14.50       15.82
14.48       15.76
14.46       16.86
14.45       14.71
14.43       14.05
14.41       16.56
14.40       16.58
14.38       21.18
14.36       15.56
14.35       16.79
14.33       19.25
14.32       13.88
14.30       10.09
14.28       12.40
14.27       14.72
14.25       23.26
14.23       23.30
14.22       21.92
14.20       29.17
14.19       24.50
14.17       30.36
14.15       32.30
14.12       37.02
14.11       41.20
14.09       46.50
14.07       61.80
14.06       79.29
14.04       85.56
14.03      111.1
14.01      146.2
13.99      178.3
13.98      212.3
13.96      267.0
13.95      337.6
13.93      383.5
13.92      454.7
13.90      502.3
13.89      562.0
13.87      605.3
13.85      605.2
13.84      600.5
13.82      582.6
13.81      506.9
13.79      442.8
13.78      383.8
13.76      314.0
13.75      263.1
13.73      213.5
13.72      162.0
13.70      129.5
13.69      103.5
13.67       73.32
13.65       66.59
13.62       50.12
13.61       44.28
13.59       29.83
13.58       37.21
13.56       25.21
13.55       20.11
13.53       23.03
13.52       24.77
13.50       18.38
13.49       22.05
13.47       19.21
13.46       27.23
13.44       22.89
13.43       11.83
13.42       21.54
13.40       11.86
13.39       11.32
13.37       10.37
13.36       21.81
13.34       19.58
13.33       11.63
13.31       19.84
13.30       16.56
13.28       18.29
13.27       16.56
13.25       15.73
13.24       10.75
13.23       12.41
13.21       17.81
13.20        9.692
13.18       11.15
13.15        2.835
13.14        5.363
13.12       18.63
13.11        7.249
13.10        7.799
13.08        4.797
13.07       11.30
13.05       13.36
13.04        9.681
13.03        8.499
13.01       15.99
13.00       13.08
12.98       12.39
12.97       14.77
12.95        7.891
12.94        4.867
12.93        3.382
12.91       16.49
12.90        9.574
12.88       10.37
12.87       11.60
12.86       12.28
12.84       12.11
12.83        8.459
12.82       13.11
12.80       15.34
12.79       12.06
12.77       14.43
12.76       13.27
12.75       12.95
12.73        7.321
12.71       11.57
12.69        9.496
12.68       14.89
12.67       11.18
12.65        9.603
12.64       19.28
12.62        9.027
12.61        6.788
12.60       14.43
12.58       11.49
12.57       11.34
12.56       12.31
12.54       13.22
12.53       19.17
12.52       17.36
12.50       16.95
12.49       13.34
12.48       12.72
12.46       11.46
12.45       17.27
12.44       11.24
12.42       13.76
12.41       10.17
12.40       19.30
12.39       13.65
12.37       12.36
12.36       10.52
12.35       10.78
12.33       21.40
12.32       12.80
12.31        7.549
12.29        6.768
12.28        7.547
12.27       11.07
12.26       22.94
12.24       16.24
12.23        9.409
12.22       15.97
12.20       13.71
12.19        9.636
12.18       16.04
12.17       11.48
12.15       14.04
12.14       12.54
12.13        8.045
12.11       18.37
12.10        9.533
12.09        7.091
12.08       18.73
12.06       18.19
12.05       19.73
12.04        9.679
12.03       21.33
12.01       10.92
12.00       11.37
11.99       11.45
11.98       16.26
11.96        9.583
11.95       15.40
11.94        3.377
11.93        8.784
11.91       12.34
11.90       19.11
11.89        7.271
11.88       11.81
11.87        8.264
11.85       16.92
11.84       12.54
11.83       13.21
11.82       22.75
11.80       20.18
11.79       11.98
11.78       16.20
11.77        9.574
11.76       18.98
11.74       13.71
11.73       23.56
11.72       22.52
11.71       18.33
11.69       17.90
11.68       10.90
11.67       13.45
11.66       11.80
11.65       11.70
11.63       12.15
11.62        6.373
11.61       20.20
11.60       18.50
11.59       13.27
11.58       14.63
11.56       15.32
11.55        8.970
11.54       18.77
11.53       18.52
11.52       20.68
11.50        4.373
11.49       19.72
11.48       15.44
11.47       19.01
11.46       17.67
11.45       15.22
11.43       24.76
11.42       19.40
11.41       21.96
11.40       27.37
11.39       14.61
11.38       13.67
11.37       16.55
11.35       15.50
11.34       13.36
11.33       22.10
11.32       19.14
11.31       32.67
11.30       17.50
11.29       24.74
11.27       14.62
11.26       25.07
11.25       22.50
11.24       27.08
11.23       17.49
11.22       25.83
11.21       24.73
11.19       24.79
11.18       24.50
11.17       26.68
11.16       27.61
11.15       23.67
11.14        7.613
11.13       36.39
11.12       23.51
11.10       23.01
11.09       29.08
11.08       20.06
11.07       28.95
11.06       36.53
11.05       29.27
11.04       29.12
11.03       36.76
11.02       31.68
11.01       35.45
10.99       31.64
10.98       33.58
10.97       36.78
10.96       33.31
10.95       42.42
10.94       40.64
10.93       32.14
10.92       38.03
10.91       39.65
10.90       33.59
10.89       45.96
10.87       43.93
10.86       55.07
10.85       40.44
10.84       49.45
10.83       53.30
10.82       45.43
10.81       44.67
10.80       57.61
10.79       39.59
10.78       57.85
10.77       63.39
10.76       63.24
10.75       73.88
10.74       69.03
10.73       77.45
10.71       82.45
10.70       79.40
10.69       36.81
10.68       44.74
10.67       46.62
10.66       71.7
10.65       81.54
10.64       71.66
10.63       88.58
10.62       91.93
10.61      111.4
10.60      125.4
10.59      141.6
10.58      170.2
10.57      190.9
10.56      212.6
10.55      244.2
10.54      288.6
10.53      340.6
10.52      378.3
10.51      454.8
10.50      506.4
10.49      587.9
10.48      709.0
10.47      788.5
10.45      978.1
10.44      1305.0
10.43      1082.0
10.42      1198.0
10.41      1423.0
10.40      1504.0
10.39      1414.0
10.38      1322.0
10.36      1294.0
10.35      1537.0
10.31      1336.0
10.29      1621.0
10.26      2165.0
10.25      1223.0
10.24      1089.0
10.23      862.3
10.22      762.9
10.21      661.6
10.20      554.9
10.19      487.0
10.18      420.3
10.17      378.3
10.16      299.0
10.15      271.4
10.14      617.1
10.13      223.7
10.12      203.7
10.11      179.4
10.10      170.4
10.09      142.8
10.08      131.4
10.07      138.1
10.06      116.9
10.05      109.2
10.04       99.47
10.03       92.77
10.02       87.67
10.01       81.77
10.00       86.76
9.994       81.23
9.984       70.59
9.975       60.85
9.965       61.86
9.956       68.38
9.946       58.16
9.937       58.59
9.927       46.99
9.918       60.04
9.909       50.53
9.899       47.82
9.890       44.82
9.881       45.80
9.871       39.75
9.862       56.00
9.853       41.34
9.843       38.45
9.834       10.07
9.825       38.81
9.816       36.14
9.806       33.04
9.797       38.27
9.788       39.01
9.779       33.82
9.769       30.73
9.760       29.80
9.751       27.46
9.742       21.42
9.733       22.41
9.724       21.07
9.715       29.19
9.706       20.28
9.696       27.52
9.687       32.30
9.678       21.76
9.669       29.59
9.660       19.43
9.651       21.68
9.642       23.02
9.633       24.76
9.624       14.75
9.615       25.01
9.606       25.92
9.597       21.50
9.588       21.77
9.579       33.13
9.571       26.40
9.562       23.79
9.553       23.26
9.544       19.41
9.535       18.38
9.526       23.71
9.517       22.98
9.509       12.26
9.500       21.01
9.491       25.04
9.482       11.12
9.473        6.460
9.463       13.66
9.456       13.16
9.447       21.38
9.438       20.31
9.430       19.93
9.421       17.95
9.412       19.25
9.404       20.06
9.395       12.66
9.386       16.39
9.378       12.19
9.369       25.38
9.360       15.80
9.343       13.44
9.335       11.30
9.326        9.023
9.318       22.05
9.309       22.89
9.300       12.66
9.292       17.02
9.283       14.49
9.275        7.385
9.266       15.3
9.258       12.46
9.249        9.842
9.241       21.87
9.233       21.76
9.224       21.76
9.216       18.17
9.207       10.66
9.199       14.41
9.191       13.05
9.182       10.93
9.174       13.67
9.165       16.98
9.157       13.06
9.149       20.30
9.140       14.46
9.132        9.668
9.124       15.30
9.116       17.86
9.107       21.64
9.091       17.08
9.083       15.93
9.074        9.850
9.066        2.422
9.058        9.896
9.050        8.911
9.042       16.21
9.033       11.34
9.025       19.57
9.017       16.94
9.009       22.35
9.001       16.2
8.993       12.16
8.985       12.12
8.977       18.56
8.968       11.55
8.960        9.477
8.952       14.88
8.944       12.83
8.936        8.698
8.928       14.60
8.920       12.90
8.912       16.96
8.904       19.69
8.896       11.41
8.888       11.75
8.880        8.346
8.872        5.279
8.864       17.20
8.856       22.75
8.849       18.03
8.833       19.57
8.825       11.09
8.817       12.89
8.809       22.13
8.801        5.564
8.793       21.10
8.786       16.76
8.778       11.75
8.770       17.20
8.762       15.08
8.754       21.16
8.747       14.42
8.739        8.755
8.731       11.54
8.723       12.33
8.716       19.33
8.708       17.70
8.700        9.665
8.692       10.68
8.685       13.79
8.677        9.765
8.669       12.49
8.662       19.86
8.654        9.397
8.646        8.407
8.639       13.52
8.631       22.25
8.623        8.777
8.616        9.503
8.608        4.299
8.601        4.171
8.593        8.390
8.585       12.52
8.578        6.586
8.570       18.55
8.563       17.24
8.555        5.021
8.548       19.00
8.540       16.16
8.533       13.39
8.525        9.700
8.518        6.888
8.510       11.41
8.495        7.130
8.488        6.915
8.481       25.35
8.473       12.97
8.466       18.71
8.458       14.77
8.451        3.732
8.444       12.77
8.429       14.20
8.421        6.869
8.414        1.631
8.407       14.65
8.399        9.686
8.392        6.388
8.385        8.515
8.378       10.61
8.370       17.85
8.363        8.637
8.348       21.50
8.341       10.20
8.334       11.04
8.327        6.397
8.319        2.870
8.312       10.45
8.305       14.45
8.298       13.19
8.291        5.591
8.284       16.85
8.276       10.15
8.262        8.410
8.255        2.706
8.248        2.042
8.241       16.80
8.234       11.70
8.226       19.32
8.219        8.325
8.212       14.01
8.205        9.799
8.198        9.014
8.191        5.065
8.184       14.87
8.170       22.18
8.163       16.66
8.156       11.71
8.149       15.01
8.142        4.328
8.128        4.623
8.114       12.62
8.107       12.78
8.100        2.633
8.093       20.14
8.086        4.580
8.079        2.283
8.073       15.57
8.066        9.189
8.059       15.22
8.052       11.79
8.045       31.58
8.038        8.469
8.031       16.09
8.025       18.18
8.018        7.249
8.011        4.047
8.004       11.53
7.997       15.82
7.984        6.433
7.977        9.006
7.970       12.89
7.963       12.45
7.957       18.50
7.950       12.83
7.943       11.77
7.936       18.18
7.930        6.595
7.923       10.63
7.916        8.911
7.910       29.69
7.903       11.47
7.896       15.30
7.890        9.106
7.883        4.118
7.876       16.94
7.870        6.445
7.863       12.24
7.856       12.97
7.850       16.74
7.843        6.080
7.837        8.208
7.823       19.03
7.817       13.36
7.810       11.87
7.804       18.80
7.797       19.63
7.791       12.57
7.777       21.02
ENDDATA           1561
ENDSUBENT         1571
SUBENT        40430005   20120514   20121029   20120928       4157
BIB                  3          4
REACTION   (73-TA-181(N,EL)73-TA-181,POT,SIG)
STATUS     (DEP,40430004) Total c-s used.
           (TABLE) Text, page 413 of J,AE,38,(6),430,1975
HISTORY    (19911009C)  Compiled at the centre
ENDBIB               4
NOCOMMON             0          0
DATA                 4          1
EN-MIN     EN-MAX     DATA       ERR-T
EV         EV         B          B
  2.         70.        9.8        1.0
ENDDATA              3
ENDSUBENT           12
SUBENT        40430006   20120514   20121029   20120928       4157
BIB                  3          4
REACTION   (73-TA-181(N,0),,D)  Average level spacing
STATUS     (DEP,40430002)  Res.parameters used.
           (TABLE) Text, page 413 of J,AE,38,(6),430,1975
HISTORY    (19911009C)  Compiled at the centre - CJD
ENDBIB               4
NOCOMMON             0          0
DATA                 4          1
EN-RES-MIN EN-RES-MAX DATA       ERR-T
EV         EV         EV         EV
  2.         70.        4.21        0.98
ENDDATA              3
ENDSUBENT           12
SUBENT        40430007   20120514   20121029   20120928       4157
BIB                  3          4
REACTION   (73-TA-181(N,EL),,STF)  Neutron strength function
STATUS     (DEP,40430002) Res.parameters used.
           (TABLE) Text, page 413 of J,AE,38,(6),430,1975
HISTORY    (19911009C)  Compiled at the centre - CJD
ENDBIB               4
NOCOMMON             0          0
DATA                 4          1
EN-RES-MIN EN-RES-MAX DATA       MOMENTUM L
EV         EV         NO-DIM     NO-DIM
  2.         70.         1.96E-04    0.
ENDDATA              3
ENDSUBENT           12
ENDENTRY             7
