ENTRY            D0254   20100317   20100610   20100602       D072
SUBENT        D0254001   20100317   20100610   20100602       D072
BIB                 11         22
TITLE      Inelastic scattering of 172.5 MeV or particles by 12C
AUTHOR     (A.Kiss,C.Mayer-Boricke,M.Rogge,P.Turek,S.Wiktor)
INSTITUTE  (2GERJUL)
REFERENCE  (J,JP/G,13,1067,1987)
FACILITY   (ISOCY,2GERJUL) Beam monitoring was accomplished in the
           usual way by means of a Faraday cup located 4 m behind
           the scattering chamber and simultaneously by a monitor
           detector.
METHOD     (EDE)
SAMPLE     Rolled carbon foil of 6.6 mg/cm2 with low
           contamination of oxygen and hydrogen was used.
EN-SEC     (E-LVL,6-C-12)
DETECTOR   (TELES) The dE detectors were Si surface barrier
           detectors oflOO mu-m thickness. The E detectors were
           Ge(Li) drifted diodes of a side-entry type with a
           sensitive length of about 20 mm.
ERR-ANALYS (ANG-ERR) The uncertainty in the angular position
           of the target
           (DATA-ERR) Experimnetal error
HISTORY    (20041116C) SD
           (20100317A) SD. Author's name was corrected.
                           A Kiss -> A.Kiss
ENDBIB              22
COMMON               3          3
EN         EN-RSL-FW  ANG-ERR
MEV        MEV        ADEG
  172.5      0.15       0.1
ENDCOMMON            3
ENDSUBENT           29
SUBENT        D0254002   20041116              20050926       0000
BIB                  2          3
REACTION   (6-C-12(A,INL)6-C-12,PAR,DA)
STATUS     (TABLE) Table was received from Dr. A.Ingemarsson
            who received them from authors
ENDBIB               3
NOCOMMON             0          0
DATA                 4         77
E-LVL      ANG-CM     DATA-CM    DATA-ERR
MEV        ADEG       MB/SR      MB/SR
  4.43       6.02       66.40      3.3
  4.43       6.66       88.50      4.4
  4.43       7.36       97.10      4.8
  4.43       8.03      106.20      5.3
  4.43       8.70      112.30      5.6
  4.43       9.37      105.10      5.2
  4.43      10.00      103.20      5.2
  4.43      10.70       86.90      4.3
  4.43      11.37       77.10      5.7
  4.43      12.04       58.20      3.8
  4.43      12.71       46.60      3.6
  4.43      13.37       34.00      2.6
  4.43      14.04       27.60      1.7
  4.43      14.71       23.80      1.4
  4.43      16.04       26.50      1.6
  4.43      17.37       29.80      1.9
  4.43      18.70       30.10      1.8
  4.43      19.36       27.20      1.8
  4.43      20.03       26.40      1.8
  4.43      21.36       19.50      1.1
  4.43      22.70       15.20      1.0
  4.43      23.34       14.60      0.8
  4.43      24.12       13.40      0.8
  4.43      25.45       13.20      0.8
  4.43      26.65       13.60      0.8
  4.43      28.10       13.10      0.8
  4.43      29.42       12.20      0.7
  4.43      30.50       10.80      0.6
  4.43      31.48        8.81      0.5
  4.43      33.37        5.93      0.4
  4.43      35.34        4.23      0.3
  4.43      37.31        3.09      0.2
  4.43      39.92        1.93      0.15
  4.43      43.81        0.745     0.08
  4.43      47.42        0.322     0.03
  4.43      51.21        0.132     0.03
  4.43      58.68        0.038     0.01
  4.43      62.35        0.0223    0.01
  9.64       5.92        5.28      0.80
  9.64       6.05        8.92      0.89
  9.64       6.73       12.80      1.20
  9.64       7.40       14.42      1.40
  9.64       8.07       16.50      1.00
  9.64       8.75       22.20      2.00
  9.64       9.41       22.60      2.00
  9.64      10.09       25.28      2.00
  9.64      10.76       21.81      1.50
  9.64      11.43       23.13      2.00
  9.64      12.10       19.85      0.80
  9.64      12.77       19.00      1.00
  9.64      13.45       14.80      1.00
  9.64      14.12       11.50      1.00
  9.64      14.78        9.20      1.00
  9.64      16.13        6.50      0.60
  9.64      17.45        6.20      0.60
  9.64      18.79        6.20      0.60
  9.64      19.47        6.70      0.70
  9.64      20.12        6.34      0.60
  9.64      21.47        6.37      0.60
  9.64      22.79        5.05      0.50
  9.64      23.47        4.50      0.40
  9.64      24.12        3.60      0.30
  9.64      25.45        2.90      0.20
  9.64      26.77        2.03      0.20
  9.64      28.10        1.58      0.110
  9.64      29.42        1.47      0.10
  9.64      30.74        1.21      0.10
  9.64      31.40        1.10      0.10
  9.64      33.37        0.74      0.10
  9.64      35.34        0.52      0.10
  9.64      37.31        0.39      0.05
  9.64      39.92        0.28      0.03
  9.64      43.81        0.088     0.01
  9.64      47.66        0.057     0.01
  9.64      51.50        0.023     0.005
  9.64      58.98        0.019     0.002
  9.64      62.65        0.016     0.002
ENDDATA             79
ENDSUBENT           87
SUBENT        D0254003   20041122              20050926       0000
BIB                  3          4
REACTION   (6-C-12(A,INL)6-C-12,PAR,DA)
ERR-ANALYS (ANG-ERR-D)  Digitizing error
           (ERR-DIG)    Digitizing error
STATUS     (CURVE) Digitized data points from fig.2
ENDBIB               4
COMMON               2          3
ANG-ERR-D  ERR-DIG
ADEG       PER-CENT
  0.3       0.2
ENDCOMMON            3
DATA                 4        200
E-LVL      ANG-CM     DATA-CM    DATA-ERR
MEV        ADEG       MB/SR      MB/SR
 0.0000     5.7160     551.11
 0.0000     6.3459     400.85
 0.0000     7.0676     258.70
 0.0000     7.7028     151.10
 0.0000     8.4289     81.491
 0.0000     9.1588     37.469
 0.0000     9.8873     18.290
 0.0000     10.605     14.125
 0.0000     11.218     19.842
 0.0000     11.832     28.433
 0.0000     12.449     35.436
 0.0000     13.068     39.182
 0.0000     13.778     40.812
 0.0000     14.402     37.711
 0.0000     15.832     28.009
 0.0000     17.175     18.090
 0.0000     18.607     12.161
 0.0000     19.236     9.0233
 0.0000     19.858     9.2121
 0.0000     21.193     8.5197
 0.0000     22.527     8.3651
 0.0000     23.239     7.8861
 0.0000     23.862     7.5835
 0.0000     25.200     6.2225
 0.0000     26.541     4.4404
 0.0000     27.881     3.3641
 0.0000     29.223     2.3532
 0.0000     30.477     1.5816
 0.0000     31.191     1.4327
 0.0000     33.155    0.98315
 0.0000     35.119    0.68825
 0.0000     37.085    0.43608
 0.0000     39.596    0.17476
 0.0000     43.451    0.44340E-01
 7.6000     7.7727     10.247
 7.6000     9.1073     9.6493
 7.6000     9.7323     8.5353
 7.6000     10.360     6.8118
 7.6000     11.076     5.4369
 7.6000     11.794     3.9966
 7.6000     12.431     2.1135
 7.6000     13.068     1.1177
 7.6000     13.791    0.66883
 7.6000     14.494    0.96951
 7.6000     15.722     1.9148
 7.6000     17.051     2.2612
 7.6000     18.385     2.2189
 7.6000     19.016     1.5021
 7.6000     19.733     1.1505
 7.6000     20.983    0.90022
 7.6000     22.405    0.90183
 7.6000     23.027    0.90253
 7.6000     23.645     1.0870
 7.6000     25.067     1.0889
 7.6000     26.397     1.2341
 7.6000     27.739    0.85354
 7.6000     30.328    0.52259
 7.6000     31.039    0.52306
 7.6000     33.005    0.33344
 7.6000     34.971    0.20823
 7.6000     39.605    0.12017
 7.6000     43.454    0.37370E-01
 14.000     6.7266    0.55533    0.15329
 14.000     7.4255    0.81603    0.18844
 14.000     8.0502    0.75346    0.17399
 14.000     8.5847    0.72425    0.16724
 14.000     9.3826    0.77049    0.17792
 14.000     10.087    0.96328    0.22244
 14.000     10.886    0.98421    0.17999
 14.000     12.033     1.2821    0.31578
 14.000     12.742     1.3638    0.31492
 14.000     13.360     1.5410    0.37955
 14.000     14.778     1.7791    0.35443
 14.000     16.199     1.8196    0.33277
 14.000     17.442     1.8984    0.34696
 14.000     19.401     1.6871    0.30854
 14.000     21.442     1.8726    0.31146
 14.000     23.490     1.6643    0.30438
 14.000     26.613     1.0945    0.21818
 14.000     30.705    0.97606    0.17850
 15.300     5.9471     8.3854     1.5582
 15.300     6.6626     7.1211     1.3233
 15.300     7.4642     6.7031     1.3567
 15.300     8.0919     5.4625    0.92270
 15.300     8.7174     4.8330    0.89862
 15.300     9.5184     4.6438    0.94036
 15.300     10.146     3.8629    0.71825
 15.300     10.858     3.6357    0.85302
 15.300     11.580     2.4627    0.53865
 15.300     12.112     2.5680    0.51976
 15.300     12.830     2.0087    0.43936
 15.300     13.455     1.7772    0.35989
 15.300     14.872     2.1875    0.47845
 15.300     16.202     2.3796    0.52024
 15.300     17.455     1.7877    0.36183
 15.300     19.597     1.2907    0.21802
 15.300     21.285     1.2939    0.26201
 15.300     23.689     1.1016    0.20482
 15.300     26.985    0.84731    0.12850
 15.300     30.733    0.47911    0.89032E-01
 18.400     6.4163     4.2637    0.74698
 18.400     7.1166     4.4169    0.83718
 18.400     7.7398     4.1920    0.79443
 18.400     8.4415     3.6451    0.69079
 18.400     9.0651     3.2825    0.66832
 18.400     9.8441     3.0614    0.53634
 18.400     10.467     3.1713    0.60092
 18.400     11.168     2.7098    0.43533
 18.400     11.791     2.6634    0.54222
 18.400     12.571     2.3569    0.44661
 18.400     13.193     2.3992    0.45474
 18.400     13.895     2.1606    0.55624
 18.400     15.300     1.3712    0.27919
 18.400     16.702     1.2570    0.20191
 18.400     17.869     1.3254    0.26980
 18.400     19.893     1.2154    0.26422
 18.400     21.995     1.2820    0.20593
 18.400     24.021    0.95277    0.18056
 18.400     27.373    0.51694    0.97966E-01
 18.400     31.424    0.34615    0.75255E-01
 21.600     6.4143     6.0223     1.1451
 21.600     7.1140     6.6940     1.2730
 21.600     7.7371     6.4644     1.2422
 21.600     8.4379     6.2429     1.1997
 21.600     9.1386     6.1359     1.5752
 21.600     9.6847     5.3322     1.0247
 21.600     10.386     4.8850     1.0420
 21.600     11.166     3.7540    0.64341
 21.600     11.867     3.6897    0.70902
 21.600     12.492     2.6897    0.54943
 21.600     13.272     2.3376    0.41089
 21.600     13.895     2.2974    0.43689
 21.600     15.296     2.2194    0.39023
 21.600     16.541     2.5112    0.44148
 21.600     18.098     2.4260    0.39104
 21.600     20.045     2.2237    0.39098
 21.600     21.992     2.0027    0.38089
 21.600     24.095     1.6813    0.29563
 21.600     27.445     1.2056    0.24630
 21.600     31.262    0.82025    0.16756
 24.000     6.2011     2.5217    0.43651
 24.000     6.8243     2.1119    0.40992
 24.000     7.5252     1.7688    0.34332
 24.000     8.2261     1.5349    0.29790
 24.000     9.0048     1.3558    0.29211
 24.000     9.6279     1.1765    0.27908
 24.000     10.406     1.2409    0.29437
 24.000     10.952     1.0210    0.24219
 24.000     11.653    0.82530    0.17784
 24.000     12.431    0.87049    0.18755
 24.000     13.131    0.95130    0.16466
 24.000     13.754    0.82550    0.16023
 24.000     15.000    0.93478    0.20142
 24.000     16.324    0.61077    0.13160
 24.000     17.725    0.53005    0.10288
 24.000     19.828    0.41359    0.89116E-01
 24.000     22.008    0.32850    0.63760E-01
 24.000     23.876    0.27516    0.59288E-01
 24.000     27.302    0.21858    0.47097E-01
 24.000     31.351    0.11547    0.24880E-01
 26.200     6.1226     5.4140     1.2767
 26.200     6.9790     5.2271     1.0086
 26.200     7.5242     4.7861     1.0253
 26.200     8.2251     4.3059    0.92239
 26.200     8.9256     4.4611    0.86090
 26.200     9.6268     3.6745    0.63239
 26.200     10.327     3.9437    0.76099
 26.200     10.950     3.3650    0.72078
 26.200     11.573     3.3653    0.72086
 26.200     12.274     2.8213    0.60428
 26.200     12.975     2.4502    0.52483
 26.200     13.677     1.8478    0.39579
 26.200     14.923     1.6049    0.41375
 26.200     16.481     1.1280    0.34178
 26.200     17.881     1.6342    0.31530
 26.200     19.749     1.5781    0.47815
 26.200     21.929     1.3952    0.35971
 26.200     24.031     1.1700    0.27588
 26.200     27.458    0.78016    0.18397
 26.200     31.585    0.48483    0.11433
 29.200     6.1881     3.6989    0.87972
 29.200     6.9667     3.5073    0.83415
 29.200     7.6675     3.3256    0.71838
 29.200     8.4463     2.9895    0.51879
 29.200     8.9914     2.8345    0.49189
 29.200     9.6920     2.8349    0.55164
 29.200     10.315     2.7362    0.53243
 29.200     11.016     2.5944    0.45027
 29.200     11.717     1.9873    0.51679
 29.200     12.495     2.0965    0.40793
 29.200     13.197     1.8188    0.39290
 29.200     13.898     1.3445    0.50712
 29.200     15.143     1.6647    0.43290
 29.200     16.545     1.2308    0.26588
 29.200     17.947    0.94293    0.22424
 29.200     19.971    0.99499    0.23664
 29.200     21.996    0.78996    0.17065
 29.200     24.099    0.57384    0.13648
 29.200     27.524    0.50702    0.12059
 29.200     31.573    0.40993    0.79767E-01
ENDDATA            202
ENDSUBENT          215
ENDENTRY             3
