ENTRY            D0296   20050325   20050810                  D040
SUBENT        D0296001   20050325   20050810                  D040
BIB                  9         24
TITLE      Elastic and Inelastic Scattering of Alpha Particles
           on 58Ni and 60Ni in a Broad Range of Energy and Angle
AUTHOR     (A.Budzanowski,H.Dabrowski,L.Freindl,K.Grotowski,
           S.Micek,R.Planeta,A.Strzalkowski,M.Bosman,P.Leleux,
           P.Macq,J.P.Meulders,C.Pirart)
INSTITUTE  (2BLGPCL,3POLIFJ)
REFERENCE  (J,PR/C,17,951,1978)
FACILITY   (ISOCY,2BLGPCL)
SAMPLE     The targets have a thickness of 1 mg/cm2 and were
           enriched up to 99.8%.
DETECTOR   (SIBAR) Measurements for energies up to 40 MeV were
           made with Si surface barrier detectors;
           (SILI) at 58 MeV Measurements were with made Si(Li)
           drifted detectors.
           19 detectors were mounted inside multidetector
           scattering chamber. Up to nine counters were
           used simultaneously during measurements.
ERR-ANALYS (ERR-DIG) Digitizing error
           (DATA-ERR) The relative errors of consecutive
           experimental points varied from +-0.25%, for small,
           to +-20%, for large scattering angles, respectively.
           They include the statistical errors and errors due to
           the finite angular resolution.
HISTORY    (20050325C) SD
ENDBIB              24
COMMON               2          3
ANG-RSL    ERR-DIG
ADEG       PER-CENT
  0.4        0.3
ENDCOMMON            3
ENDSUBENT           31
SUBENT        D0296002   20050325   20050810                  D040
BIB                  3          3
REACTION   (28-NI-58(A,EL)28-NI-58,,DA)
ERR-ANALYS (ANG-ERR-D) Digitizing error
STATUS     (CURVE) Curves from fig.3
ENDBIB               3
COMMON               1          3
ANG-ERR-D
ADEG
  0.5
ENDCOMMON            3
DATA                 4        313
EN         ANG-CM     DATA-CM    DATA-ERR
MEV        ADEG       MB/SR      MB/SR
 29.000     18.352     6673.9
 29.000     20.931     3510.2
 29.000     23.516     2167.7
 29.000     24.800     1422.0
 29.000     27.045     624.39
 29.000     29.946     303.06
 29.000     32.542     242.93
 29.000     34.833     315.22
 29.000     37.737     165.79
 29.000     40.302     63.252
 29.000     42.566     44.061
 29.000     45.495     41.467
 29.000     48.099     40.626
 29.000     50.674     19.720
 29.000     52.890     4.3769    0.55998
 29.000     55.155     3.0489
 29.000     58.127     8.1460
 29.000     61.066     9.7537
 29.000     63.652     6.1455
 29.000     66.207     1.8429
 29.000     68.054    0.14999    0.26118E-01
 29.000     70.741     1.0087    0.17570
 29.000     73.382     2.3420
 29.000     76.639     2.3407
 29.000     78.901     1.5353
 29.000     81.443    0.34764
 29.000     83.600    0.18940E-010.70016E-02
 29.000     86.305    0.19806    0.22465E-01
 29.000     88.948    0.47868
 29.000     91.237    0.59668
 29.000     93.492    0.33332    0.42626E-01
 29.000     96.013    0.45704E-010.68895E-02
 29.000     98.894    0.13983E-010.27667E-02
 29.000     101.25    0.86786E-010.11103E-01
 29.000     103.89    0.18973
 29.000     106.50    0.21825
 29.000     109.10    0.19733
 29.000     111.36    0.11707
 29.000     113.93    0.44667E-010.50665E-02
 29.000     126.35    0.13173    0.26065E-01
 29.000     128.62    0.10145    0.22543E-01
 29.000     130.87    0.55546E-010.91800E-02
 29.000     133.44    0.24388E-010.36778E-02
 29.000     135.35    0.80863E-020.17963E-02
 29.000     138.65    0.21175E-010.27738E-02
 29.000     140.28    0.26397E-010.58623E-02
 29.000     142.92    0.57709E-010.12823E-01
 29.000     145.52    0.46260E-010.69733E-02
 29.000     148.14    0.62479E-010.18617E-01
 29.000     150.08    0.49094E-01
 29.000     150.41    0.59999E-01
 29.000     152.36    0.47145E-010.93313E-02
 29.000     154.94    0.25812E-010.46939E-02
 29.000     156.86    0.11109E-010.24685E-02
 29.000     159.45    0.74337E-020.22150E-02
 29.000     162.13    0.42578E-010.64209E-02
 29.000     164.43    0.85907E-010.27870E-01
 29.000     166.71    0.73140E-010.11030E-01
 29.000     169.31    0.63529E-010.12574E-01
 29.000     171.22    0.23759E-010.41385E-02
 29.000     173.53    0.43361E-01
 29.000     176.18    0.15344
 34.000     24.442     508.20
 34.000     27.108     229.79
 34.000     29.836     229.60
 34.000     31.929     160.29
 34.000     34.913     87.527
 34.000     36.932     23.776
 34.000     40.326     51.506
 34.000     43.063     57.636
 34.000     45.112     22.838
 34.000     48.012     4.2517
 34.000     50.111     3.2011
 34.000     52.922     9.3816
 34.000     55.941     8.0592
 34.000     57.996     3.4440
 34.000     60.525    0.26906    0.32270E-01
 34.000     63.635    0.74505    0.73755E-01
 34.000     65.542     2.3115
 34.000     67.964     2.2242
 34.000     70.931    0.98677
 34.000     73.794    0.11459    0.13755E-01
 34.000     75.989    0.29431
 34.000     78.497    0.86264
 34.000     80.632     1.0217
 34.000     83.334    0.74063
 34.000     86.000    0.33488    0.40164E-01
 34.000     88.669    0.15724    0.22215E-01
 34.000     91.121    0.22492    0.27843E-01
 34.000     93.582    0.36032
 34.000     94.797    0.37405
 34.000     96.007    0.36005
 34.000     98.400    0.24203
 34.000     100.76    0.99587E-010.11944E-01
 34.000     103.44    0.60908E-010.73051E-02
 34.000     105.89    0.82326E-01
 34.000     108.03    0.10319
 34.000     111.08    0.12931
 34.000     113.79    0.97340E-010.31864E-01
 34.000     115.58    0.76115E-010.26832E-01
 34.000     125.84    0.39188E-010.63889E-02
 34.000     127.04    0.35645E-01
 34.000     128.55    0.33667E-01
 34.000     130.38    0.35609E-01
 34.000     132.80    0.35583E-010.50272E-02
 34.000     135.16    0.16090E-010.37371E-02
 34.000     137.50    0.49879E-020.15034E-02
 34.000     139.63    0.59078E-020.13629E-02
 34.000     142.11    0.12327E-010.28640E-02
 34.000     144.55    0.15450E-010.31320E-02
 34.000     147.04    0.32239E-010.50375E-02
 34.000     149.27    0.28747E-020.45135E-02
 34.000     151.79    0.94364E-020.23993E-02
 34.000     153.94    0.12999E-010.39181E-02
 34.000     156.27    0.39542E-02
 34.000     156.61    0.62200E-02
 34.000     158.70    0.45955E-020.17390E-02
 34.000     161.43    0.45058E-020.19962E-02
 34.000     163.38    0.24168E-010.63008E-02
 34.000     165.81    0.24611E-010.42358E-02
 34.000     168.21    0.18528E-010.25972E-02
 34.000     170.27    0.83789E-020.34401E-02
 34.000     172.74    0.16212E-010.68340E-02
 34.000     174.60    0.27489E-010.10663E-01
 38.000     17.393     7928.5
 38.000     18.359     5216.8
 38.000     19.960     3107.3
 38.000     21.241     2044.7
 38.000     23.797     997.85
 38.000     25.092     486.87
 38.000     26.369     346.97
 38.000     27.337     215.05
 38.000     28.920     187.09
 38.000     29.856     233.01
 38.000     32.383     206.84
 38.000     34.623     102.97
 38.000     36.299     12.692
 38.000     38.504     13.214
 38.000     40.039     31.156
 38.000     42.869     35.843
 38.000     44.784     22.219
 38.000     46.742     5.3953
 38.000     48.742    0.55581
 38.000     51.162     4.6963
 38.000     53.028     8.0489
 38.000     55.243     6.7294
 38.000     56.852     3.4172
 38.000     58.844    0.41291
 38.000     61.048    0.42989
 38.000     63.499     1.9190
 38.000     65.372     2.8604
 38.000     67.588     2.3443
 38.000     69.203     1.0353
 38.000     71.158    0.27228
 38.000     72.724    0.33246
 38.000     74.897    0.68185
 38.000     77.392     1.1923
 38.000     79.287     1.1013
 38.000     81.201    0.69642
 38.000     83.124    0.35366
 38.000     85.044    0.19451
 38.000     86.927    0.23283
 38.000     88.801    0.33348
 38.000     91.002    0.37603
 38.000     92.582    0.34730
 38.000     94.812    0.21530
 38.000     96.728    0.12825
 38.000     98.960    0.74887E-01
 38.000     101.17    0.73439E-01
 38.000     102.42    0.86161E-01
 38.000     104.62    0.10734
 38.000     106.52    0.87965E-01
 38.000     108.11    0.65244E-01
 38.000     110.34    0.35177E-01
 38.000     112.26    0.22693E-01
 38.000     113.85    0.16499E-01
 38.000     115.69    0.44733E-01
 38.000     117.61    0.27729E-01
 38.000     119.81    0.30650E-01
 38.000     121.39    0.27202E-01
 38.000     123.61    0.21853E-01
 38.000     125.52    0.14098E-01
 38.000     127.12    0.90941E-020.13616E-02
 38.000     128.71    0.59845E-02
 38.000     130.58    0.89205E-020.11337E-02
 38.000     132.77    0.12778E-010.18854E-02
 38.000     134.35    0.12782E-01
 38.000     136.55    0.14412E-01
 38.000     138.14    0.11810E-010.13317E-02
 38.000     139.72    0.94869E-02
 38.000     141.62    0.80910E-02
 38.000     143.54    0.50155E-020.56557E-03
 38.000     145.11    0.55430E-020.91062E-03
 38.000     147.00    0.52230E-020.94423E-03
 38.000     148.88    0.65064E-02
 38.000     150.76    0.91352E-020.15003E-02
 38.000     152.64    0.11155E-010.14533E-02
 38.000     154.21    0.12577E-01
 38.000     155.80    0.99032E-02
 38.000     157.72    0.55564E-02
 38.000     159.34    0.19317E-020.33423E-03
 38.000     161.18    0.60217E-020.76491E-03
 38.000     163.05    0.93410E-020.13986E-02
 38.000     165.88    0.12112E-010.18143E-02
 38.000     166.85    0.75067E-020.11239E-02
 38.000     167.48    0.69320E-020.12532E-02
 38.000     167.81    0.45606E-020.78877E-03
 38.000     168.77    0.34503E-020.73427E-03
 38.000     170.00    0.67984E-020.88570E-03
 38.000     171.24    0.12124E-010.15409E-02
 38.000     172.75    0.41755E-01
 38.000     174.31    0.63489E-01
 38.000     175.57    0.63504E-01
 58.000     23.970     229.68
 58.000     24.529     137.35
 58.000     25.664     61.729
 58.000     26.435     12.007
 58.000     27.566     5.0967
 58.000     28.873     20.445
 58.000     29.829     42.939
 58.000     30.744     52.924
 58.000     31.940     50.928
 58.000     33.105     33.491
 58.000     33.951     17.198
 58.000     34.743     4.3669
 58.000     36.131     1.0877
 58.000     36.832     3.9678
 58.000     38.392     8.8214
 58.000     39.322     13.153
 58.000     40.524     13.920
 58.000     41.408     11.504
 58.000     42.576     7.8589
 58.000     43.421     3.9595
 58.000     44.555     1.7459
 58.000     45.417     1.0845
 58.000     46.940     1.4982
 58.000     47.877     2.4568
 58.000     49.398     3.3299
 58.000     50.884     2.8582    0.87242
 58.000     52.060     2.1475
 58.000     52.620     1.3089
 58.000     53.474    0.73926
 58.000     54.942    0.50497
 58.000     55.854    0.59915
 58.000     56.775    0.79691
 58.000     58.295     1.0597
 58.000     59.798     1.1430
 58.000     60.391     1.0590
 58.000     61.576    0.89197
 58.000     62.455    0.69625
 58.000     63.336    0.55391
 58.000     64.210    0.40837
 58.000     65.710    0.41602
 58.000     67.791    0.34369
 58.000     69.314    0.47478
 58.000     71.411    0.47446
 58.000     73.181    0.33663
 58.000     74.367    0.28898
 58.000     75.855    0.25281
 58.000     77.929    0.18989
 58.000     79.757    0.28304
 58.000     81.836    0.22510
 58.000     83.609    0.16590
 58.000     84.498    0.14517
 58.000     85.688    0.13194
 58.000     87.444    0.77386E-01
 58.000     89.561    0.10095
 58.000     91.635    0.75827E-01
 58.000     93.720    0.65073E-01
 58.000     94.611    0.59149E-01
 58.000     95.492    0.47057E-01
 58.000     97.545    0.27078E-010.32788E-02
 58.000     99.338    0.25560E-01
 58.000     101.70    0.15870E-010.19217E-02
 58.000     103.19    0.15563E-010.18796E-02
 58.000     104.67    0.11917E-010.18743E-02
 58.000     105.58    0.13611E-010.16468E-02
 58.000     107.33    0.76854E-020.95871E-03
 58.000     108.83    0.73948E-020.92246E-03
 58.000     111.46    0.32591E-020.46034E-03
 58.000     113.26    0.33198E-020.52293E-03
 58.000     115.33    0.24005E-020.33906E-03
 58.000     117.44    0.30724E-020.43372E-03
 58.000     118.63    0.27924E-020.65070E-03
 58.000     119.52    0.23078E-020.36333E-03
 58.000     121.30    0.18707E-020.26424E-03
 58.000     123.10    0.20176E-020.34970E-03
 58.000     125.21    0.24390E-020.34450E-03
 58.000     127.33    0.31816E-020.38492E-03
 58.000     127.91    0.26297E-020.31815E-03
 58.000     128.80    0.21323E-020.33571E-03
 58.000     130.63    0.34957E-020.42292E-03
 58.000     131.83    0.32382E-020.29369E-03
 58.000     132.72    0.29999E-020.47230E-03
 58.000     134.47    0.17596E-020.25097E-03
 58.000     136.55    0.13993E-020.29339E-03
 58.000     137.49    0.24295E-020.39961E-03
 58.000     138.67    0.17910E-020.31042E-03
 58.000     140.47    0.18244E-020.34450E-03
 58.000     141.96    0.18235E-020.25757E-03
 58.000     144.07    0.20428E-020.28757E-03
 58.000     146.19    0.28756E-020.47329E-03
 58.000     147.99    0.27145E-020.55430E-03
 58.000     149.49    0.29841E-020.98323E-03
 58.000     151.59    0.29821E-020.12186E-02
 58.000     153.62    0.12898E-020.18382E-03
 58.000     155.14    0.17151E-02
 58.000     156.94    0.17807E-02
 58.000     159.05    0.22361E-02
 58.000     161.09    0.10047E-020.18773E-03
 58.000     162.56    0.76927E-030.16120E-03
 58.000     167.08    0.98385E-030.22915E-03
 58.000     170.53    0.17058E-030.88735E-04
ENDDATA            315
ENDSUBENT          327
SUBENT        D0296003   20050325   20050810                  D040
BIB                  4          4
REACTION   (28-NI-58(A,INL)28-NI-58,PAR,DA)
EN-SEC     (E-LVL,28-NI-58)
ERR-ANALYS (ANG-ERR-D) Digitizing error
STATUS     (CURVE) Curves from fig.3
ENDBIB               4
COMMON               2          3
ANG-ERR-D  E-LVL
ADEG       MEV
  0.5        1.452
ENDCOMMON            3
DATA                 4        290
EN         ANG-CM     DATA-CM    DATA-ERR
MEV        ADEG       MB/SR      MB/SR
 29.000     24.010     37.013     7.2945
 29.000     26.586     22.000     3.8146
 29.000     29.487     12.817     2.5260
 29.000     32.321     2.2962     2.9157
 29.000     34.850    0.58953     1.1803
 29.000     37.889     4.0137     1.2967
 29.000     39.883     8.0757     1.0289
 29.000     42.475     6.3501    0.80857
 29.000     45.330     1.6302
 29.000     47.873    0.54273    0.98324E-01
 29.000     50.874     1.8728    0.36953
 29.000     52.837     2.1967    0.28667
 29.000     55.443     2.1954
 29.000     58.312    0.73086
 29.000     61.171    0.20325    0.65645E-01
 29.000     63.805    0.33480    0.86728E-01
 29.000     65.802    0.71526
 29.000     68.431     1.0877
 29.000     71.013    0.71447
 29.000     73.583    0.38429    0.50174E-01
 29.000     76.454    0.13051    0.19286E-01
 29.000     78.746    0.16253    0.18357E-01
 29.000     81.397    0.36862
 29.000     84.007    0.39908
 29.000     86.593    0.27834
 29.000     88.832    0.13548
 29.000     91.076    0.71432E-010.17559E-01
 29.000     93.663    0.51852E-010.89949E-02
 29.000     96.279    0.62037E-010.93210E-02
 29.000     98.933    0.14644
 29.000     101.20    0.11985
 29.000     103.78    0.72678E-010.12608E-01
 29.000     106.31    0.20621E-010.40639E-02
 29.000     108.91    0.16214E-010.39871E-02
 29.000     111.55    0.34635E-010.52011E-02
 29.000     113.54    0.58213E-01
 29.000     126.19    0.25583E-010.12575E-01
 29.000     128.14    0.21794E-010.48218E-02
 29.000     130.73    0.18563E-010.27891E-02
 29.000     133.36    0.25039E-010.31902E-02
 29.000     135.64    0.25532E-010.38342E-02
 29.000     138.26    0.36568E-010.54943E-02
 29.000     140.53    0.31778E-010.55126E-02
 29.000     142.48    0.27617E-010.35166E-02
 29.000     147.98    0.13167E-010.22831E-02
 29.000     149.93    0.13975E-010.17806E-02
 29.000     152.25    0.25443E-010.50142E-02
 29.000     154.87    0.32321E-010.11303E-01
 29.000     156.50    0.33628E-010.50499E-02
 29.000     159.07    0.17378E-010.51564E-02
 29.000     161.70    0.29795E-010.44766E-02
 29.000     163.37    0.59952E-010.25953E-01
 29.000     165.97    0.51064E-010.76684E-02
 29.000     168.59    0.71688E-010.17628E-01
 29.000     170.52    0.47095E-010.12769E-01
 29.000     172.82    0.73069E-01
 29.000     175.37    0.25830E-01
 34.000     26.203     9.2793     1.4384
 34.000     28.925     8.7644     1.0762
 34.000     31.624     6.3700     1.0878
 34.000     34.074     8.4273     1.1718
 34.000     36.810     9.2453
 34.000     40.057     3.5555    0.34877
 34.000     42.655    0.85658    0.13845
 34.000     44.814     1.2920    0.55151
 34.000     47.921     2.9961    0.35641
 34.000     50.327     2.4366    0.28899
 34.000     52.940    0.69472    0.14298
 34.000     54.584    0.10101    0.13345
 34.000     58.099    0.74739    0.12080
 34.000     60.873     1.2376
 34.000     63.867    0.83454
 34.000     65.877    0.24249    0.39135E-01
 34.000     68.259    0.15175    0.16118E-01
 34.000     70.455    0.34549    0.42422E-01
 34.000     73.829    0.54076
 34.000     75.934    0.44813    0.23166E-01
 34.000     78.615    0.27011    0.33166E-01
 34.000     80.960    0.11199    0.13751E-01
 34.000     83.418    0.16269    0.19976E-01
 34.000     86.154    0.17848    0.28826E-01
 34.000     88.313    0.26921    0.33030E-01
 34.000     91.323    0.21483    0.29873E-01
 34.000     93.715    0.15042    0.15977E-01
 34.000     96.101    0.97722E-010.13580E-01
 34.000     98.832    0.10135    0.14093E-01
 34.000     101.26    0.11120    0.13665E-01
 34.000     103.41    0.14713
 34.000     106.13    0.13897
 34.000     108.81    0.82211E-010.87321E-02
 34.000     110.90    0.58655E-010.62301E-02
 34.000     113.92    0.52370E-010.55625E-02
 34.000     116.01    0.36672E-010.67231E-02
 34.000     125.73    0.42452E-010.59422E-02
 34.000     128.13    0.32640E-010.45687E-02
 34.000     130.24    0.30835E-010.43161E-02
 34.000     132.70    0.42350E-010.59229E-02
 34.000     134.81    0.40008E-010.47545E-02
 34.000     137.83    0.33145E-010.39428E-02
 34.000     139.94    0.31312E-010.30751E-02
 34.000     142.41    0.49025E-010.68681E-02
 34.000     144.82    0.42969E-010.51064E-02
 34.000     146.94    0.44575E-010.72048E-02
 34.000     149.24    0.10541E-010.59802E-02
 34.000     151.70    0.15603E-010.42999E-02
 34.000     154.51    0.39000E-010.71546E-02
 34.000     156.30    0.27828E-010.38953E-02
 34.000     158.69    0.19123E-010.30886E-02
 34.000     160.50    0.17733E-010.24800E-02
 34.000     162.98    0.34111E-010.62492E-02
 34.000     165.70    0.30459E-010.69626E-02
 34.000     167.85    0.40301E-010.14064E-01
 34.000     170.29    0.49471E-010.14819E-01
 34.000     172.72    0.55304E-010.10146E-01
 34.000     174.92    0.12829    0.17957E-01
 38.000     22.956     7.6740
 38.000     25.124     25.841
 38.000     26.387     24.347
 38.000     27.337     21.184
 38.000     28.602     18.803
 38.000     28.607     15.720
 38.000     30.566     1.9077
 38.000     32.493    0.60170    0.10859
 38.000     34.630     5.4796
 38.000     36.511     7.6872
 38.000     38.414     5.2683
 38.000     40.336     2.0275
 38.000     42.906    0.43821
 38.000     44.759     1.4755
 38.000     46.627     3.0817
 38.000     49.467     2.7909
 38.000     50.747     1.5674
 38.000     52.994    0.43876
 38.000     54.583    0.28896    0.47380E-01
 38.000     57.065     1.0125
 38.000     59.574     1.5080
 38.000     61.471     1.2610
 38.000     63.383    0.66724
 38.000     65.931    0.28937
 38.000     67.821    0.30119
 38.000     69.378    0.55825
 38.000     71.578    0.69504
 38.000     73.786    0.65495
 38.000     75.691    0.43135
 38.000     77.599    0.25719
 38.000     79.810    0.21940
 38.000     81.697    0.25732
 38.000     83.895    0.33338
 38.000     85.471    0.33344
 38.000     87.052    0.29015
 38.000     89.268    0.21533
 38.000     91.169    0.15980
 38.000     93.381    0.13364
 38.000     95.270    0.14474
 38.000     97.158    0.16314
 38.000     100.63    0.15999
 38.000     101.26    0.14776
 38.000     102.84    0.11874
 38.000     105.06    0.89893E-01
 38.000     106.65    0.55771E-01
 38.000     108.54    0.60406E-01
 38.000     110.43    0.66741E-01
 38.000     112.94    0.75228E-01
 38.000     114.84    0.72311E-01
 38.000     116.74    0.55842E-01
 38.000     118.01    0.38268E-01
 38.000     119.91    0.30146E-01
 38.000     122.11    0.32010E-01
 38.000     124.00    0.33987E-01
 38.000     125.58    0.36810E-01
 38.000     127.15    0.33330E-01
 38.000     129.36    0.34010E-01
 38.000     131.26    0.29012E-010.43360E-02
 38.000     133.15    0.27886E-01
 38.000     134.73    0.21534E-01
 38.000     136.95    0.17306E-01
 38.000     138.23    0.97196E-02
 38.000     140.13    0.72131E-02
 38.000     141.69    0.11402E-01
 38.000     143.88    0.16317E-01
 38.000     145.46    0.18760E-01
 38.000     147.04    0.14487E-01
 38.000     148.63    0.84669E-02
 38.000     150.85    0.62837E-02
 38.000     152.74    0.68059E-02
 38.000     154.93    0.10136E-01
 38.000     156.20    0.93615E-02
 38.000     158.10    0.66763E-02
 38.000     160.93    0.79886E-020.13789E-02
 38.000     163.10    0.22489E-01
 38.000     166.24    0.36999E-01
 38.000     166.88    0.29728E-01
 38.000     168.13    0.37752E-01
 38.000     169.08    0.31565E-01
 38.000     170.04    0.20787E-01
 38.000     171.30    0.22069E-01
 38.000     173.20    0.19590E-01
 38.000     174.77    0.18458E-010.31852E-02
 58.000     23.450     1.1600     1.0627
 58.000     23.884     5.1255
 58.000     25.126     8.3040
 58.000     26.639     9.8098
 58.000     28.113     7.5596
 58.000     28.374     4.9309
 58.000     29.787     1.9470
 58.000     30.861    0.49235
 58.000     32.108    0.84337
 58.000     33.094     2.2148
 58.000     34.339     3.7241
 58.000     34.950     4.2403
 58.000     36.139     3.8627
 58.000     37.004     2.6633
 58.000     38.157     1.6123
 58.000     39.611    0.99423
 58.000     40.474    0.67291
 58.000     42.004    0.95718
 58.000     42.643     1.4945
 58.000     42.958     1.7663
 58.000     44.765     1.9732
 58.000     45.652     1.7321
 58.000     47.126     1.3348
 58.000     47.678    0.79336
 58.000     48.836    0.50780
 58.000     50.042    0.55698
 58.000     51.540    0.55669
 58.000     52.467    0.76315
 58.000     52.773    0.82193
 58.000     54.278    0.88486
 58.000     55.765    0.79113
 58.000     56.049    0.66927
 58.000     57.227    0.53533
 58.000     58.399    0.39754
 58.000     59.578    0.32394
 58.000     61.078    0.32984
 58.000     62.883    0.36172
 58.000     63.795    0.41953
 58.000     64.993    0.41936
 58.000     65.882    0.37502
 58.000     69.981    0.13234
 58.000     72.094    0.15924
 58.000     73.900    0.17462
 58.000     75.401    0.18114
 58.000     76.592    0.16810
 58.000     79.867    0.13436
 58.000     81.947    0.11150
 58.000     84.042    0.10937
 58.000     86.138    0.10929
 58.000     89.426    0.10135
 58.000     91.789    0.69844E-01
 58.000     94.171    0.60150E-01
 58.000     96.263    0.56849E-01
 58.000     100.15    0.49850E-01
 58.000     101.91    0.35661E-01
 58.000     103.69    0.27479E-01
 58.000     104.87    0.22811E-01
 58.000     105.76    0.20782E-01
 58.000     107.54    0.17901E-01
 58.000     109.04    0.17892E-01
 58.000     112.01    0.13781E-01
 58.000     114.35    0.75994E-020.92651E-03
 58.000     116.15    0.78821E-02
 58.000     117.93    0.64215E-020.58815E-02
 58.000     119.39    0.41097E-020.56783E-03
 58.000     120.29    0.42639E-02
 58.000     121.79    0.41833E-020.51003E-03
 58.000     123.90    0.48499E-020.59130E-03
 58.000     125.10    0.51257E-020.54102E-03
 58.000     127.78    0.44138E-020.53813E-03
 58.000     129.27    0.40956E-020.49934E-03
 58.000     131.08    0.43276E-020.45638E-03
 58.000     132.88    0.45728E-020.55709E-03
 58.000     134.96    0.37949E-020.46267E-03
 58.000     136.72    0.26157E-020.23198E-03
 58.000     137.95    0.37909E-020.64260E-03
 58.000     138.86    0.40820E-020.56678E-03
 58.000     140.38    0.51941E-02
 58.000     142.48    0.56955E-02
 58.000     144.56    0.48152E-020.74125E-03
 58.000     146.05    0.44681E-020.11487E-02
 58.000     147.89    0.64741E-020.89335E-03
 58.000     149.70    0.76473E-020.12963E-02
 58.000     150.60    0.82345E-020.97077E-03
 58.000     151.80    0.80796E-020.16491E-02
 58.000     153.85    0.46247E-020.94392E-03
 58.000     155.04    0.42917E-020.59590E-03
 58.000     157.16    0.57727E-020.97853E-03
 58.000     159.58    0.72080E-020.75947E-03
 58.000     161.39    0.83575E-02
 58.000     162.77    0.22342E-020.45630E-03
 58.000     167.27    0.24028E-020.38521E-03
ENDDATA            292
ENDSUBENT          305
SUBENT        D0296004   20050325   20050810                  D040
BIB                  3          3
REACTION   (28-NI-60(A,EL)28-NI-60,,DA)
ERR-ANALYS (ANG-ERR-D) Digitizing error
STATUS     (CURVE) Curves from fig.2
ENDBIB               3
COMMON               1          3
ANG-ERR-D
ADEG
  0.5
ENDCOMMON            3
DATA                 4        112
EN         ANG-CM     DATA-CM    DATA-ERR
MEV        ADEG       MB/SR      MB/SR
 29.000     25.559    0.44634
 29.000     27.663    0.35116
 29.000     30.310    0.23159
 29.000     33.130    0.28126
 29.000     35.660    0.42768
 29.000     38.034    0.31055
 29.000     40.747    0.12853
 29.000     43.313    0.15114
 29.000     45.603    0.19886
 29.000     48.194    0.19597
 29.000     51.165    0.81119E-01
 29.000     53.665    0.24345E-01
 29.000     58.651    0.94121E-01
 29.000     61.743    0.10382
 29.000     63.895    0.58291E-01
 29.000     66.741    0.93507E-02
 29.000     69.168    0.46923E-020.43118E-03
 29.000     71.473    0.35003E-01
 29.000     74.257    0.54971E-01
 29.000     79.047    0.21706E-01
 29.000     81.219    0.16892E-020.20351E-03
 29.000     84.450    0.43662E-02
 29.000     86.582    0.17687E-01
 29.000     89.132    0.23274E-01
 29.000     91.488    0.19217E-01
 29.000     94.469    0.74597E-02
 29.000     96.738    0.29095E-030.39167E-04
 29.000     99.259    0.29455E-02
 29.000     101.67    0.10327E-01
 29.000     104.49    0.20088E-020.35008E-03
 29.000     106.51    0.18169E-01
 29.000     108.66    0.10534E-01
 29.000     111.36    0.47246E-02
 29.000     114.09    0.17196E-020.27854E-03
 29.000     126.50    0.12096E-01
 29.000     128.40    0.63676E-02
 29.000     130.82    0.34074E-020.53006E-03
 29.000     133.53    0.14103E-020.24744E-03
 29.000     136.09    0.17403E-020.27100E-03
 29.000     138.32    0.34768E-020.54141E-03
 29.000     140.05    0.64080E-020.99682E-03
 29.000     142.84    0.92868E-020.12736E-02
 29.000     145.23    0.60261E-020.71724E-03
 29.000     147.39    0.32242E-020.50156E-03
 29.000     149.85    0.12715E-020.24577E-03
 29.000     152.97    0.11200E-020.19519E-03
 29.000     155.06    0.98607E-030.21126E-03
 29.000     156.91    0.78824E-030.26913E-03
 29.000     158.94    0.10042E-020.18938E-03
 29.000     161.97    0.17091E-020.29785E-03
 29.000     163.69    0.33056E-02
 29.000     163.98    0.27264E-02
 29.000     166.51    0.41457E-020.10456E-02
 29.000     169.09    0.42188E-020.84971E-03
 29.000     171.52    0.21862E-020.63956E-03
 29.000     173.63    0.99097E-020.16052E-02
 29.000     175.96    0.99223E-020.21258E-02
 34.000     23.956    0.22221
 34.000     25.797    0.17257
 34.000     29.624    0.27811
 34.000     31.717    0.23014
 34.000     34.618    0.14551
 34.000     37.008    0.86330E-01
 34.000     39.759    0.19709
 34.000     44.796    0.70492E-01
 34.000     47.597    0.11402E-01
 34.000     50.287    0.43919E-01
 34.000     53.038    0.10027
 34.000     55.389    0.82984E-01
 34.000     57.876    0.21592E-01
 34.000     61.240    0.23502E-02
 34.000     63.261    0.33204E-01
 34.000     65.528    0.56976E-01
 34.000     68.404    0.44267E-01
 34.000     70.903    0.10308E-01
 34.000     73.609    0.37420E-02
 34.000     75.993    0.21763E-01
 34.000     78.239    0.44458E-01
 34.000     80.842    0.39207E-01
 34.000     83.495    0.22538E-01
 34.000     86.229    0.64500E-02
 34.000     89.329    0.67733E-02
 34.000     91.293    0.17001E-01
 34.000     93.815    0.30115E-01
 34.000     96.469    0.17039E-01
 34.000     99.135    0.87662E-02
 34.000     101.58    0.32326E-020.68407E-03
 34.000     104.18    0.28964E-02
 34.000     106.12    0.90762E-020.13917E-02
 34.000     108.71    0.90865E-020.12285E-02
 34.000     111.04    0.85369E-020.13090E-02
 34.000     113.43    0.53964E-02
 34.000     125.58    0.57802E-02
 34.000     128.24    0.32705E-02
 34.000     130.68    0.12253E-020.28954E-03
 34.000     133.01    0.12265E-020.31896E-03
 34.000     135.60    0.11896E-020.31897E-03
 34.000     137.47    0.73999E-030.25995E-03
 34.000     140.21    0.18877E-020.46876E-03
 34.000     142.46    0.38561E-02
 34.000     145.03    0.43135E-020.82166E-03
 34.000     147.22    0.15408E-020.34517E-03
 34.000     152.22    0.75667E-030.27884E-03
 34.000     154.39    0.30079E-020.48128E-03
 34.000     156.78    0.18715E-020.34850E-03
 34.000     158.96    0.70107E-030.34642E-03
 34.000     161.62    0.33715E-020.53915E-03
 34.000     164.20    0.37714E-020.70266E-03
 34.000     166.19    0.78264E-020.14898E-02
 34.000     168.31    0.51060E-020.53574E-03
 34.000     170.34    0.69067E-020.82190E-03
 34.000     172.93    0.70250E-020.83667E-03
ENDDATA            114
ENDSUBENT          126
SUBENT        D0296005   20050325   20050810                  D040
BIB                  3          3
REACTION   (28-NI-58(A,EL)28-NI-58,,DA)
ERR-ANALYS (EN-ERR-DIG) Digitizing error
STATUS     (CURVE) Curves from fig.4
ENDBIB               3
COMMON               2          3
EN-ERR-DIG ANG-CM
MEV        ADEG
  0.05       178.5
ENDCOMMON            3
DATA                 3         14
EN         DATA-CM    DATA-ERR
MEV        MB/SR      MB/SR
 25.141    0.48892E-010.85316E-02
 26.125    0.18000    0.21465E-01
 27.137    0.23197    0.32785E-01
 28.114    0.26553    0.25917E-01
 29.125    0.22793    0.24371E-01
 30.201    0.94469E-010.98437E-02
 31.177    0.10020    0.97792E-02
 32.258    0.95208E-010.13812E-01
 33.199    0.92010E-010.10704E-01
 34.207    0.56294E-010.10952E-01
 35.256    0.81673E-010.10277E-01
 36.267    0.81646E-010.25404E-01
 37.312    0.74361E-010.31104E-01
 38.322    0.59651E-010.75562E-02
ENDDATA             16
ENDSUBENT           28
SUBENT        D0296006   20050325   20050810                  D040
BIB                  3          3
REACTION   (28-NI-60(A,EL)28-NI-60,,DA)
ERR-ANALYS (EN-ERR-DIG) Digitizing error
STATUS     (CURVE) Curves from fig.4
ENDBIB               3
COMMON               2          3
EN-ERR-DIG ANG-CM
MEV        ADEG
  0.05       178.5
ENDCOMMON            3
DATA                 3         14
EN         DATA-CM    DATA-ERR
MEV        MB/SR      MB/SR
 25.036    0.16096    0.17210E-01
 26.121    0.21267    0.22157E-01
 27.031    0.30071    0.31330E-01
 28.021    0.52541E-010.81337E-02
 28.995    0.42850E-010.70529E-02
 30.039    0.36766E-010.38313E-02
 31.057    0.64234E-010.71787E-02
 32.071    0.84157E-010.87698E-02
 33.049    0.98771E-010.12511E-01
 34.095    0.92233E-010.96093E-02
 35.137    0.67379E-010.14218E-01
 36.111    0.56365E-010.98355E-02
 37.115    0.33043E-010.54387E-02
 38.119    0.18256E-010.33685E-02
ENDDATA             16
ENDSUBENT           28
ENDENTRY             6
