ENTRY            A1006   19990319   19990505
SUBENT        A1006001   19990319   19990505
BIB                  9         12
INSTITUTE  (1USACAL)
REFERENCE  (J,NP/A,113,(3),557,196806)
AUTHOR     (A.D.BACHER,T.A.TOMBRELLO)
TITLE      Search for states of 4He using 2H(d,d) and 2H(d,p)3H
FACILITY   (VDGT)
SAMPLE     A gas target with 99.99% pure helium to a pressure of
           approximately 10 cm
METHOD     (PHD)
DETECTOR   (SOLST) The detection system consisted of 26 mu-m and
           2 mm thick silicon surface-barrier detectors
HISTORY    (19810219C) Compilation produced by Arzamas RFNC-VNIIEF
           (19990115U)CNPD: corrected 4-dig. year and lower cases.
ENDBIB              12
NOCOMMON
ENDSUBENT           15
SUBENT        A1006002   19990319   19990505
BIB                  3          6
REACTION   (1-H-2(D,EL)1-H-2,,DA,,,EXP)
ERR-ANALYS (EN-ERR) Digitizing error
           (DATA-ERR) Digitizing error
           (ERR-S) Statistical uncertainties were always less
           than 1% even at the largest scattering angle
STATUS     (CURVE) FIG 1
ENDBIB               6
COMMON               3          3
EN-ERR     DATA-ERR   ERR-S
MEV        MB/SR      PER-CENT
 0.03       1.639      1.
ENDCOMMON            3
DATA                 3        124
EN         ANG-CM     DATA-CM
MEV        ADEG       MB/SR
     3.229     30.6      617.2
     3.289     54.8      299.1
     3.295     90.       197.5
     3.333     70.       240.1
     3.516     30.6      592.5
     3.54      90.       194.2
     3.575     54.8      287.6
     3.579     70.       223.7
     3.722     30.6      564.6
     3.82      54.8      281.
     3.824     70.       217.
     3.867     90.       184.2
     4.051     30.6      528.4
     4.066     54.8      272.7
     4.11      70.       210.4
     4.112     90.       179.2
     4.216     30.6      498.9
     4.311     54.8      264.4
     4.315     70.       205.4
     4.317     90.       171.
     4.542     30.6      497.2
     4.556     54.8      261.1
     4.562     90.       169.3
     4.6       70.       202.1
     4.789     30.6      470.9
     4.802     54.8      252.8
     4.805     70.       193.8
     4.807     90.       162.7
     5.035     30.6      457.7
     5.052     90.       154.4
     5.087     54.8      256.
     5.091     70.       193.7
     5.279     30.6      457.6
     5.295     70.       188.8
     5.297     90.       149.4
     5.333     54.8      244.5
     5.566     30.6      439.5
     5.577     54.8      246.1
     5.581     70.       187.1
     5.583     90.       151.
     5.812     30.6      426.3
     5.823     54.8      239.5
     5.826     70.       182.1
     5.828     90.       152.6
     6.056     30.6      432.8
     6.068     54.8      231.2
     6.073     90.       144.3
     6.112     70.       177.1
     6.302     30.6      419.7
     6.313     54.8      229.5
     6.357     70.       177.
     6.359     90.       147.5
     6.548     30.6      404.8
     6.558     54.8      224.5
     6.563     90.       140.9
     6.602     70.       168.8
     6.792     30.6      411.3
     6.803     54.8      224.4
     6.848     70.       163.8
     6.849     90.       140.8
     6.996     30.6      409.6
     7.089     54.8      222.7
     7.094     90.       139.1
     7.133     70.       162.1
     7.253     54.8      216.1
     7.283     30.6      398.1
     7.338     70.       158.7
     7.38      90.       134.1
     7.528     30.6      396.4
     7.579     54.8      214.4
     7.583     70.       155.4
     7.625     90.       130.8
     7.788     70.       135.7
     7.813     30.6      401.2
     7.826     54.8      183.2
     7.87      90.       129.1
     8.018     30.6      391.3
     8.071     54.8      179.8
     8.115     70.       133.9
     8.115     90.       124.1
     8.304     30.6      386.3
     8.317     70.       155.2
     8.319     90.       124.
     8.355     54.8      202.7
     8.549     30.6      381.4
     8.562     70.       155.1
     8.564     90.       120.7
     8.601     54.8      196.1
     8.753     30.6      376.4
     8.808     70.       146.9
     8.809     90.       115.7
     8.887     54.8      191.1
     8.998     30.6      378.
     9.091     54.8      191.1
     9.093     70.       145.2
     9.095     90.       112.4
     9.284     30.6      381.2
     9.336     54.8      184.4
     9.338     70.       145.1
     9.381     90.       113.9
     9.54      54.8      186.
     9.544     90.       113.9
     9.57      30.6      377.8
     9.584     70.       140.1
     9.774     30.6      371.2
     9.829     70.       138.4
     9.83      90.       108.9
     9.867     54.8      181.
    10.02      30.6      369.5
    10.07      54.8      176.
    10.07      70.       133.4
    10.08      90.       110.5
    10.3       30.6      371.1
    10.32      54.8      176.
    10.36      70.       133.3
    10.36      90.       107.1
    10.51      30.6      371.
    10.56      54.8      169.4
    10.6       70.       130.
    10.61      90.       105.4
    10.79      30.6      370.9
    10.81      70.       128.3
    10.85      54.8      170.9
    10.85      90.       105.3
ENDDATA            126
ENDSUBENT          141
SUBENT        A1006003   19990319   19990505
BIB                  3          6
REACTION   (1-H-2(D,P)1-H-3,,DA,,,EXP)
ERR-ANALYS (EN-ERR) Digitizing error
           (DATA-ERR) Error bars and digitizing error. error bars
           indicate the typical statistical error for each
           angle.
STATUS     (CURVE) Fig 2
ENDBIB               6
COMMON               1          3
EN-ERR
MEV
 0.1
ENDCOMMON            3
DATA                 4        130
EN         ANG        DATA       DATA-ERR
MEV        ADEG       MB/SR      MB/SR
     3.159     45.         5.58       0.0961
     3.176     35.         8.777      0.0943
     3.22      15.3       34.01       0.4716
     3.263     27.4       15.86       0.0943
     3.435     45.         6.174      0.0961
     3.452     15.3       35.97       0.4716
     3.47      27.4       14.64       0.0943
     3.47      35.         8.134      0.377
     3.693     15.3       34.62       0.4716
     3.719     27.4       13.81       0.4712
     3.731     45.         5.423      0.3785
     3.767     35.         7.303      0.0943
     3.924     15.3       36.58       0.4716
     3.951     35.         7.691      0.0943
     3.958     27.4       13.73       0.0943
     3.962     45.         5.821      0.0961
     4.154     15.3       39.01       0.4716
     4.192     35.         7.423      0.0943
     4.211     27.4       12.61       0.0943
     4.253     45.         5.359      0.0961
     4.439     15.3       39.09       0.4716
     4.441     35.         6.589      0.0943
     4.477     27.4       13.85       0.0943
     4.49      45.         5.373      0.0961
     4.678     15.3       38.22       0.4716
     4.683     45.         5.193      0.0961
     4.685     35.         6.131      0.377
     4.735     27.4       12.45       0.0943
     4.915     15.3       38.29       0.4716
     4.964     45.         5.402      0.3843
     4.973     27.4       12.37       0.4712
     4.975     35.         5.772      0.0943
     5.012     45.         5.405      0.0961
     5.213     35.         5.691      0.0943
     5.221     27.4       11.64       0.0943
     5.244     45.         5.708      0.0961
     5.251     15.3       36.98       0.4716
     5.431     15.3       40.34       0.4716
     5.46      35.         5.046      0.0943
     5.485     45.         5.434      0.0961
     5.508     27.4       11.46       0.0943
     5.691     35.         5.437      0.0943
     5.694     27.4       11.76       0.0943
     5.717     15.3       39.95       0.4716
     5.724     45.         5.352      0.0961
     5.901     27.4       10.54       0.0943
     5.905     15.3       40.48       0.4716
     5.908     45.         5.748      0.0961
     5.938     35.         4.792      0.377
     6.193     15.3       39.15       0.4716
     6.193     27.4        9.525      0.0943
     6.2       27.4        9.996      0.0943
     6.206     45.         5.961      0.0961
     6.237     45.         4.805      0.0961
     6.24      35.         3.583      0.0943
     6.428     15.3       40.16       0.4716
     6.432     45.         5.588      0.0961
     6.475     27.4       10.2        0.0943
     6.482     35.         3.22       0.0943
     6.681     27.4        9.082      0.0943
     6.693     35.         5.026      0.0943
     6.701     45.         6.662      0.0961
     6.711     15.3       40.72       0.4716
     6.948     45.         6.004      0.0961
     6.952     15.3       39.38       0.4716
     6.957     27.4        9.664      0.0943
     6.976     35.         5.137      0.0943
     7.156     27.4        9.016      0.0943
     7.179     45.         6.403      0.0961
     7.183     15.3       41.33       0.4716
     7.274     35.         4.211      0.3742
     7.424     15.3       39.99       0.4716
     7.44      27.4        9.033      0.5625
     7.453     35.         4.977      0.0943
     7.461     45.         6.613      0.4804
     7.68      15.3       33.46       0.4716
     7.698     35.         4.426      0.0943
     7.698     45.         6.627      0.0961
     7.727     27.4        8.862      0.0943
     7.913     15.3       34.95       0.4716
     7.925     27.4        8.308      0.0943
     7.933     35.         4.534      0.0943
     7.935     45.         6.642      0.0961
     8.134     15.3       40.68       0.4716
     8.168     27.4        7.945      0.0943
     8.22      45.         6.563      0.0961
     8.223     35.         4.174      0.0943
     8.415     45.         6.19       0.0961
     8.448     27.4        8.245      0.0943
     8.45      35.         4.848      0.377
     8.465     15.3       40.78       0.4716
     8.69      35.         4.674      0.0943
     8.694     45.         6.592      0.3843
     8.697     27.4        7.411      0.2827
     8.704     15.3       40.38       0.4716
     8.897     15.3       39.02       0.4716
     8.934     27.4        7.425      0.0943
     8.983     35.         4.125      0.0943
     8.983     45.         6.321      0.0961
     9.142     15.3       36.26       0.4716
     9.151     27.4        5.552      0.0943
     9.215     45.         6.624      0.0961
     9.26      35.         4.614      0.0943
     9.419     15.3       39.17       0.4716
     9.448     35.         4.719      0.0943
     9.454     45.         6.542      0.0961
     9.484     27.4        5.478      0.0943
     9.675     15.3       32.65       0.4716
     9.677     45.         7.517      0.0961
     9.684     35.         4.828      1.131
     9.689     27.4        7.659      0.0943
     9.945     15.3       37.45       0.4716
     9.961     27.4        5.318      1.882
     9.968     35.         4.845      0.0943
     9.974     45.         6.67       0.4775
    10.2       35.         5.048      0.0943
    10.21      45.         7.069      0.0961
    10.22      15.3       39.89       0.4716
    10.23      27.4        6.654      0.0943
    10.43      27.4        5.817      0.0943
    10.45      35.         4.214      0.0943
    10.47      15.3       36.66       0.4716
    10.48      45.         8.047      0.0961
    10.64      35.         4.75       0.0943
    10.69      45.         6.425      0.0961
    10.7       15.3       37.67       0.4716
    10.91      15.3       30.66       0.4716
    10.93      45.         5.96       0.4833
    10.95      27.4        5.754      0.3741
    10.96      35.         5.187      0.377
ENDDATA            132
ENDSUBENT          147
ENDENTRY             3
