ENTRY            A1084   19990319   19990505
SUBENT        A1084001   19990319   19990505
BIB                 10         43
INSTITUTE  (1USAWIS)
REFERENCE  (J,PR,98,(3),586,195505)
AUTHOR     (A.GALONSKY,R.A.DOUGLAS,W.HAEBERLI,M.T.MC-ELLISTREM,
           H.T.RICHARDS)
TITLE      Deuteron-helium differential scattering cross sections
FACILITY   (VDG)
SAMPLE     The target thickness was always less than 3 keV
METHOD     (BCINT)
DETECTOR   (PROPC) Two proportional counters
ERR-ANALYS (EN-ERR) Data-point reader uncertainty.
           (DATA-ERR) Data-point reader uncertainty.
           Summary of Cross section uncertainties (total rms in %)
              - - - - - - - - - - - - - - - - - - - - - - - - - -
            c.m.angle                  Energy (MeV)
                     0.9  1.0  1.07 1.15 1.2-3.1 3.1-3.8 3.8-4.62
              - - - - - - - - - - - - - - - - - - - - - - - - - -
           90             1.3  2.2  2.2
           104.5          4.1  2.2  2.2
           109.9          4.0  2.2  2.2
           131.2     3.1
           142.1     3.0
           173.6     3.8  3.3  1.8  3.0    2.4     1.9      1.6
             - - - - - - - - - - - - - - - - - - - - - - - - - -
            c.m.angle                  Energy (MeV)
                     2.30 2.59 2.85 3.17 3.31 3.46 3.75 4.03 4.32
             - - - - - - - - - - - - - - - - - - - - - - - - - -
           90                  3.7  4.3  4.6  5.5  5.9  6.0  8.3
           109.9     2.2  2.9  5.3  10.0 10.0 10.0
           125.2     2.0  2.0  2.8  3.3  2.5  2.4  4.5  3.9  6.4
           140.7     2.2  2.2  3.7  2.6  2.8  2.5  2.7  2.7  4.5
           149.8     2.3  2.3  3.1  2.7  2.6  2.4  3.0  2.6  9.3
           167.7     2.8  2.4  3.2  2.9  2.2  3.4  2.4  2.2  2.6
             - - - - - - - - - - - - - - - - - - - - - - - - - -
           The fiver blank positions  correspond to energies and
           angles where the recoil alpha particles had sufficient
           energy to penetrate the counter foil but were still so
           low in energy that their straggling made It impossible
           to count the deuteron pulses.
HISTORY    (19810420C) Compilation produced by Arzamas RFNC-VNIIEF
           (19961023A) Bib Sections of All Subentries are Correcte
           By CAJAD.
           (19961024U) Last checking has been done.
           (19990205U)CNPD: corrected 4-dig. year and lower cases.
ENDBIB              43
COMMON               1          3
EN-ERR
MEV
 0.005
ENDCOMMON            3
ENDSUBENT           50
SUBENT        A1084002   19990319   19990505
BIB                  2          2
REACTION   (2-HE-4(D,EL)2-HE-4,,DA,,,EXP)
STATUS     (CURVE) Fig 2
ENDBIB               2
NOCOMMON
DATA                 4        371
EN         ANG-CM     DATA-CM    DATA-ERR
MEV        ADEG       MB/SR      MB/SR
     0.9012   125.2      154.         6.695
     0.9033   131.2      127.3        6.694
     0.9037   173.6      147.4       13.39
     0.9038   167.7      134.1       13.39
     0.9039   149.5       97.43      13.88
     0.9055   140.7      120.7        6.694
     0.9069    90.1      184.         2.666
     0.9078   104.5      142.2        2.631
     0.908    109.9      136.9        2.63
     0.912    173.6      134.5       13.39
     0.9136   125.2      161.1        6.695
     0.9164   149.5      125.9       13.88
     0.9177   131.2      121.         6.694
     0.9182   173.6      108.        13.39
     0.9183   167.7      121.5       13.39
     0.9199   140.7      121.1        6.694
     0.9214    90.1      181.5        2.666
     0.9221   104.5      144.9        2.631
     0.9243   109.9      147.6        2.63
     0.9244   173.6      108.3       13.39
     0.9282   125.2      161.5        6.695
     0.9304   173.6      162.2       13.39
     0.9311   149.5      112.8       13.88
     0.934     90.1      171.         2.666
     0.9342   131.2      108.         6.694
     0.9345   140.7      108.         6.694
     0.9349   167.7      109.        13.39
     0.9367   173.6      122.4       13.39
     0.9368   109.9      137.2        2.63
     0.9385   104.5      137.2        2.631
     0.9447   173.6      163.        13.39
     0.9448   125.2      161.9        6.695
     0.9479   149.5      113.7       13.88
     0.9486   131.2      108.4        6.694
     0.9494   167.7      109.7       13.39
     0.9504    90.1      181.8        2.666
     0.9511   140.7      108.5        6.694
     0.9528   104.5      137.4        2.631
     0.953    173.6      163.4       13.39
     0.9532   109.9      137.4        2.63
     0.9612   173.6      163.8       13.39
     0.9615   125.2      162.3        6.695
     0.9625   149.5      142.2       13.88
     0.9628   131.2      135.6        6.694
     0.9638   167.7      137.3       13.39
     0.9649    90.1      176.7        2.666
     0.9649   104.5      145.4        2.631
     0.9674   140.7      135.7        6.694
     0.9676   109.9      137.5        2.63
     0.9694   173.6      177.7       13.39
     0.9734   173.6      191.3       13.39
     0.974    125.2      162.6        6.695
     0.9751   131.2      135.9        6.694
     0.9751   149.5      115.1       13.88
     0.9783   167.7      111.3       13.39
     0.9793    90.1      182.1        2.666
     0.9793   104.5      137.6        2.631
     0.9799   109.9      137.7        2.63
     0.9817   173.6      164.9       13.39
     0.982    140.7      116.         6.694
     0.9877   173.6      218.8       13.39
     0.9898   173.6      218.9       13.39
     0.9907   125.2      163.1        6.695
     0.9916   131.2      136.3        6.694
     0.9918   149.5      143.8       13.88
     0.9942   140.7      149.8        6.694
     0.9947   167.7      165.7       13.39
     0.9955   104.5      148.3        2.631
     0.9959    90.1      182.3        2.666
     0.9964   109.9      137.8        2.63
     0.9979   173.6      246.1       13.39
     1.002    173.6      246.4       13.39
     1.005    125.2      176.9        6.695
     1.006    149.5      158.5       13.88
     1.006    173.6      273.4       13.39
     1.008    131.2      156.9        6.694
     1.01      90.1      182.5        2.666
     1.01     104.5      148.5        2.631
     1.01     173.6      287.        13.39
     1.011    140.7      170.3        6.694
     1.011    167.7      220.1       13.39
     1.014    173.6      273.8       13.39
     1.015    109.9      143.3        2.63
     1.015    140.7      177.1        6.694
     1.016    131.2      163.8        6.694
     1.018    104.5      148.6        2.631
     1.018    173.6      327.6       13.39
     1.022    125.2      197.4        6.695
     1.022    173.6      341.2       13.39
     1.023    140.7      197.4        6.694
     1.024    104.5      156.5        2.631
     1.024    131.2      184.1        6.694
     1.025     90.1      179.9        2.666
     1.025    149.5      242.8       13.88
     1.025    167.7      301.2       13.39
     1.026    173.6      381.6       13.39
     1.027    109.9      143.4        2.63
     1.027    140.7      204.2        6.694
     1.028    104.5      148.7        2.631
     1.028    131.2      204.3        6.694
     1.029    140.7      217.7        6.694
     1.03     173.6      435.4       13.39
     1.032    173.6      475.6       13.39
     1.034    131.2      217.8        6.694
     1.034    173.6      515.9       13.39
     1.034    173.6      569.5       13.39
     1.035    109.9      148.8        2.63
     1.035    140.7      271.4        6.694
     1.036    104.5      159.3        2.631
     1.036    125.2      271.4        6.695
     1.039    140.7      298.3        6.694
     1.039    167.7      502.9       13.39
     1.04     104.5      154.1        2.631
     1.04     125.2      325.1        6.695
     1.04     131.2      258.2        6.694
     1.04     131.2      271.5        6.694
     1.04     173.6      623.4       13.39
     1.041     90.1      180.1        2.666
     1.041    109.9      159.4        2.63
     1.041    149.5      424.2       13.88
     1.042    167.7      757.5       13.39
     1.042    173.6      703.8       13.39
     1.043    140.7      325.2        6.694
     1.045    149.5      480.        13.88
     1.046     90.1      177.5        2.666
     1.046    140.7      392.2        6.694
     1.047    125.2      405.6        6.695
     1.047    149.5      563.4       13.88
     1.047    173.6      811.3       13.39
     1.048    104.5      159.4        2.631
     1.048    131.2      352.1        6.694
     1.048    167.7      865.        13.39
     1.049    109.9      170.         2.63
     1.049    125.2      445.9        6.695
     1.049    131.2      405.7        6.694
     1.049    173.6      972.1       13.39
     1.051    109.9      180.5        2.63
     1.051    125.2      459.3        6.695
     1.051    149.5      647.        13.88
     1.052     90.1      166.9        2.666
     1.052     90.1      172.2        2.666
     1.052    167.7      999.1       13.39
     1.052    173.6     1120.        13.39
     1.053    109.9      191.1        2.63
     1.053    131.2      446.         6.694
     1.053    149.5      785.9       13.88
     1.053    167.7     1080.        13.39
     1.054     90.1      150.9        2.666
     1.054    140.7      486.2        6.694
     1.054    167.7     1106.        13.39
     1.055    125.2      526.4        6.695
     1.055    131.2      506.3        6.694
     1.055    167.7     1160.        13.39
     1.056    104.5      159.5        2.631
     1.056    167.7     1214.        13.39
     1.056    173.6     1267.        13.39
     1.057    109.9      206.9        2.63
     1.057    167.7     1388.        13.39
     1.058    167.7     1455.        13.39
     1.059     90.1      119.         2.666
     1.059    125.2      553.3        6.695
     1.059    131.2      432.8        6.694
     1.06     104.5      164.8        2.631
     1.06     149.5     1120.        13.88
     1.06     149.5     1203.        13.88
     1.06     167.7     1508.        13.39
     1.06     173.6     1455.        13.39
     1.061    131.2      566.6        6.694
     1.061    140.7      620.3        6.694
     1.062    131.2      653.8        6.694
     1.062    131.2      627.         6.694
     1.062    167.7     1522.        13.39
     1.063     90.1      108.4        2.666
     1.063    109.9      212.2        2.63
     1.063    125.2      519.9        6.695
     1.063    125.2      553.4        6.695
     1.063    173.6     1629.        13.39
     1.064     90.1       92.36       2.666
     1.064    131.2      674.         6.694
     1.064    167.7     1629.        13.39
     1.064    167.7     1669.        13.39
     1.065    140.7      727.5        6.694
     1.065    149.5     1314.        13.88
     1.066    140.7      787.8        6.694
     1.066    167.7     1723.        13.39
     1.066    173.6     1844.        13.39
     1.067    104.5      164.9        2.631
     1.068     90.1       89.73       2.666
     1.068     90.1       76.4        2.666
     1.068    125.2      459.7        6.695
     1.068    140.7      895.         6.694
     1.068    167.7     1790.        13.39
     1.069    104.5      162.3        2.631
     1.069    140.7      955.3        6.694
     1.07     131.2      667.4        6.694
     1.07     131.2      700.9        6.694
     1.07     173.6     1938.        13.39
     1.072     90.1       68.45       2.666
     1.072    125.2      379.5        6.695
     1.072    149.5     1315.        13.88
     1.072    149.5     1231.        13.88
     1.072    167.7     1804.        13.39
     1.072    167.7     1723.        13.39
     1.072    167.7     1697.        13.39
     1.073    104.5      138.6        2.631
     1.073    104.5      159.7        2.631
     1.073    109.9      217.6        2.63
     1.074    109.9      159.7        2.63
     1.075    131.2      620.7        6.694
     1.075    173.6     1817.        13.39
     1.075    173.6     1723.        13.39
     1.076     90.1       68.49       2.666
     1.076    140.7      968.9        6.694
     1.077    131.2      607.3        6.694
     1.077    140.7      928.7        6.694
     1.077    167.7     1616.        13.39
     1.077    167.7     1536.        13.39
     1.078    109.9      191.3        2.63
     1.079    125.2      326.1        6.695
     1.079    131.2      567.2        6.694
     1.079    131.2      513.7        6.694
     1.079    173.6     1643.        13.39
     1.08     140.7      868.5        6.694
     1.08     173.6     1536.        13.39
     1.081    104.5      149.2        2.631
     1.081    104.5      141.3        2.631
     1.082    109.9      180.8        2.63
     1.082    149.5      898.6       13.88
     1.082    167.7     1362.        13.39
     1.082    167.7     1295.        13.39
     1.082    167.7     1269.        13.39
     1.082    167.7     1202.        13.39
     1.082    167.7     1161.        13.39
     1.083     90.1       65.89       2.666
     1.083    167.7     1081.        13.39
     1.083    173.6     1322.        13.39
     1.084    131.2      433.4        6.694
     1.084    149.5      843.2       13.88
     1.085    173.6     1162.        13.39
     1.086    109.9      159.8        2.63
     1.086    125.2      279.4        6.695
     1.086    140.7      808.4        6.694
     1.086    173.6     1014.        13.39
     1.087     90.1       71.27       2.666
     1.087    104.5      138.8        2.631
     1.087    140.7      701.3        6.694
     1.087    167.7      920.6       13.39
     1.088    131.2      380.         6.694
     1.089     90.1       76.62       2.666
     1.09     173.6      893.9       13.39
     1.092    167.7      760.1       13.39
     1.093     90.1       84.66       2.666
     1.093    131.2      339.9        6.694
     1.093    173.6      813.7       13.39
     1.094    104.5      138.8        2.631
     1.094    125.2      232.8        6.695
     1.095     90.1       92.68       2.666
     1.095    109.9      154.7        2.63
     1.095    131.2      299.8        6.694
     1.095    140.7      514.         6.694
     1.095    149.5      579.9       13.88
     1.095    173.6      706.6       13.39
     1.097    131.2      273.1        6.694
     1.097    167.7      599.6       13.39
     1.099    173.6      626.5       13.39
     1.1      140.7      393.6        6.694
     1.1      149.5      441.3       13.88
     1.1      149.5      538.5       13.88
     1.101     90.1       98.08       2.666
     1.101    109.9      138.9        2.63
     1.102    104.5      133.7        2.631
     1.103    125.2      219.6        6.695
     1.104    173.6      573.2       13.39
     1.106    104.5      133.7        2.631
     1.106    131.2      233.1        6.694
     1.106    173.6      533.2       13.39
     1.108    173.6      479.5       13.39
     1.109    140.7      320.2        6.694
     1.109    149.5      344.5       13.88
     1.111     90.1      108.9        2.666
     1.113     90.1      114.2        2.666
     1.114    131.2      219.9        6.694
     1.114    167.7      359.5       13.39
     1.114    173.6      439.8       13.39
     1.115    125.2      193.1        6.695
     1.116    104.5      128.6        2.631
     1.116    109.9      133.8        2.63
     1.117    140.7      273.6        6.694
     1.117    173.6      386.4       13.39
     1.121    173.6      333.        13.39
     1.126    104.5      128.7        2.631
     1.127    131.2      173.4        6.694
     1.128    109.9      131.3        2.63
     1.129     90.1      125.         2.666
     1.129    173.6      333.4       13.39
     1.129    173.6      320.1       13.39
     1.13     149.5      234.6       13.88
     1.131    167.7      280.        13.39
     1.132    125.2      173.5        6.695
     1.134    140.7      220.4        6.694
     1.138    173.6      280.3       13.39
     1.143    125.2      167.         6.695
     1.143    167.7      240.5       13.39
     1.144    131.2      140.4        6.694
     1.146     90.1      130.5        2.666
     1.146    173.6      254.        13.39
     1.147    104.5      128.9        2.631
     1.147    140.7      180.6        6.694
     1.147    149.5      179.9       13.88
     1.149    109.9      123.6        2.63
     1.15     173.6      227.4       13.39
     1.156    131.2      154.1        6.694
     1.156    173.6      241.1       13.39
     1.157    125.2      167.4        6.695
     1.16     140.7      167.5        6.694
     1.16     149.5      152.8       13.88
     1.16     167.7      214.6       13.39
     1.161    109.9      123.8        2.63
     1.162     90.1      136.1        2.666
     1.163    104.5      129.         2.631
     1.163    173.6      187.9       13.39
     1.167    173.6      201.5       13.39
     1.172    125.2      141.         6.695
     1.172    131.2      141.1        6.694
     1.175     90.1      125.5        2.666
     1.175    109.9      118.7        2.63
     1.175    167.7      175.1       13.39
     1.175    173.6      188.5       13.39
     1.176    140.7      141.2        6.694
     1.177    149.5      126.        13.88
     1.179    104.5      131.8        2.631
     1.179    173.6      188.7       13.39
     1.187    125.2      154.8        6.695
     1.187    173.6      189.2       13.39
     1.19     109.9      118.8        2.63
     1.191     90.1      131.         2.666
     1.191    131.2      128.2        6.694
     1.191    167.7      162.6       13.39
     1.191    173.6      189.4       13.39
     1.192    104.5      129.3        2.631
     1.193    140.7      134.9        6.694
     1.193    149.5      154.6       13.88
     1.195    173.6      176.2       13.39
     1.199    125.2      155.1        6.695
     1.202    167.7      149.8       13.39
     1.204     90.1      131.2        2.666
     1.204    173.6      163.3       13.39
     1.205    131.2      121.9        6.694
     1.205    140.7      141.9        6.694
     1.206    109.9      124.2        2.63
     1.208    104.5      129.5        2.631
     1.21     149.5      127.8       13.88
     1.214    173.6      177.2       13.39
     1.216    125.2      142.2        6.695
     1.218    131.2      122.2        6.694
     1.218    167.7      123.9       13.39
     1.22      90.1      136.7        2.666
     1.22     104.5      127.         2.631
     1.222    140.7      129.         6.694
     1.223    109.9      119.1        2.63
     1.224    173.6      164.4       13.39
     1.225    149.5      100.8       13.88
     1.232    125.2      142.6        6.695
     1.232    173.6      164.8       13.39
     1.234    131.2      116.         6.694
     1.234    140.7      129.3        6.694
     1.235    167.7      151.5       13.39
     1.237     90.1      131.5        2.666
     1.237    104.5      129.8        2.631
     1.237    109.9      114.         2.63
     1.239    149.5      129.3       13.88
ENDDATA            373
ENDSUBENT          380
SUBENT        A1084003   19990319   19990505
BIB                  2          2
REACTION   (2-HE-4(D,EL)2-HE-4,,DA,,,EXP)
STATUS     (CURVE) Fig 3
ENDBIB               2
NOCOMMON
DATA                 4         81
EN         ANG-CM     DATA-CM    DATA-ERR
MEV        ADEG       MB/SR      MB/SR
     1.471    173.6      113.7        4.545
     1.599    173.6      113.7        4.545
     1.701    173.6      109.2        4.545
     1.804    173.6       91.1        4.545
     1.88     173.6      104.8        4.545
     1.942    125.2      112.6        2.5
     1.957    173.6       95.71       4.545
     2.059    173.6      100.3        4.545
     2.213    173.6      104.9        4.545
     2.272    109.9      102.6        1.25
     2.275    125.2      110.2        2.5
     2.286    167.7      115.3        5.
     2.289    173.6      104.9        4.545
     2.3      149.5      115.3        5.
     2.301    140.7      105.4        2.631
     2.392    173.6      100.4        4.545
     2.468    173.6      100.5        4.545
     2.549    167.7      115.4        5.
     2.585    109.9       92.62       1.25
     2.597    173.6       91.44       4.545
     2.604    149.5      110.5        5.
     2.609    125.2      100.2        2.5
     2.609    140.7      102.9        2.631
     2.698    173.6      100.6        4.545
     2.724    173.6       91.5        4.545
     2.775    173.6      100.6        4.545
     2.839    167.7      100.6        5.
     2.845    109.9       90.15       1.25
     2.866    125.2      100.3        2.5
     2.877    173.6      100.7        4.545
     2.883    149.5      100.6        5.
     2.916    140.7      105.6        2.631
     2.979    173.6      109.8        4.545
     3.081    173.6      118.9        4.545
     3.106    109.9       80.18       1.25
     3.161    149.5      120.8        5.
     3.173    125.2      102.9        2.5
     3.173    140.7      105.6        2.631
     3.181    167.7      120.7        5.
     3.183    173.6      128.1        4.545
     3.286    173.6      128.1        4.545
     3.287    109.9       85.2        1.25
     3.3      140.7      118.8        2.631
     3.302    125.2      100.4        2.5
     3.311    167.7      145.8        5.
     3.312    149.5      135.8        5.
     3.387    173.6      150.9        4.545
     3.404    125.2      105.4        2.5
     3.428    140.7      126.8        2.631
     3.439    149.5      145.9        5.
     3.442    167.7      165.9        5.
     3.444    109.9       81.47       1.25
     3.446     90.1       61.77       1.282
     3.489    173.6      164.6        4.545
     3.59     173.6      182.8        4.545
     3.692    173.6      201.         4.545
     3.733     90.1       51.54       1.282
     3.734    140.7      153.2        2.631
     3.741    149.5      181.         5.
     3.757    109.9       70.26       1.25
     3.757    167.7      211.         5.
     3.762    125.2      110.5        2.5
     3.793    173.6      237.4        4.545
     3.894    173.6      264.7        4.545
     4.017    149.5      256.2        5.
     4.018     90.1       54.14       1.282
     4.021    173.6      292.1        4.545
     4.043    125.2      128.1        2.5
     4.045    173.6      337.5        4.545
     4.064    140.7      200.6        2.631
     4.068    109.9       75.29       1.25
     4.068    167.7      326.2        5.
     4.197    173.6      364.9        4.545
     4.248    173.6      383.1        4.545
     4.299    125.2      145.6        2.5
     4.304     90.1       54.18       1.282
     4.329    167.7      411.3        5.
     4.344    140.7      234.9        2.631
     4.353    109.9       82.83       1.25
     4.4      173.6      405.9        4.545
     4.502    173.6      410.5        4.545
ENDDATA             83
ENDSUBENT           90
ENDENTRY             3
