ENTRY            A1090   19990319   19990505
SUBENT        A1090001   19990319   19990505
BIB                 10         18
INSTITUTE  (1USAWIS)
REFERENCE  (J,PR,129,(2),733,196301)
AUTHOR     (C.H.POPPE,C.H.HOLBROW,R.R.BORCHERS)
TITLE      Neutrons from D + T and D + H
FACILITY   (VDGT)
SAMPLE     A Gas target
METHOD     (TOF)
DETECTOR   (SCIN)
ERR-ANALYS (E-ERR) Data-point reader uncertainty.
           (DATA-ERR) Data-point reader uncertainty.
           (ERR-T) The maximum uncertainty caused by the combined
           uncertainties in the statistics, efficiency measurement
           background subtraction, target thickness, and charge
           integration is difficult to evaluate exactly.
HISTORY    (19810224C) Compilation produced by Arzamas RFNC-VNIIEF
           (19961023A) Err-Analys is corrected by CAJAD.
           (19961024U) Last checking has been done.
           (19990205U)CNPD: corrected 4-dig. year and lower cases.
ENDBIB              18
COMMON               2          3
E-ERR      DATA-ERR
MEV        MB/SR/MEV
 0.02        0.3
ENDCOMMON            3
ENDSUBENT           25
SUBENT        A1090002   19990319   19990505
BIB                  2          2
REACTION   (1-H-3(D,N+P)1-H-3,,DA/DE,N,,EXP)
STATUS     (CURVE) Fig 1,2,3
ENDBIB               2
COMMON               2          3
ANG        ERR-T
ADEG       PER-CENT
 0.          25.0
ENDCOMMON            3
DATA                 3        523
EN         E          DATA
MEV        MEV        MB/SR/MEV
     4.8        1.006     48.65
     4.8        1.083     56.09
     4.8        1.084     60.22
     4.8        1.18      68.9
     4.8        1.239     73.03
     4.8        1.28      70.56
     4.8        1.318     77.17
     4.8        1.417     80.48
     4.8        1.476     81.73
     4.8        1.497     80.08
     4.8        1.499     71.41
     4.8        1.518     74.3
     4.8        1.562     61.1
     4.8        1.585     52.85
     4.8        1.587     45.84
     4.8        1.609     37.17
     4.8        1.651     29.33
     4.8        1.653     24.8
     4.8        1.696     12.83
     4.8        1.719      4.581
     4.8        1.738      7.06
     4.8        1.757      9.951
     4.8        1.817      9.133
     4.8        1.858      6.662
     5.86       1.026     58.38
     5.86       1.085     54.72
     5.86       1.14      58.
     5.86       1.174     64.96
     5.86       1.233     61.71
     5.86       1.31      60.1
     5.86       1.326     65.83
     5.86       1.421     65.44
     5.86       1.457     68.32
     5.86       1.534     67.11
     5.86       1.613     62.64
     5.86       1.709     61.44
     5.86       1.841     63.93
     5.86       1.933     68.46
     5.86       1.987     72.97
     5.86       2.042     76.26
     5.86       2.077     81.99
     5.86       2.153     82.01
     5.86       2.168     87.74
     5.86       2.227     84.9
     5.86       2.242     91.44
     5.86       2.297     95.14
     5.86       2.355     93.11
     5.86       2.387    102.1
     5.86       2.446     99.68
     5.86       2.506     95.2
     5.86       2.551     84.18
     5.86       2.581     67.42
     5.86       2.648     50.68
     5.86       2.701     28.62
     5.86       2.784     18.01
     5.86       2.826     11.48
     5.86       2.906      5.374
     6.32       0.9897    22.2
     6.32       1.063     28.72
     6.32       1.121     32.78
     6.32       1.137     37.26
     6.32       1.211     41.74
     6.32       1.269     46.2
     6.32       1.344     46.63
     6.32       1.419     49.49
     6.32       1.494     53.15
     6.32       1.55      56.41
     6.32       1.625     60.89
     6.32       1.72      61.72
     6.32       1.814     63.36
     6.32       1.928     64.59
     6.32       2.024     64.61
     6.32       2.044     63.81
     6.32       2.1       60.95
     6.32       2.158     60.56
     6.32       2.159     59.35
     6.32       2.199     52.44
     6.32       2.275     52.86
     6.32       2.292     59.36
     6.32       2.367     59.78
     6.32       2.387     62.63
     6.32       2.461     63.87
     6.32       2.519     67.51
     6.32       2.574     70.38
     6.32       2.63      73.23
     6.32       2.687     76.08
     6.32       2.762     78.93
     6.32       2.836     81.39
     6.32       2.875     84.63
     6.32       2.969     87.09
     6.32       3.027     83.44
     6.32       3.106     73.3
     6.32       3.132     54.21
     6.32       3.215     32.28
     6.32       3.259     15.23
     6.32       3.376      4.679
     6.84       1.03      20.67
     6.84       1.032     27.3
     6.84       1.09      22.74
     6.84       1.169     24.8
     6.84       1.208     22.73
     6.84       1.229     28.52
     6.84       1.329     31.83
     6.84       1.369     35.96
     6.84       1.469     41.34
     6.84       1.528     40.5
     6.84       1.608     43.39
     6.84       1.669     51.26
     6.84       1.768     55.39
     6.84       1.886     53.3
     6.84       1.947     59.51
     6.84       1.966     59.09
     6.84       2.027     65.71
     6.84       2.105     64.46
     6.84       2.106     68.19
     6.84       2.166     68.6
     6.84       2.225     68.18
     6.84       2.264     66.1
     6.84       2.303     66.93
     6.84       2.343     67.34
     6.84       2.382     65.26
     6.84       2.46      63.19
     6.84       2.5       65.67
     6.84       2.559     63.59
     6.84       2.578     59.86
     6.84       2.638     61.92
     6.84       2.735     55.7
     6.84       2.775     57.77
     6.84       2.872     54.03
     6.84       2.972     58.99
     6.84       3.032     62.3
     6.84       3.092     65.61
     6.84       3.191     66.84
     6.84       3.251     71.8
     6.84       3.331     75.11
     6.84       3.429     73.86
     6.84       3.487     69.29
     6.84       3.586     66.8
     6.84       3.681     51.88
     6.84       3.734     27.44
     6.84       3.849      8.796
     6.84       3.984      0.7421
     7.38       1.033     11.19
     7.38       1.094      1.302
     7.38       1.126     14.09
     7.38       1.186      6.68
     7.38       1.222     12.05
     7.38       1.278     13.3
     7.38       1.335     10.42
     7.38       1.39      14.97
     7.38       1.485     14.57
     7.38       1.54      18.29
     7.38       1.632     24.91
     7.38       1.744     26.17
     7.38       1.818     31.54
     7.38       1.909     38.98
     7.38       1.963     44.76
     7.38       2.022     39.83
     7.38       2.058     40.66
     7.38       2.059     43.54
     7.38       2.169     45.21
     7.38       2.171     48.51
     7.38       2.244     51.83
     7.38       2.298     50.6
     7.38       2.301     56.37
     7.38       2.392     57.63
     7.38       2.449     56.4
     7.38       2.504     60.95
     7.38       2.561     60.96
     7.38       2.598     63.03
     7.38       2.672     65.93
     7.38       2.729     64.7
     7.38       2.784     69.66
     7.38       2.877     72.15
     7.38       2.897     68.86
     7.38       2.972     69.69
     7.38       3.065     75.07
     7.38       3.124     68.9
     7.38       3.183     61.9
     7.38       3.277     62.33
     7.38       3.316     59.04
     7.38       3.47      52.88
     7.38       3.564     53.31
     7.38       3.655     62.4
     7.38       3.749     62.42
     7.38       3.844     61.61
     7.38       3.955     66.99
     7.38       4.069     65.36
     7.38       4.147     58.37
     7.38       4.285     41.9
     7.38       4.406     23.78
     7.38       4.525      8.136
     7.38       4.64       3.209
     7.83       0.9852     3.158
     7.83       1.047     18.01
     7.83       1.099     10.57
     7.83       1.128     12.55
     7.83       1.211     12.04
     7.83       1.264      8.073
     7.83       1.323     15.
     7.83       1.354     22.92
     7.83       1.434     16.47
     7.83       1.545     16.45
     7.83       1.63      20.9
     7.83       1.686     22.38
     7.83       1.772     27.82
     7.83       1.853     22.85
     7.83       1.911     28.29
     7.83       1.941     33.24
     7.83       1.998     38.69
     7.83       2.053     37.19
     7.83       2.081     37.19
     7.83       2.083     41.15
     7.83       2.137     38.17
     7.83       2.195     45.1
     7.83       2.22      38.16
     7.83       2.252     47.57
     7.83       2.306     45.58
     7.83       2.365     47.05
     7.83       2.39      53.99
     7.83       2.449     54.97
     7.83       2.505     56.94
     7.83       2.535     58.42
     7.83       2.561     61.4
     7.83       2.673     59.89
     7.83       2.702     62.37
     7.83       2.842     66.8
     7.83       2.871     69.77
     7.83       2.981     66.78
     7.83       3.011     73.22
     7.83       3.094     72.71
     7.83       3.178     75.67
     7.83       3.261     74.18
     7.83       3.319     79.12
     7.83       3.429     78.61
     7.83       3.511     76.62
     7.83       3.593     73.63
     7.83       3.672     65.2
     7.83       3.809     60.72
     7.83       3.89      55.75
     7.83       4.        55.24
     7.83       4.113     58.69
     7.83       4.225     63.14
     7.83       4.337     65.1
     7.83       4.475     63.1
     7.83       4.583     58.13
     7.83       4.77      41.75
     7.83       4.871     19.94
     7.83       5.031      6.044
     8.33       1.593      1.816
     8.33       1.672      6.208
     8.33       1.807      7.203
     8.33       1.886     11.11
     8.33       1.94      11.6
     8.33       1.965     13.08
     8.33       1.992     14.04
     8.33       2.02      15.51
     8.33       2.072     17.46
     8.33       2.097     20.87
     8.33       2.149     23.8
     8.33       2.232     20.9
     8.33       2.259     21.87
     8.33       2.362     30.68
     8.33       2.389     31.14
     8.33       2.441     30.67
     8.33       2.497     30.17
     8.33       2.547     35.53
     8.33       2.551     39.44
     8.33       2.572     42.36
     8.33       2.682     38.49
     8.33       2.761     42.88
     8.33       2.842     43.87
     8.33       2.868     45.81
     8.33       2.948     44.86
     8.33       2.949     46.31
     8.33       2.977     47.78
     8.33       3.055     49.74
     8.33       3.134     53.16
     8.33       3.189     52.68
     8.33       3.27      51.72
     8.33       3.294     57.08
     8.33       3.404     54.66
     8.33       3.458     53.7
     8.33       3.567     53.23
     8.33       3.674     55.68
     8.33       3.756     52.78
     8.33       3.863     54.74
     8.33       3.973     51.84
     8.33       4.084     46.02
     8.33       4.167     42.14
     8.33       4.329     43.14
     8.33       4.464     43.65
     8.33       4.597     46.6
     8.33       4.708     42.24
     8.33       4.871     40.8
     8.33       4.981     36.44
     8.33       5.124     22.36
     8.33       5.321      7.313
     8.33       5.459      1.012
     8.83       1.582      0.1521
     8.83       1.634      1.86
     8.83       1.741      3.384
     8.83       1.817     10.9
     8.83       1.927      8.926
     8.83       2.006      8.944
     8.83       2.008     11.94
     8.83       2.082     14.96
     8.83       2.085     12.46
     8.83       2.086     19.46
     8.83       2.163     18.48
     8.83       2.246     16.5
     8.83       2.296     21.51
     8.83       2.348     25.02
     8.83       2.352     19.52
     8.83       2.4       28.03
     8.83       2.479     31.55
     8.83       2.534     29.56
     8.83       2.558     34.07
     8.83       2.665     35.09
     8.83       2.72      34.11
     8.83       2.772     37.12
     8.83       2.822     43.13
     8.83       2.902     45.15
     8.83       2.958     41.66
     8.83       3.036     47.18
     8.83       3.115     50.2
     8.83       3.168     50.71
     8.83       3.253     45.23
     8.83       3.359     47.75
     8.83       3.437     52.27
     8.83       3.546     51.29
     8.83       3.602     47.31
     8.83       3.735     51.34
     8.83       3.817     48.85
     8.83       3.925     49.88
     8.83       4.032     50.4
     8.83       4.14      50.93
     8.83       4.305     46.96
     8.83       4.386     45.98
     8.83       4.523     44.01
     8.83       4.635     38.04
     8.83       4.88      33.59
     8.83       4.987     35.62
     8.83       5.119     40.15
     8.83       5.282     39.18
     8.83       5.476     31.23
     8.83       5.673     18.27
     8.83       5.897      6.317
     8.83       6.09       0.8599
     9.81       1.558      1.656
     9.81       1.641      5.139
     9.81       1.751      5.141
     9.81       1.806      2.655
     9.81       1.861      3.65
     9.81       1.944      5.144
     9.81       1.998      6.14
     9.81       2.026     10.62
     9.81       2.054      5.643
     9.81       2.109      8.628
     9.81       2.136      8.131
     9.81       2.191     10.12
     9.81       2.191     12.11
     9.81       2.246     12.11
     9.81       2.301     12.61
     9.81       2.301     17.09
     9.81       2.328     14.6
     9.81       2.356     12.11
     9.81       2.383     16.59
     9.81       2.438     16.09
     9.81       2.466     18.58
     9.81       2.521     19.08
     9.81       2.603     23.56
     9.81       2.658     22.56
     9.81       2.686     23.56
     9.81       2.741     22.57
     9.81       2.768     28.53
     9.81       2.851     29.03
     9.81       2.851     26.55
     9.81       2.933     30.53
     9.81       2.988     34.01
     9.81       3.098     33.51
     9.81       3.098     37.49
     9.81       3.235     38.49
     9.81       3.318     40.48
     9.81       3.4       44.46
     9.81       3.455     40.48
     9.81       3.565     42.47
     9.81       3.675     47.95
     9.81       3.73      48.44
     9.81       3.84      47.45
     9.81       3.923     47.95
     9.81       4.06      52.43
     9.81       4.143     51.93
     9.81       4.253     47.96
     9.81       4.418     50.94
     9.81       4.473     53.93
     9.81       4.638     50.95
     9.81       4.721     47.96
     9.81       4.831     46.47
     9.81       4.941     46.97
     9.81       5.161     41.01
     9.81       5.299     41.01
     9.81       5.409     36.03
     9.81       5.575     29.57
     9.81       5.767     27.09
     9.81       5.933     24.6
     9.81       6.153     25.1
     9.81       6.345     27.1
     9.81       6.538     20.63
     9.81       6.787      6.709
     9.81       6.897      1.737
    10.89       1.809      3.737
    10.89       1.947      0.8063
    10.89       2.002      4.229
    10.89       2.057      2.763
    10.89       2.084      1.297
    10.89       2.112      6.186
    10.89       2.139      3.742
    10.89       2.222      4.721
    10.89       2.304      3.256
    10.89       2.305      6.189
    10.89       2.332      8.634
    10.89       2.414      7.657
    10.89       2.47       6.192
    10.89       2.497     10.1
    10.89       2.552     10.59
    10.89       2.634      9.616
    10.89       2.634     13.04
    10.89       2.717     12.06
    10.89       2.772     15.
    10.89       2.854     14.51
    10.89       2.909     15.
    10.89       2.964     18.42
    10.89       3.019     20.87
    10.89       3.102     21.84
    10.89       3.184     19.4
    10.89       3.239     22.33
    10.89       3.321     27.71
    10.89       3.431     28.2
    10.89       3.487     29.18
    10.89       3.569     29.18
    10.89       3.679     33.1
    10.89       3.761     34.08
    10.89       3.871     36.03
    10.89       3.926     37.99
    10.89       4.064     41.9
    10.89       4.174     39.95
    10.89       4.256     41.9
    10.89       4.366     41.91
    10.89       4.504     43.86
    10.89       4.614     45.33
    10.89       4.752     44.36
    10.89       4.862     43.87
    10.89       5.054     55.6
    10.89       5.191     57.07
    10.89       5.329     47.3
    10.89       5.494     46.81
    10.89       5.66      45.84
    10.89       5.825     43.88
    10.89       6.017     40.96
    10.89       6.265     38.03
    10.89       6.458     37.05
    10.89       6.623     32.17
    10.89       6.844     25.33
    10.89       7.092     22.88
    10.89       7.312     21.42
    10.89       7.367     22.89
    10.89       7.89       8.72
    10.89       8.166      0.9029
    11.89       2.28       0.9924
    11.89       2.39       2.005
    11.89       2.39       6.551
    11.89       2.445      7.562
    11.89       2.501      0.493
    11.89       2.528      7.564
    11.89       2.638      5.547
    11.89       2.638      9.587
    11.89       2.72       6.559
    11.89       2.748      9.59
    11.89       2.803      7.571
    11.89       2.885      7.573
    11.89       2.94      10.1
    11.89       2.995     15.15
    11.89       3.077     15.15
    11.89       3.16      16.67
    11.89       3.187     18.19
    11.89       3.297     19.2
    11.89       3.379     23.75
    11.89       3.407     21.73
    11.89       3.462     21.73
    11.89       3.545     22.24
    11.89       3.599     25.77
    11.89       3.709     27.29
    11.89       3.819     31.33
    11.89       3.901     33.86
    11.89       3.984     34.37
    11.89       4.094     34.37
    11.89       4.204     37.4
    11.89       4.341     40.94
    11.89       4.506     41.96
    11.89       4.616     43.98
    11.89       4.699     44.99
    11.89       4.836     46.51
    11.89       4.974     43.48
    11.89       5.166     46.52
    11.89       5.304     47.53
    11.89       5.469     47.54
    11.89       5.634     48.55
    11.89       5.799     51.08
    11.89       5.992     50.58
    11.89       6.184     48.56
    11.89       6.404     50.59
    11.89       6.569     50.09
    11.89       6.79      47.06
    11.89       7.01      43.03
    11.89       7.341     37.99
    11.89       7.561     35.47
    11.89       7.837     27.9
    11.89       8.113     21.34
    11.89       8.416     17.31
    11.89       8.774     13.78
    11.89       9.104      6.216
    11.89       9.435      1.174
ENDDATA            525
ENDSUBENT          536
SUBENT        A1090003   19990319   19990505
BIB                  2          2
REACTION   (1-H-3(D,N+P)1-H-3,,DA/DE,N,,EXP)
STATUS     (CURVE) Fig 4,5,6,7,8
ENDBIB               2
COMMON               1          3
ERR-T
PER-CENT
  25.0
ENDCOMMON            3
DATA                 4        722
EN         ANG        E          DATA
MEV        ADEG       MEV        MB/SR/MEV
     4.8        0.         1.027     47.67
     4.8        0.         1.086     55.56
     4.8        0.         1.157     59.01
     4.8        0.         1.201     67.55
     4.8        0.         1.255     71.32
     4.8        0.         1.319     68.76
     4.8        0.         1.394     75.7
     4.8        0.         1.465     79.15
     4.8        0.         1.528     75.95
     4.8        0.         1.575     60.41
     4.8        0.         1.644     34.41
     4.8        0.         1.699     11.58
     4.8        0.         1.788      2.668
     4.8        0.         1.834      0.5194
     4.8       10.         1.023     44.82
     4.8       10.         1.093     47.32
     4.8       10.         1.113     50.16
     4.8       10.         1.168     53.94
     4.8       10.         1.223     58.35
     4.8       10.         1.283     52.62
     4.8       10.         1.338     43.73
     4.8       10.         1.391     32.3
     4.8       10.         1.441     18.98
     4.8       10.         1.509      5.959
     4.8       10.         1.589      3.073
     4.8       10.         1.671      2.087
     4.8       10.         1.768      0.49
     4.8       30.         1.008     18.53
     4.8       30.         1.039     17.25
     4.8       30.         1.106     17.22
     4.8       30.         1.137     14.99
     4.8       30.         1.199     11.16
     4.8       30.         1.239      2.911
     4.8       30.         1.303      0.9823
     4.8       30.         1.352      0.0105
     4.8       30.         1.418      0.3355
     5.86       0.         1.345     65.64
     5.86       0.         1.409     65.01
     5.86       0.         1.488     69.76
     5.86       0.         1.552     66.59
     5.86       0.         1.615     62.16
     5.86       0.         1.711     60.58
     5.86       0.         1.837     66.92
     5.86       0.         1.933     68.5
     5.86       0.         1.996     76.42
     5.86       0.         2.027     76.74
     5.86       0.         2.154     87.19
     5.86       0.         2.186     85.61
     5.86       0.         2.201     86.56
     5.86       0.         2.202     84.98
     5.86       0.         2.233     92.26
     5.86       0.         2.296     95.75
     5.86       0.         2.36      92.9
     5.86       0.         2.391    101.8
     5.86       0.         2.439     99.56
     5.86       0.         2.503     95.12
     5.86       0.         2.551     84.35
     5.86       0.         2.599     67.57
     5.86       0.         2.648     50.47
     5.86       0.         2.729     27.98
     5.86       0.         2.793     17.53
     5.86       0.         2.841     11.19
     5.86       0.         2.905      5.494
     5.86       0.         3.         0.745
     5.86      20.         1.013     49.16
     5.86      20.         1.076     52.33
     5.86      20.         1.124     53.28
     5.86      20.         1.156     49.16
     5.86      20.         1.219     50.43
     5.86      20.         1.267     48.53
     5.86      20.         1.315     48.53
     5.86      20.         1.41      43.79
     5.86      20.         1.442     48.22
     5.86      20.         1.537     43.79
     5.86      20.         1.601     40.94
     5.86      20.         1.696     38.41
     5.86      20.         1.807     39.99
     5.86      20.         1.918     44.75
     5.86      20.         1.981     48.55
     5.86      20.         2.013     47.28
     5.86      20.         2.061     45.07
     5.86      20.         2.092     48.87
     5.86      20.         2.14      48.55
     5.86      20.         2.156     50.77
     5.86      20.         2.219     49.82
     5.86      20.         2.267     53.62
     5.86      20.         2.33      52.99
     5.86      20.         2.346     50.14
     5.86      20.         2.394     49.83
     5.86      20.         2.458     42.22
     5.86      20.         2.522     30.19
     5.86      20.         2.586     20.06
     5.86      20.         2.634     13.09
     5.86      20.         2.682      4.539
     5.86      20.         2.762      1.69
     5.86      20.         2.825      0.7411
     5.86      40.         1.015     19.07
     5.86      40.         1.079     15.59
     5.86      40.         1.11      16.86
     5.86      40.         1.158     14.32
     5.86      40.         1.205     16.23
     5.86      40.         1.253     14.96
     5.86      40.         1.317     14.33
     5.86      40.         1.396     15.6
     5.86      40.         1.475     14.01
     5.86      40.         1.523     13.06
     5.86      40.         1.602     14.33
     5.86      40.         1.698     12.75
     5.86      40.         1.793     11.8
     5.86      40.         1.888      7.055
     5.86      40.         1.984      3.573
     5.86      40.         2.016      2.623
     5.86      40.         2.048      0.7235
     5.86      40.         2.095      1.041
     5.86      60.         1.015      6.402
     5.86      60.         1.111      6.087
     5.86      60.         1.143      3.237
     5.86      60.         1.206      1.655
     5.86      60.         1.301      1.657
     5.86      60.         1.365      0.3914
     5.86      60.         1.444      1.343
     6.84       0.         1.775     50.22
     6.84       0.         1.901     52.43
     6.84       0.         1.996     58.74
     6.84       0.         2.011     54.63
     6.84       0.         2.043     59.68
     6.84       0.         2.09      58.73
     6.84       0.         2.138     62.52
     6.84       0.         2.17      64.1
     6.84       0.         2.232     63.78
     6.84       0.         2.279     60.93
     6.84       0.         2.327     67.88
     6.84       0.         2.359     67.88
     6.84       0.         2.405     65.34
     6.84       0.         2.467     63.12
     6.84       0.         2.515     66.28
     6.84       0.         2.546     64.06
     6.84       0.         2.623     59.31
     6.84       0.         2.671     61.21
     6.84       0.         2.732     55.83
     6.84       0.         2.857     53.92
     6.84       0.         2.952     59.28
     6.84       0.         3.016     63.07
     6.84       0.         3.079     65.91
     6.84       0.         3.174     67.8
     6.84       0.         3.222     72.22
     6.84       0.         3.301     75.69
     6.84       0.         3.395     74.42
     6.84       0.         3.472     69.67
     6.84       0.         3.565     67.13
     6.84       0.         3.671     51.95
     6.84       0.         3.776     28.22
     6.84       0.         3.85       9.564
     6.84       0.         3.958      0.3848
     6.84      20.         1.46      45.83
     6.84      20.         1.523     44.56
     6.84      20.         1.617     46.13
     6.84      20.         1.617     43.6
     6.84      20.         1.696     47.39
     6.84      20.         1.711     45.17
     6.84      20.         1.805     46.43
     6.84      20.         1.883     45.79
     6.84      20.         1.977     42.93
     6.84      20.         2.024     44.83
     6.84      20.         2.055     43.88
     6.84      20.         2.071     45.14
     6.84      20.         2.118     43.24
     6.84      20.         2.164     40.39
     6.84      20.         2.196     41.33
     6.84      20.         2.243     40.06
     6.84      20.         2.305     38.48
     6.84      20.         2.351     35.63
     6.84      20.         2.414     34.99
     6.84      20.         2.46      32.14
     6.84      20.         2.524     37.19
     6.84      20.         2.569     29.6
     6.84      20.         2.616     27.38
     6.84      20.         2.663     28.01
     6.84      20.         2.71      29.59
     6.84      20.         2.82      30.84
     6.84      20.         2.883     28.94
     6.84      20.         2.977     30.83
     6.84      20.         3.01      35.25
     6.84      20.         3.072     35.56
     6.84      20.         3.182     34.29
     6.84      20.         3.26      36.18
     6.84      20.         3.306     31.43
     6.84      20.         3.398     21.3
     6.84      20.         3.474     12.76
     6.84      20.         3.567      6.112
     6.84      20.         3.645      1.995
     6.84      20.         3.738      0.0889
     6.84      40.         1.007     50.61
     6.84      40.         1.053     47.13
     6.84      40.         1.1       45.23
     6.84      40.         1.147     45.54
     6.84      40.         1.194     44.59
     6.84      40.         1.256     41.74
     6.84      40.         1.318     41.41
     6.84      40.         1.318     39.52
     6.84      40.         1.364     35.4
     6.84      40.         1.365     38.88
     6.84      40.         1.443     37.29
     6.84      40.         1.52      30.96
     6.84      40.         1.613     27.48
     6.84      40.         1.69      23.04
     6.84      40.         1.768     18.92
     6.84      40.         1.892     14.49
     6.84      40.         1.985     12.27
     6.84      40.         2.032     10.36
     6.84      40.         2.079     10.99
     6.84      40.         2.111     11.31
     6.84      40.         2.158     11.62
     6.84      40.         2.205     10.66
     6.84      40.         2.251     10.03
     6.84      40.         2.299     10.97
     6.84      40.         2.33      11.92
     6.84      40.         2.393     11.91
     6.84      40.         2.44      11.91
     6.84      40.         2.487     10.64
     6.84      40.         2.534     11.9
     6.84      40.         2.627      9.36
     6.84      40.         2.674      7.143
     6.84      40.         2.736      5.872
     6.84      40.         2.783      3.655
     6.84      40.         2.845      1.12
     6.84      40.         2.908      0.1656
     6.84      60.         1.045     12.67
     6.84      60.         1.091      8.87
     6.84      60.         1.17       8.23
     6.84      60.         1.232      6.643
     6.84      60.         1.31       6.636
     6.84      60.         1.404      5.363
     6.84      60.         1.498      5.038
     6.84      60.         1.607      3.763
     6.84      60.         1.733      3.119
     6.84      60.         1.858      1.211
     6.84      60.         1.952      0.5699
     6.84      60.         1.999      0.8818
     6.84      60.         2.03       0.5627
     7.83       0.         2.151     44.45
     7.83       0.         2.207     45.97
     7.83       0.         2.219     47.47
     7.83       0.         2.382     55.62
     7.83       0.         2.441     55.36
     7.83       0.         2.498     56.59
     7.83       0.         2.547     61.99
     7.83       0.         2.595     59.64
     7.83       0.         2.666     61.47
     7.83       0.         2.721     63.3
     7.83       0.         2.788     67.21
     7.83       0.         2.857     70.24
     7.83       0.         2.905     67.59
     7.83       0.         2.983     73.6
     7.83       0.         3.056     74.25
     7.83       0.         3.125     76.68
     7.83       0.         3.216     74.95
     7.83       0.         3.281     80.06
     7.83       0.         3.357     78.62
     7.83       0.         3.449     76.61
     7.83       0.         3.541     74.29
     7.83       0.         3.645     65.43
     7.83       0.         3.741     60.74
     7.83       0.         3.836     56.94
     7.83       0.         3.941     55.52
     7.83       0.         4.053     58.88
     7.83       0.         4.177     63.72
     7.83       0.         4.291     65.59
     7.83       0.         4.412     63.59
     7.83       0.         4.554     58.04
     7.83       0.         4.712     43.27
     7.83       0.         4.812     27.86
     7.83       0.         4.853     21.34
     7.83       0.         4.978      8.042
     7.83       0.         5.123      1.001
     7.83      20.         2.295     43.96
     7.83      20.         2.299     46.03
     7.83      20.         2.369     45.79
     7.83      20.         2.426     47.02
     7.83      20.         2.512     48.27
     7.83      20.         2.569     49.2
     7.83      20.         2.638     52.23
     7.83      20.         2.699     50.78
     7.83      20.         2.75      54.99
     7.83      20.         2.823     55.33
     7.83      20.         2.896     55.98
     7.83      20.         2.946     61.07
     7.83      20.         3.016     62.91
     7.83      20.         3.077     61.76
     7.83      20.         3.15      62.41
     7.83      20.         3.256     60.4
     7.83      20.         3.317     59.25
     7.83      20.         3.398     54.55
     7.83      20.         3.516     54.33
     7.83      20.         3.567     50.5
     7.83      20.         3.69      38.98
     7.83      20.         3.77      34.87
     7.83      20.         3.915     36.46
     7.83      20.         4.008     42.18
     7.83      20.         4.119     45.83
     7.83      20.         4.225     44.41
     7.83      20.         4.363     41.24
     7.83      20.         4.483     30.91
     7.83      20.         4.623     17.91
     7.83      20.         4.753     10.56
     7.83      20.         4.895      5.305
     7.83      20.         4.989      1.8
     7.83      40.         1.712     42.95
     7.83      40.         1.787     42.4
     7.83      40.         1.864     40.38
     7.83      40.         1.939     39.53
     7.83      40.         1.97      38.37
     7.83      40.         2.002     36.9
     7.83      40.         2.013     38.99
     7.83      40.         2.045     37.82
     7.83      40.         2.057     39.02
     7.83      40.         2.121     36.09
     7.83      40.         2.149     36.71
     7.83      40.         2.18      35.84
     7.83      40.         2.24      35.58
     7.83      40.         2.258     33.51
     7.83      40.         2.318     32.96
     7.83      40.         2.393     31.82
     7.83      40.         2.438     31.55
     7.83      40.         2.469     30.68
     7.83      40.         2.527     30.72
     7.83      40.         2.576     28.08
     7.83      40.         2.65      27.83
     7.83      40.         2.715     24.31
     7.83      40.         2.753     27.61
     7.83      40.         2.775     23.46
     7.83      40.         2.838     21.12
     7.83      40.         2.915     18.8
     7.83      40.         2.977     17.05
     7.83      40.         3.053     15.91
     7.83      40.         3.129     14.48
     7.83      40.         3.203     13.94
     7.83      40.         3.278     13.1
     7.83      40.         3.378     15.25
     7.83      40.         3.436     15.29
     7.83      40.         3.543     12.99
     7.83      40.         3.632     12.45
     7.83      40.         3.724     19.07
     7.83      40.         3.827     10.51
     7.83      40.         3.919      8.191
     7.83      40.         4.03       3.805
     7.83      40.         4.15       2.104
     7.83      40.         4.253      1.879
     7.83      60.         1.016     45.73
     7.83      60.         1.072     38.63
     7.83      60.         1.148     37.49
     7.83      60.         1.226     34.87
     7.83      60.         1.29      31.94
     7.83      60.         1.382     29.92
     7.83      60.         1.474     27.31
     7.83      60.         1.597     24.42
     7.83      60.         1.686     23.59
     7.83      60.         1.69      21.5
     7.83      60.         1.72      21.23
     7.83      60.         1.86      16.86
     7.83      60.         2.015     12.21
     7.83      60.         2.108      9.597
     7.83      60.         2.184      7.865
     7.83      60.         2.245      6.718
     7.83      60.         2.305      5.867
     7.83      60.         2.38       5.324
     7.83      60.         2.453      5.376
     7.83      60.         2.527      5.13
     7.83      60.         2.587      4.577
     7.83      60.         2.675      4.639
     7.83      60.         2.764      4.404
     7.83      60.         2.852      4.168
     7.83      60.         2.958      2.754
     7.83      60.         3.033      1.914
     7.83      60.         3.122      1.084
     8.83       0.         2.873     44.23
     8.83       0.         2.965     45.47
     8.83       0.         3.027     41.78
     8.83       0.         3.103     47.94
     8.83       0.         3.164     51.02
     8.83       0.         3.272     51.34
     8.83       0.         3.334     46.11
     8.83       0.         3.411     48.58
     8.83       0.         3.502     53.5
     8.83       0.         3.61      51.97
     8.83       0.         3.672     48.28
     8.83       0.         3.794     52.6
     8.83       0.         3.902     50.76
     8.83       0.         4.01      50.77
     8.83       0.         4.102     51.08
     8.83       0.         4.225     51.7
     8.83       0.         4.349     48.02
     8.83       0.         4.472     47.41
     8.83       0.         4.595     45.26
     8.83       0.         4.719     39.73
     8.83       0.         4.904     34.51
     8.83       0.         5.073     36.68
     8.83       0.         5.211     40.38
     8.83       0.         5.38      40.39
     8.83       0.         5.52      32.4
     8.83       0.         5.722     19.49
     8.83       0.         5.908      7.193
     8.83       0.         6.109      1.975
     8.83      20.         2.69      31.92
     8.83      20.         2.783     30.38
     8.83      20.         2.829     32.85
     8.83      20.         2.905     34.39
     8.83      20.         2.968     29.16
     8.83      20.         3.029     31.63
     8.83      20.         3.105     34.1
     8.83      20.         3.197     34.72
     8.83      20.         3.259     31.95
     8.83      20.         3.336     31.03
     8.83      20.         3.429     31.04
     8.83      20.         3.521     30.43
     8.83      20.         3.583     28.28
     8.83      20.         3.69      28.9
     8.83      20.         3.799     25.52
     8.83      20.         3.891     23.68
     8.83      20.         4.03      23.08
     8.83      20.         4.138     19.7
     8.83      20.         4.246     17.86
     8.83      20.         4.369     13.56
     8.83      20.         4.492     13.26
     8.83      20.         4.661     13.89
     8.83      20.         4.785     12.35
     8.83      20.         4.923     12.67
     8.83      20.         5.077     12.99
     8.83      20.         5.247      8.69
     8.83      20.         5.37       3.775
     8.83      40.         1.722     29.39
     8.83      40.         1.814     28.78
     8.83      40.         1.906     30.33
     8.83      40.         1.983     29.1
     8.83      40.         2.014     27.87
     8.83      40.         2.06      29.42
     8.83      40.         2.091     26.65
     8.83      40.         2.138     25.11
     8.83      40.         2.199     27.27
     8.83      40.         2.199     24.81
     8.83      40.         2.276     23.89
     8.83      40.         2.322     25.12
     8.83      40.         2.369     24.51
     8.83      40.         2.477     21.13
     8.83      40.         2.538     19.91
     8.83      40.         2.6       21.45
     8.83      40.         2.646     18.38
     8.83      40.         2.723     19.
     8.83      40.         2.785     19.31
     8.83      40.         2.816     16.54
     8.83      40.         2.893     15.93
     8.83      40.         2.97      14.7
     8.83      40.         3.016     13.48
     8.83      40.         3.093     12.56
     8.83      40.         3.186      9.485
     8.83      40.         3.278     10.11
     8.83      40.         3.34       9.495
     8.83      40.         3.417      6.115
     8.83      40.         3.54       5.815
     8.83      40.         3.633      4.898
     8.83      40.         3.725      3.365
     8.83      40.         3.832      4.603
     8.83      40.         3.909      3.992
     8.83      40.         4.017      4.306
     8.83      40.         4.11       3.081
     8.83      40.         4.233      3.089
     8.83      40.         4.371      1.252
     8.83      60.         1.384     27.22
     8.83      60.         1.6       21.69
     8.83      60.         1.724     17.7
     8.83      60.         1.847     15.25
     8.83      60.         1.986     10.33
     8.83      60.         2.001     12.49
     8.83      60.         2.033     10.03
     8.83      60.         2.094      9.11
     8.83      60.         2.11       6.034
     8.83      60.         2.156      8.806
     8.83      60.         2.233      6.657
     8.83      60.         2.295      4.815
     8.83      60.         2.326      3.278
     8.83      60.         2.433      5.439
     8.83      60.         2.495      2.058
     8.83      60.         2.557      2.062
     8.83      60.         2.649      2.375
     8.83      60.         2.726      2.38
     8.83      60.         2.818      1.77
     8.83      60.         2.895      0.8522
     8.83      60.         3.003      0.8589
     9.81       0.         4.083     50.93
     9.81       0.         4.185     49.62
     9.81       0.         4.517     51.77
     9.81       0.         4.653     48.8
     9.81       0.         4.788     47.51
     9.81       0.         4.908     44.53
     9.81       0.         5.041     45.59
     9.81       0.         5.18      40.27
     9.81       0.         5.347     39.66
     9.81       0.         5.502     35.35
     9.81       0.         5.642     28.68
     9.81       0.         5.829     25.39
     9.81       0.         6.015     23.11
     9.81       0.         6.214     24.2
     9.81       0.         6.414     24.95
     9.81       0.         6.62      19.32
     9.81       0.         6.851      5.286
     9.81       0.         6.957      0.0529
     9.81      20.         2.655     24.8
     9.81      20.         2.774     22.83
     9.81      20.         2.872     25.89
     9.81      20.         3.005     25.95
     9.81      20.         3.07      27.99
     9.81      20.         3.117     31.37
     9.81      20.         3.201     30.4
     9.81      20.         3.284     31.44
     9.81      20.         3.353     29.11
     9.81      20.         3.449     32.85
     9.81      20.         3.535     30.53
     9.81      20.         3.702     30.6
     9.81      20.         3.785     30.97
     9.81      20.         3.887     29.66
     9.81      20.         3.971     28.69
     9.81      20.         4.106     28.07
     9.81      20.         4.209     25.08
     9.81      20.         4.311     22.77
     9.81      20.         4.427     23.49
     9.81      20.         4.561     23.88
     9.81      20.         4.681     20.9
     9.81      20.         4.8       18.59
     9.81      20.         4.937     15.62
     9.81      20.         5.106     13.67
     9.81      20.         5.241     12.04
     9.81      20.         5.409     10.43
     9.81      20.         5.559     11.5
     9.81      20.         5.742     11.91
     9.81      20.         5.911     10.29
     9.81      20.         6.116      5.665
     9.81      20.         6.303      2.04
     9.81      20.         6.505      0.4396
     9.81      20.         6.706      0.1833
     9.81      40.         1.611     16.65
     9.81      40.         1.745     16.7
     9.81      40.         1.793     18.4
     9.81      40.         1.892     19.45
     9.81      40.         1.943     19.13
     9.81      40.         1.994     17.47
     9.81      40.         2.027     18.16
     9.81      40.         2.041     21.19
     9.81      40.         2.093     18.86
     9.81      40.         2.126     19.88
     9.81      40.         2.159     19.89
     9.81      40.         2.193     18.9
     9.81      40.         2.208     20.92
     9.81      40.         2.243     19.59
     9.81      40.         2.293     19.95
     9.81      40.         2.342     20.3
     9.81      40.         2.375     20.65
     9.81      40.         2.393     19.65
     9.81      40.         2.443     20.01
     9.81      40.         2.479     17.33
     9.81      40.         2.527     19.37
     9.81      40.         2.644     19.75
     9.81      40.         2.695     18.76
     9.81      40.         2.76      19.8
     9.81      40.         2.812     18.47
     9.81      40.         2.861     19.16
     9.81      40.         2.928     18.85
     9.81      40.         2.997     17.54
     9.81      40.         3.047     17.22
     9.81      40.         3.13      17.59
     9.81      40.         3.197     17.62
     9.81      40.         3.264     16.97
     9.81      40.         3.367     14.99
     9.81      40.         3.451     14.02
     9.81      40.         3.535     13.72
     9.81      40.         3.636     12.41
     9.81      40.         3.721     11.1
     9.81      40.         3.806     10.12
     9.81      40.         3.906     10.16
     9.81      40.         4.024      8.866
     9.81      40.         4.092      7.885
     9.81      40.         4.228      5.585
     9.81      40.         4.345      4.959
     9.81      40.         4.447      3.654
     9.81      40.         4.581      3.035
     9.81      40.         4.698      3.082
     9.81      40.         4.815      2.792
     9.81      40.         4.966      2.516
     9.81      40.         5.083      2.563
     9.81      40.         5.268      1.291
     9.81      40.         5.452      1.365
     9.81      40.         5.603      0.416
     9.81      40.         5.787      0.1531
     9.81      60.         1.611     16.98
     9.81      60.         1.728     16.69
     9.81      60.         1.846     15.06
     9.81      60.         1.932     12.74
     9.81      60.         2.016     12.77
     9.81      60.         2.048     13.46
     9.81      60.         2.116     12.14
     9.81      60.         2.167     11.49
     9.81      60.         2.234     11.18
     9.81      60.         2.284     11.53
     9.81      60.         2.302     10.2
     9.81      60.         2.334     11.56
     9.81      60.         2.386     10.23
     9.81      60.         2.437      9.242
     9.81      60.         2.504      8.932
     9.81      60.         2.587      8.966
     9.81      60.         2.69       6.989
     9.81      60.         2.774      6.014
     9.81      60.         2.859      4.702
     9.81      60.         2.943      4.063
     9.81      60.         3.045      2.758
     9.81      60.         3.145      2.126
     9.81      60.         3.246      2.166
     9.81      60.         3.363      1.54
     9.81      60.         3.48       1.251
     9.81      60.         3.614      0.9678
     9.81      60.         3.748      0.6849
     9.81      60.         3.882      0.7382
     9.81      60.         4.016      0.217
    10.89       0.         3.042     21.76
    10.89       0.         3.136     22.17
    10.89       0.         3.357     28.28
    10.89       0.         3.434     27.56
    10.89       0.         3.507     29.47
    10.89       0.         3.602     29.5
    10.89       0.         3.692     33.68
    10.89       0.         3.787     33.34
    10.89       0.         3.86      36.38
    10.89       0.         3.972     37.18
    10.89       0.         4.063     41.73
    10.89       0.         4.178     39.89
    10.89       0.         4.289     41.82
    10.89       0.         4.402     42.24
    10.89       0.         4.514     43.78
    10.89       0.         4.645     44.97
    10.89       0.         4.778     43.88
    10.89       0.         4.948     44.7
    10.89       0.         5.059     47.
    10.89       0.         5.227     48.57
    10.89       0.         5.248     47.07
    10.89       0.         5.379     47.5
    10.89       0.         5.532     46.42
    10.89       0.         5.702     46.11
    10.89       0.         5.874     44.29
    10.89       0.         6.046     41.34
    10.89       0.         6.238     38.77
    10.89       0.         6.466     36.97
    10.89       0.         6.659     32.15
    10.89       0.         6.892     25.45
    10.89       0.         7.159     22.91
    10.89       0.         7.369     20.35
    10.89       0.         7.655     17.82
    10.89       0.         7.909      8.866
    10.89      20.         3.84      17.53
    10.89      20.         3.951     19.83
    10.89      20.         4.045     19.87
    10.89      20.         4.12      20.27
    10.89      20.         4.253     19.57
    10.89      20.         4.385     20.37
    10.89      20.         4.46      20.78
    10.89      20.         4.594     18.94
    10.89      20.         4.744     20.13
    10.89      20.         4.877     19.05
    10.89      20.         5.009     19.47
    10.89      20.         5.144     16.13
    10.89      20.         5.315     15.82
    10.89      20.         5.336     13.56
    10.89      20.         5.467     14.74
    10.89      20.         5.657     13.68
    10.89      20.         5.828     11.86
    10.89      20.         5.999     10.8
    10.89      20.         6.17       9.728
    10.89      20.         6.38       7.544
    10.89      20.         6.589      6.114
    10.89      20.         6.798      4.685
    10.89      20.         7.043      5.152
    10.89      20.         7.271      4.106
    10.89      20.         7.519      1.56
    10.89      40.         2.731     11.09
    10.89      40.         2.863     11.14
    10.89      40.         3.051     12.34
    10.89      40.         3.298     10.92
    10.89      40.         3.372     12.08
    10.89      40.         3.43      11.35
    10.89      40.         3.505     11.75
    10.89      40.         3.599     11.79
    10.89      40.         3.694     11.82
    10.89      40.         3.771      9.968
    10.89      40.         3.883     11.14
    10.89      40.         3.98       8.915
    10.89      40.         4.073     10.46
    10.89      40.         4.149      9.354
    10.89      40.         4.303      6.773
    10.89      40.         4.53       6.104
    10.89      40.         4.663      5.399
    10.89      40.         4.949      2.867
    10.89      40.         5.064      1.403
    10.89      40.         5.215      1.459
    10.89      40.         5.383      3.405
    10.89      40.         5.518      0.4405
    10.89      60.         2.317      9.051
    10.89      60.         2.412      9.086
    10.89      60.         2.468      9.107
    10.89      60.         2.545      8.382
    10.89      60.         2.621      8.033
    10.89      60.         2.697      7.308
    10.89      60.         2.791      7.343
    10.89      60.         2.905      6.631
    10.89      60.         2.981      6.283
    10.89      60.         3.076      6.318
    10.89      60.         3.171      5.599
    10.89      60.         3.266      4.127
    10.89      60.         3.398      4.553
    10.89      60.         3.513      3.465
    10.89      60.         3.664      2.767
    10.89      60.         3.76       1.672
    10.89      60.         3.968      0.9959
    10.89      60.         4.101      0.6682
    10.89      60.         4.252      0.7243
    10.89      60.         4.403      0.7804
ENDDATA            724
ENDSUBENT          735
SUBENT        A1090004   19990319   19990505
BIB                  2          2
REACTION   (1-H-1(D,N+P)1-H-1,,DA/DE,N,,EXP)
STATUS     (CURVE) Fig 9
ENDBIB               2
COMMON               2          3
ANG        ERR-T
ADEG       PER-CENT
 0.        20.0
ENDCOMMON            3
DATA                 3        144
EN         E          DATA
MEV        MEV        MB/SR/MEV
     7.38       1.066      4.241
     7.38       1.123      1.205
     7.38       1.169      3.179
     7.38       1.196      5.945
     7.38       1.236      5.151
     7.38       1.323      6.595
     7.38       1.346      7.253
     7.38       1.435      9.619
     7.38       1.478     10.27
     7.38       1.583     10.
     7.38       1.624      9.473
     7.38       1.732     10.78
     7.38       1.796     11.57
     7.38       1.899     10.24
     7.38       1.982      9.314
     7.38       2.049     11.15
     7.38       2.068     10.1
     7.38       2.11      10.49
     7.38       2.172     10.22
     7.38       2.173      9.563
     7.38       2.234      9.688
     7.38       2.256      9.163
     7.38       2.275      8.632
     7.38       2.377      6.779
     7.38       2.379      7.833
     7.38       2.441      7.301
     7.38       2.602      3.466
     7.38       2.686      3.195
     7.38       2.768      2.135
     7.38       2.851      1.205
     7.38       2.869      0.0174
     7.38       2.954      0.1208
     8.33       1.732     10.65
     8.33       1.783     15.52
     8.33       1.868     16.05
     8.33       1.934     17.1
     8.33       1.992     14.59
     8.33       2.036     15.51
     8.33       2.061     17.75
     8.33       2.104     18.01
     8.33       2.124     17.34
     8.33       2.171     19.85
     8.33       2.21      18.66
     8.33       2.255     19.84
     8.33       2.317     19.31
     8.33       2.337     18.65
     8.33       2.381     19.43
     8.33       2.42      18.25
     8.33       2.465     19.69
     8.33       2.525     17.71
     8.33       2.589     18.1
     8.33       2.632     18.89
     8.33       2.697     19.81
     8.33       2.736     18.09
     8.33       2.82      18.22
     8.33       2.884     18.21
     8.33       2.987     17.28
     8.33       3.07      16.61
     8.33       3.276     14.23
     8.33       3.396     12.5
     8.33       3.399     10.66
     8.33       3.5        9.99
     8.33       3.598      6.422
     8.33       3.722      5.226
     8.33       3.801      2.32
     8.33       4.01       1.249
     8.33       4.115      1.373
     9.81       2.478     15.21
     9.81       2.539     14.41
     9.81       2.647     15.59
     9.81       2.71      15.45
     9.81       2.733     16.38
     9.81       2.795     15.98
     9.81       2.859     16.5
     9.81       2.902     16.89
     9.81       3.007     16.75
     9.81       3.073     17.93
     9.81       3.116     18.33
     9.81       3.283     17.52
     9.81       3.328     19.23
     9.81       3.434     19.35
     9.81       3.523     21.99
     9.81       3.632     23.82
     9.81       3.692     22.24
     9.81       3.987     22.35
     9.81       4.093     22.6
     9.81       4.202     24.44
     9.81       4.31      25.88
     9.81       4.412     24.03
     9.81       4.535     22.57
     9.81       4.665     24.4
     9.81       4.783     19.91
     9.81       4.885     18.19
     9.81       4.945     16.6
     9.81       5.061     11.19
     9.81       5.198      5.905
     9.81       5.358      1.411
    11.89       2.271      6.391
    11.89       2.311      5.333
    11.89       2.397      6.25
    11.89       2.504      7.296
    11.89       2.587      6.499
    11.89       2.671      6.361
    11.89       2.715      7.149
    11.89       2.757      7.277
    11.89       2.822      8.063
    11.89       2.88       5.422
    11.89       2.947      7.131
    11.89       2.99       7.787
    11.89       3.052      7.123
    11.89       3.178      7.245
    11.89       3.307      8.554
    11.89       3.375     10.66
    11.89       3.458     10.13
    11.89       3.542     10.12
    11.89       3.565     10.91
    11.89       3.649     11.03
    11.89       3.732     10.37
    11.89       3.818     10.89
    11.89       3.926     12.59
    11.89       4.033     13.24
    11.89       4.139     13.63
    11.89       4.266     13.89
    11.89       4.355     16.39
    11.89       4.48      15.72
    11.89       4.609     16.89
    11.89       4.713     16.49
    11.89       4.885     18.45
    11.89       4.992     18.97
    11.89       5.162     19.62
    11.89       5.331     20.27
    11.89       5.46      21.44
    11.89       5.651     22.22
    11.89       5.8       23.
    11.89       5.992     24.04
    11.89       6.183     24.68
    11.89       6.394     25.33
    11.89       6.584     25.18
    11.89       6.81      22.53
    11.89       7.016     19.74
    11.89       7.255     12.87
    11.89       7.516      5.994
    11.89       7.76       1.624
    11.89       8.096      1.203
ENDDATA            146
ENDSUBENT          157
SUBENT        A1090005   19990319   19990505
BIB                  2          2
REACTION   (1-H-1(D,N+P)1-H-1,,DA/DE,N,,EXP)
STATUS     (CURVE) Fig 10
ENDBIB               2
COMMON               1          3
ERR-T
PER-CENT
  20.0
ENDCOMMON            3
DATA                 4        346
EN         ANG        E          DATA
MEV        ADEG       MEV        MB/SR/MEV
     7.83       0.         1.191     11.89
     7.83       0.         1.21       5.607
     7.83       0.         1.243      3.477
     7.83       0.         1.254      9.171
     7.83       0.         1.272     10.65
     7.83       0.         1.307     13.7
     7.83       0.         1.312     13.09
     7.83       0.         1.438     13.68
     7.83       0.         1.564     14.27
     7.83       0.         1.659     13.42
     7.83       0.         1.68      12.45
     7.83       0.         1.694     14.35
     7.83       0.         1.716     14.16
     7.83       0.         1.773     15.91
     7.83       0.         1.799     14.56
     7.83       0.         1.869     16.61
     7.83       0.         1.898     16.69
     7.83       0.         1.942     16.04
     7.83       0.         2.041     13.76
     7.83       0.         2.075     14.69
     7.83       0.         2.076     16.39
     7.83       0.         2.128     15.
     7.83       0.         2.192     14.58
     7.83       0.         2.262     15.36
     7.83       0.         2.409     14.05
     7.83       0.         2.412     12.61
     7.83       0.         2.55      11.54
     7.83       0.         2.658      9.953
     7.83       0.         2.804      8.644
     7.83       0.         2.951      7.334
     7.83       0.         3.005      4.508
     7.83       0.         3.161      2.966
     7.83      10.         1.296      6.85
     7.83      10.         1.328      9.992
     7.83      10.         1.449      9.379
     7.83      10.         1.614     10.24
     7.83      10.         1.753     11.8
     7.83      10.         1.835     10.91
     7.83      10.         1.93       9.562
     7.83      10.         1.934     11.
     7.83      10.         1.983     12.24
     7.83      10.         2.091     10.66
     7.83      10.         2.167      9.77
     7.83      10.         2.172      8.568
     7.83      10.         2.268      9.853
     7.83      10.         2.285      9.389
     7.83      10.         2.314      7.258
     7.83      10.         2.344      7.764
     7.83      10.         2.462      8.585
     7.83      10.         2.535      7.93
     7.83      10.         2.578      6.77
     7.83      10.         2.651      6.115
     8.83       0.         2.945     16.93
     8.83       0.         3.039     16.93
     8.83       0.         3.227     16.71
     8.83       0.         3.27      18.13
     8.83       0.         3.362     18.6
     8.83       0.         3.409     18.84
     8.83       0.         3.545     20.5
     8.83       0.         3.596     18.85
     8.83       0.         3.693     17.68
     8.83       0.         3.785     18.16
     8.83       0.         3.838     15.81
     8.83       0.         3.933     15.11
     8.83       0.         4.081     12.3
     8.83       0.         4.132     10.65
     8.83       0.         4.234      7.601
     8.83       0.         4.43       4.084
     8.83       0.         4.483      1.735
     8.83      10.         1.187      8.345
     8.83      10.         1.367     10.24
     8.83      10.         1.37      11.42
     8.83      10.         1.456     13.3
     8.83      10.         1.508     11.19
     8.83      10.         1.551     12.84
     8.83      10.         1.648     11.2
     8.83      10.         1.69      13.32
     8.83      10.         1.789     11.21
     8.83      10.         1.923     13.57
     8.83      10.         2.015     14.52
     8.83      10.         2.111     13.58
     8.83      10.         2.152     15.7
     8.83      10.         2.204     13.59
     8.83      10.         2.248     14.77
     8.83      10.         2.299     13.12
     8.83      10.         2.343     14.3
     8.83      10.         2.389     14.78
     8.83      10.         2.431     16.42
     8.83      10.         2.482     14.78
     8.83      10.         2.484     14.08
     8.83      10.         2.623     14.79
     8.83      10.         2.667     15.73
     8.83      10.         2.671     14.32
     8.83      10.         2.763     15.03
     8.83      10.         2.856     15.28
     8.83      10.         2.901     15.98
     8.83      10.         2.997     15.05
     8.83      10.         2.999     14.34
     8.83      10.         3.139     14.35
     8.83      10.         3.183     15.3
     8.83      10.         3.232     14.6
     8.83      10.         3.28      14.13
     8.83      10.         3.373     14.37
     8.83      10.         3.422     13.67
     8.83      10.         3.516     13.44
     8.83      10.         3.564     12.97
     8.83      10.         3.706     12.27
     8.83      10.         3.804     10.87
     8.83      10.         3.853      9.694
     8.83      10.         3.95       8.524
     8.83      10.         4.05       5.942
     8.83      10.         4.148      4.301
     8.83      10.         4.198      3.363
     8.83      10.         4.388      1.964
     8.83      10.         4.438      1.026
     8.83      20.         1.055      5.278
     8.83      20.         1.147      5.755
     8.83      20.         1.151      4.108
     8.83      20.         1.2        3.405
     8.83      20.         1.24       6.231
     8.83      20.         1.289      5.058
     8.83      20.         1.337      4.826
     8.83      20.         1.387      3.417
     8.83      20.         1.435      2.95
     8.83      20.         1.479      4.129
     8.83      20.         1.567      6.252
     8.83      20.         1.66       6.494
     8.83      20.         1.801      6.267
     8.83      20.         1.847      6.741
     8.83      20.         1.895      6.273
     8.83      20.         1.942      6.277
     8.83      20.         1.986      7.22
     8.83      20.         1.991      5.574
     8.83      20.         2.036      6.047
     8.83      20.         2.128      6.759
     8.83      20.         2.176      6.292
     8.83      20.         2.313      6.771
     8.83      20.         2.315      7.712
     8.83      20.         2.32       4.889
     8.83      20.         2.363      6.304
     8.83      20.         2.461      4.898
     8.83      20.         2.504      6.077
     8.83      20.         2.551      5.61
     8.83      20.         2.553      6.316
     8.83      20.         2.601      5.143
     8.83      20.         2.644      6.322
     8.83      20.         2.647      5.146
     8.83      20.         2.74       5.622
     8.83      20.         2.79       4.449
     8.83      20.         2.837      4.217
     8.83      20.         2.885      3.984
     8.83      20.         2.934      3.046
     8.83      20.         2.981      2.814
     8.83      20.         3.121      3.059
     8.83      20.         3.219      1.418
     8.83      20.         3.313      1.189
     8.83      20.         3.407      1.195
     9.81       0.         3.98      23.
     9.81       0.         4.029     22.06
     9.81       0.         4.172     22.53
     9.81       0.         4.219     24.18
     9.81       0.         4.41      26.07
     9.81       0.         4.507     23.95
     9.81       0.         4.604     22.78
     9.81       0.         4.749     21.6
     9.81       0.         4.893     19.96
     9.81       0.         4.992     16.43
     9.81       0.         5.139     11.02
     9.81       0.         5.286      5.849
     9.81       0.         5.433      1.146
     9.81      10.         1.349     13.08
     9.81      10.         1.492     14.49
     9.81      10.         1.541     13.08
     9.81      10.         1.636     14.03
     9.81      10.         1.731     15.2
     9.81      10.         1.827     15.91
     9.81      10.         1.923     14.5
     9.81      10.         1.972     13.09
     9.81      10.         2.067     14.74
     9.81      10.         2.163     15.44
     9.81      10.         2.211     14.74
     9.81      10.         2.258     15.68
     9.81      10.         2.402     16.63
     9.81      10.         2.402     16.16
     9.81      10.         2.402     15.92
     9.81      10.         2.499     15.22
     9.81      10.         2.547     14.51
     9.81      10.         2.641     16.86
     9.81      10.         2.785     15.45
     9.81      10.         2.786     17.1
     9.81      10.         2.881     17.1
     9.81      10.         2.977     15.69
     9.81      10.         2.978     17.1
     9.81      10.         3.12      17.34
     9.81      10.         3.121     18.05
     9.81      10.         3.216     18.99
     9.81      10.         3.312     18.29
     9.81      10.         3.407     20.17
     9.81      10.         3.455     18.99
     9.81      10.         3.552     18.29
     9.81      10.         3.647     19.
     9.81      10.         3.743     18.76
     9.81      10.         3.84      17.35
     9.81      10.         3.935     19.24
     9.81      10.         4.03      20.42
     9.81      10.         4.079     18.3
     9.81      10.         4.223     18.07
     9.81      10.         4.32      16.42
     9.81      10.         4.464     17.36
     9.81      10.         4.561     15.01
     9.81      10.         4.757      9.134
     9.81      10.         4.903      5.608
     9.81      10.         5.096      3.729
     9.81      10.         5.289      1.144
     9.81      20.         1.116      2.726
     9.81      20.         1.209      6.962
     9.81      20.         1.259      4.375
     9.81      20.         1.304      8.139
     9.81      20.         1.351      9.552
     9.81      20.         1.353      6.964
     9.81      20.         1.402      4.377
     9.81      20.         1.496      7.672
     9.81      20.         1.545      6.026
     9.81      20.         1.592      8.144
     9.81      20.         1.736      8.381
     9.81      20.         1.737      6.499
     9.81      20.         1.832      7.442
     9.81      20.         1.975      8.856
     9.81      20.         2.024      7.68
     9.81      20.         2.119      8.387
     9.81      20.         2.166     10.27
     9.81      20.         2.215      8.153
     9.81      20.         2.312      7.685
     9.81      20.         2.36       7.215
     9.81      20.         2.407      8.627
     9.81      20.         2.454      9.569
     9.81      20.         2.503      8.158
     9.81      20.         2.551      7.688
     9.81      20.         2.647      8.631
     9.81      20.         2.695      7.926
     9.81      20.         2.791      8.633
     9.81      20.         2.886      8.87
     9.81      20.         2.935      8.165
     9.81      20.         2.983      7.695
     9.81      20.         3.078      8.873
     9.81      20.         3.127      7.697
     9.81      20.         3.175      8.168
     9.81      20.         3.271      7.699
     9.81      20.         3.319      7.23
     9.81      20.         3.414      7.231
     9.81      20.         3.415      9.113
     9.81      20.         3.463      7.232
     9.81      20.         3.607      6.293
     9.81      20.         3.704      5.589
     9.81      20.         3.752      4.649
     9.81      20.         3.897      4.181
     9.81      20.         4.09       2.302
     9.81      20.         4.138      1.126
     9.81      20.         4.282      0.6578
     9.81      20.         4.378      0.8946
     9.81      20.         4.523      0.4263
     9.81      20.         4.618      0.663
    10.89       0.         4.419     18.77
    10.89       0.         4.609     17.6
    10.89       0.         4.703     18.54
    10.89       0.         4.89      20.42
    10.89       0.         4.984     21.12
    10.89       0.         5.172     21.36
    10.89       0.         5.266     21.36
    10.89       0.         5.407     22.07
    10.89       0.         5.596     22.54
    10.89       0.         5.785     21.61
    10.89       0.         5.928     19.5
    10.89       0.         6.121     14.59
    10.89       0.         6.314      8.272
    10.89       0.         6.461      1.953
    10.89      10.         3.153      9.851
    10.89      10.         3.247      9.852
    10.89      10.         3.339     12.9
    10.89      10.         3.34      11.73
    10.89      10.         3.435     11.03
    10.89      10.         3.576     11.97
    10.89      10.         3.669     12.9
    10.89      10.         3.717     11.97
    10.89      10.         3.718     11.27
    10.89      10.         3.906     11.5
    10.89      10.         3.952     13.61
    10.89      10.         4.141     13.62
    10.89      10.         4.236     12.68
    10.89      10.         4.282     13.62
    10.89      10.         4.422     15.26
    10.89      10.         4.564     14.79
    10.89      10.         4.659     14.56
    10.89      10.         4.752     15.27
    10.89      10.         4.893     16.2
    10.89      10.         5.083     15.27
    10.89      10.         5.271     15.28
    10.89      10.         5.413     15.28
    10.89      10.         5.508     14.58
    10.89      10.         5.651     12.24
    10.89      10.         5.843      7.561
    10.89      10.         5.987      4.52
    10.89      10.         6.178      1.714
    10.89      20.         1.412      4.198
    10.89      20.         1.507      3.03
    10.89      20.         1.599      6.309
    10.89      20.         1.648      4.905
    10.89      20.         1.741      6.312
    10.89      20.         1.883      5.378
    10.89      20.         1.977      5.614
    10.89      20.         2.025      4.912
    10.89      20.         2.164      7.256
    10.89      20.         2.213      5.853
    10.89      20.         2.259      6.79
    10.89      20.         2.305      8.664
    10.89      20.         2.354      6.089
    10.89      20.         2.401      5.856
    10.89      20.         2.542      7.498
    10.89      20.         2.543      6.327
    10.89      20.         2.591      4.689
    10.89      20.         2.639      3.519
    10.89      20.         2.732      5.394
    10.89      20.         2.778      6.8
    10.89      20.         2.825      7.503
    10.89      20.         2.966      7.506
    10.89      20.         3.014      7.038
    10.89      20.         3.061      6.571
    10.89      20.         3.108      6.806
    10.89      20.         3.202      7.979
    10.89      20.         3.25       6.575
    10.89      20.         3.343      7.513
    10.89      20.         3.39       8.216
    10.89      20.         3.485      7.516
    10.89      20.         3.581      5.644
    10.89      20.         3.675      5.646
    10.89      20.         3.816      5.883
    10.89      20.         3.911      6.119
    10.89      20.         4.052      6.59
    10.89      20.         4.193      6.827
    10.89      20.         4.288      6.126
    10.89      20.         4.525      4.96
    10.89      20.         4.665      5.899
    10.89      20.         4.713      4.73
    10.89      20.         4.808      3.795
    10.89      20.         4.951      2.393
    10.89      20.         5.093      1.459
ENDDATA            348
ENDSUBENT          359
ENDENTRY             5
