ENTRY            A1098   19990319   19990505
SUBENT        A1098001   19990319   19990505
BIB                 10         24
INSTITUTE  (3ALGUAG)
REFERENCE  (J,NC/A,36,(01),95,197611)
AUTHOR     (M.ALLAB,H.BEAUMEVIELLE)
TITLE      Elastic scattering of 0.3 MeV to 8 MeV deuterons by
           3He and level parameters in 5Li.
FACILITY   (VDG)
SAMPLE     A gas target (99.9% 3He)
MONITOR    (18-AR-40(P,EL)18-AR-40,,SIG)
MONIT-REF  (,COHEN-GANOUNA+,J,NP,40,82,1963)
ERR-ANALYS (ANG-ERR) Data-point reader uncertainty.
           (DATA-ERR) Data-point reader uncertainty.
           (ERR-T)  Total uncertainty.
           In addition, there is a noticceable systematic error in
           the absolute normalization of the cross-sections. The
           overall precision of the values of our absolute cross-
           sections is less than 10%. At the energies and angles
           at which our results overap the preceding measurements
           the agreement is rather good, provided that the probab-
           le errors (=5%) assigned to the preceding cross-section
           measurements are increased slightly to 10%.
HISTORY    (19810422C) Compilation produced by Arzamas RFNC-VNIIEF
           (19961023A) Err-Analys is Corrected by CAJAD.
           (19961024U) Last checking has been done.
           (19990205U)CNPD: corrected 4-dig. year and lower cases.
ENDBIB              24
COMMON               2          3
EN-NRM     ERR-T
MEV        PER-CENT
  1.0        10.
ENDCOMMON            3
ENDSUBENT           31
SUBENT        A1098002   19990319   19990505
BIB                  2          2
REACTION   (2-HE-3(D,EL)2-HE-3,,DA,,,EXP)
STATUS     (CURVE) Fig 1
ENDBIB               2
COMMON               2          3
ANG-ERR    DATA-ERR
ADEG       MB/SR
  1.         3.
ENDCOMMON            3
DATA                 3        278
EN         ANG-CM     DATA-CM
MEV        ADEG       MB/SR
     1.012     41.53     943.1
     1.012     46.99     468.3
     1.012     47.34     326.6
     1.012     66.93     210.7
     1.012     73.41     194.3
     1.012     86.35     169.8
     1.012     92.72     195.
     1.012     94.91     178.4
     1.012    101.3      187.
     1.012    107.7      195.6
     1.012    124.8      246.2
     1.115     37.56     768.5
     1.115     47.5      329.1
     1.115     62.93     197.1
     1.115     67.3      172.4
     1.115     73.73     172.7
     1.115     86.68     148.4
     1.115     93.09     157.
     1.115    108.1      157.7
     1.115    112.3      182.8
     1.217     34.97     818.2
     1.217     40.01     577.8
     1.217     47.32     296.
     1.217     53.96     229.9
     1.217     67.01     172.4
     1.217     69.23     147.6
     1.217     73.53     147.8
     1.217     88.57     140.2
     1.217     92.83     148.7
     1.217     95.03     132.2
     1.217    101.4      157.4
     1.217    107.8      149.4
     1.217    112.1      174.5
     1.217    122.8      183.3
     1.217    124.8      224.9
     1.32      37.18     821.5
     1.32      42.39     496.8
     1.32      49.56     238.8
     1.32      75.63     123.3
     1.32      88.53     115.5
     1.32      92.75     140.7
     1.32     112.       149.8
     1.32     124.7      167.
     1.32     124.9      225.3
     1.422     38.97     410.1
     1.422     48.63     212.
     1.422     55.16     195.2
     1.422     68.31     144.9
     1.422     68.4      128.
     1.422     77.07     111.3
     1.422     89.94     111.6
     1.422     91.97     132.7
     1.422     94.19     120.1
     1.422    100.5      149.8
     1.422    107.       137.2
     1.422    113.4      137.4
     1.422    119.6      183.9
     1.422    126.       184.1
     1.524     37.89     383.4
     1.524     45.35     190.3
     1.524     51.65     182.
     1.524     60.38     119.2
     1.524     62.54     106.7
     1.524     70.9      102.7
     1.524     70.95      94.28
     1.524     83.45      94.6
     1.524     89.62     107.4
     1.524     97.82     128.6
     1.524    102.       120.3
     1.524    108.3      120.4
     1.524    112.2      162.6
     1.524    118.5      145.9
     1.524    120.4      175.4
     1.626     35.98     475.2
     1.626     36.58     325.
     1.626     47.63     166.7
     1.626     51.88     145.9
     1.626     62.42     116.9
     1.626     62.5       96.02
     1.626     68.8       83.61
     1.626     72.92      96.19
     1.626     83.38      83.84
     1.626     87.5       96.42
     1.626     91.68      92.32
     1.626     95.76     113.2
     1.626    102.1      105.
     1.626    108.3      109.3
     1.626    114.3      155.3
     1.626    118.6      134.5
     1.728     34.89     429.8
     1.728     35.74     297.3
     1.728     44.94     160.8
     1.728     51.3      144.4
     1.728     61.95     107.4
     1.728     62.08      86.7
     1.728     66.28      82.67
     1.728     70.39      91.05
     1.728     83.        74.8
     1.728     84.97      91.42
     1.728     89.16      87.38
     1.728     95.33      99.96
     1.728     99.5      100.1
     1.728    105.6      116.8
     1.728    109.7      141.7
     1.728    115.9      146.
     1.728    118.       133.7
     1.83      35.82     382.5
     1.83      36.47     258.1
     1.83      43.33     142.1
     1.83      64.52      76.12
     1.83      70.79      72.11
     1.83      83.31      68.22
     1.83      85.35      76.56
     1.83     106.1      101.9
     1.83     118.3      131.2
     1.83     118.4      143.6
     1.932     33.45     344.
     1.932     34.01     233.8
     1.932     44.98     128.2
     1.932     70.3       65.15
     1.932     80.74      61.14
     1.932     86.97      65.51
     1.932     99.33      91.19
     1.932    115.8      129.7
     1.932    117.9      121.3
     1.932    124.2      125.6
     1.932    136.4      180.9
     2.033     38.67     270.5
     2.033     41.06     213.7
     2.033     49.97     120.4
     2.033     56.39     104.2
     2.033     67.11      75.98
     2.033     71.4       63.86
     2.033     77.78      59.91
     2.033     88.36      60.09
     2.033     94.72      60.2
     2.033    103.1       76.6
     2.033    119.9      113.4
     2.033    126.2      129.8
     2.033    142.8      187.
     2.135     35.32     262.4
     2.135     38.13     198.1
     2.135     45.36     116.8
     2.135     51.88     101.9
     2.135     62.79      72.
     2.135     67.11      63.48
     2.135     71.4       59.24
     2.135     75.58      63.57
     2.135     84.17      52.96
     2.135     92.52      63.76
     2.135     94.71      57.36
     2.135     98.83      68.11
     2.135    105.1       72.47
     2.135    111.3       85.39
     2.135    117.5      106.9
     2.135    123.7      121.9
     2.135    127.4      130.5
     2.135    141.9      195.
     2.236     37.19     229.4
     2.236     48.66     109.5
     2.236     55.13      92.97
     2.236     63.78      68.21
     2.236     68.06      62.03
     2.236     74.46      55.87
     2.236     76.55      60.03
     2.236     89.35      47.7
     2.236     91.4       55.99
     2.236     95.68      49.82
     2.236     99.84      60.19
     2.236    106.2       62.3
     2.236    114.5       78.91
     2.236    118.6       97.55
     2.236    122.7      122.4
     2.236    127.       112.1
     2.236    131.2      114.2
     2.236    145.5      188.8
     2.338     39.35     215.9
     2.338     39.72     180.7
     2.338     51.09     106.2
     2.338     53.36      91.68
     2.338     66.39      60.71
     2.338     74.95      52.51
     2.338     77.11      48.38
     2.338     85.65      42.25
     2.338     94.05      48.56
     2.338    100.3       54.84
     2.338    104.6       56.95
     2.338    112.8       75.69
     2.338    116.8       98.53
     2.338    125.1      113.1
     2.338    145.5      190.
     2.439     34.71     203.3
     2.439     35.08     167.3
     2.439     48.53      95.42
     2.439     52.87      84.87
     2.439     65.91      53.24
     2.439     74.46      44.86
     2.439     89.35      38.66
     2.439     93.54      42.94
     2.439     95.7       38.72
     2.439     99.83      49.35
     2.439    108.3       53.68
     2.439    114.5       66.45
     2.439    116.3       94.
     2.439    124.6      102.6
     2.439    124.7      111.
     2.439    128.9      109.
     2.439    142.8      193.8
     2.54      36.32     194.2
     2.54      38.8      156.7
     2.54      45.59     102.6
     2.54      47.76      92.19
     2.54      54.1       79.76
     2.54      64.72      52.79
     2.54      73.05      46.63
     2.54      87.62      36.38
     2.54      99.92      44.85
     2.54     110.1       63.72
     2.54     114.        76.26
     2.54     119.8      101.3
     2.54     120.       111.8
     2.54     139.6      191.1
     2.642     42.38     143.4
     2.642     52.96      86.79
     2.642     59.19      78.42
     2.642     69.63      53.27
     2.642     69.65      49.07
     2.642     77.94      42.81
     2.642     88.3       34.45
     2.642     94.47      40.78
     2.642     96.57      34.49
     2.642    102.7       38.72
     2.642    108.9       45.05
     2.642    115.1       57.67
     2.642    119.1       80.79
     2.642    125.2      101.8
     2.642    143.4      194.3
     2.743     37.63     174.9
     2.743     42.       139.7
     2.743     50.62      87.89
     2.743     56.89      77.56
     2.743     65.32      52.73
     2.743     69.48      48.61
     2.743     73.66      42.42
     2.743     75.76      36.21
     2.743     86.12      32.14
     2.743     92.32      32.18
     2.743    100.5       38.46
     2.743    106.7       40.58
     2.743    112.8       50.99
     2.743    118.9       75.92
     2.743    124.9       92.55
     2.743    128.       102.9
     2.743    142.9      192.2
     2.844     38.18     164.5
     2.844     40.48     137.4
     2.844     51.28      83.35
     2.844     68.07      52.25
     2.844     68.13      46.01
     2.844     74.39      37.73
     2.844     86.86      29.51
     2.844     95.12      29.58
     2.844    101.3       35.88
     2.844    107.4       40.1
     2.844    113.5       52.65
     2.844    117.5       73.52
     2.844    123.5       90.24
     2.844    145.3      192.5
     2.945     39.74     126.8
     2.945     48.41      82.15
     2.945     71.53      37.69
     2.945     75.7       33.48
     2.945     86.12      22.94
     2.945     92.32      23.
     2.945    112.8       44.47
     2.945    122.7       89.25
     2.945    130.        91.35
     2.945    140.8      144.7
ENDDATA            280
ENDSUBENT          291
ENDENTRY             2
