ENTRY            A1098   20200211   20200413   20200326       A093
SUBENT        A1098001   20200211   20200413   20200326       A093
BIB                 10         18
TITLE      Elastic scattering of 0.3 MeV to 8 MeV deuterons by
           3He and level parameters in 5Li
AUTHOR     (M.Allab,H.Beaumevielle)
REFERENCE  (J,NC/A,36,95,1976)
INSTITUTE  (3ALGCDT)
FACILITY   (VDG,3ALGCDT)
SAMPLE     A gas target (99.9% 3He)
MONITOR    (18-AR-40(P,EL)18-AR-40,,DA)
MONIT-REF  (O0889003,J.Cohen-Ganouna+,J,NP,40,82,1963)
ERR-ANALYS (ERR-T,,10.)  The overall precision of the values of
           absolute cross sections is less than 10%
           (ERR-1) Uncertainty due to background subtraction
HISTORY    (19810422C) Compilation produced by Arzamas RFNC-VNIIEF
           (19961023A) ERR-ANALYS is Corrected by CAJAD.
           (19961024U) Last checking has been done.
           (19990205U)CNPD: corrected 4-dig. year and lower cases.
           (20200211A) SD: Corrections in all Subents according to
           new EXFOR rules. BIB updated.
ENDBIB              18
COMMON               2          3
EN-NRM     ERR-1
MEV        PER-CENT
  1.0        2.
ENDCOMMON            3
ENDSUBENT           25
SUBENT        A1098002   20200211   20200413   20200326       A093
BIB                  3          4
REACTION   (2-HE-3(D,EL)2-HE-3,,DA)
STATUS     (CURVE) Fig. 1 from Nuovo Cim.,A36(1976)95
HISTORY    (20200211A) SD: SF9=EXP deleted from REACTION code.
           ANG-ERR->ANG-ERR-D; DATA-ERR->ERR-DIG. STATUS updated.
ENDBIB               4
COMMON               2          3
ANG-ERR-D  ERR-DIG
ADEG       MB/SR
  1.0        3.0
ENDCOMMON            3
DATA                 3        278
EN         ANG-CM     DATA-CM
MEV        ADEG       MB/SR
      1.012       41.5      943.1
      1.012       47.0      468.3
      1.012       47.3      326.6
      1.012       66.9      210.7
      1.012       73.4      194.3
      1.012       86.3      169.8
      1.012       92.7      195.0
      1.012       94.9      178.4
      1.012      101.3      187.0
      1.012      107.7      195.6
      1.012      124.8      246.2
      1.115       37.6      768.5
      1.115       47.5      329.1
      1.115       62.9      197.1
      1.115       67.3      172.4
      1.115       73.7      172.7
      1.115       86.7      148.4
      1.115       93.1      157.0
      1.115      108.1      157.7
      1.115      112.3      182.8
      1.217       35.0      818.2
      1.217       40.0      577.8
      1.217       47.3      296.0
      1.217       54.0      229.9
      1.217       67.0      172.4
      1.217       69.2      147.6
      1.217       73.5      147.8
      1.217       88.6      140.2
      1.217       92.8      148.7
      1.217       95.0      132.2
      1.217      101.4      157.4
      1.217      107.8      149.4
      1.217      112.1      174.5
      1.217      122.8      183.3
      1.217      124.8      224.9
       1.32       37.2      821.5
       1.32       42.4      496.8
       1.32       49.6      238.8
       1.32       75.6      123.3
       1.32       88.5      115.5
       1.32       92.8      140.7
       1.32      112.0      149.8
       1.32      124.7      167.0
       1.32      124.9      225.3
      1.422       39.0      410.1
      1.422       48.6      212.0
      1.422       55.2      195.2
      1.422       68.3      144.9
      1.422       68.4      128.0
      1.422       77.1      111.3
      1.422       89.9      111.6
      1.422       92.0      132.7
      1.422       94.2      120.1
      1.422      100.5      149.8
      1.422      107.0      137.2
      1.422      113.4      137.4
      1.422      119.6      183.9
      1.422      126.0      184.1
      1.524       37.9      383.4
      1.524       45.4      190.3
      1.524       51.6      182.0
      1.524       60.4      119.2
      1.524       62.5      106.7
      1.524       70.9      102.7
      1.524       71.0       94.3
      1.524       83.5       94.6
      1.524       89.6      107.4
      1.524       97.8      128.6
      1.524      102.0      120.3
      1.524      108.3      120.4
      1.524      112.2      162.6
      1.524      118.5      145.9
      1.524      120.4      175.4
      1.626       36.0      475.2
      1.626       36.6      325.0
      1.626       47.6      166.7
      1.626       51.9      145.9
      1.626       62.4      116.9
      1.626       62.5       96.0
      1.626       68.8       83.6
      1.626       72.9       96.2
      1.626       83.4       83.8
      1.626       87.5       96.4
      1.626       91.7       92.3
      1.626       95.8      113.2
      1.626      102.1      105.0
      1.626      108.3      109.3
      1.626      114.3      155.3
      1.626      118.6      134.5
      1.728       34.9      429.8
      1.728       35.7      297.3
      1.728       44.9      160.8
      1.728       51.3      144.4
      1.728       62.0      107.4
      1.728       62.1       86.7
      1.728       66.3       82.7
      1.728       70.4       91.0
      1.728       83.0       74.8
      1.728       85.0       91.4
      1.728       89.2       87.4
      1.728       95.3      100.0
      1.728       99.5      100.1
      1.728      105.6      116.8
      1.728      109.7      141.7
      1.728      115.9      146.0
      1.728      118.0      133.7
       1.83       35.8      382.5
       1.83       36.5      258.1
       1.83       43.3      142.1
       1.83       64.5       76.1
       1.83       70.8       72.1
       1.83       83.3       68.2
       1.83       85.3       76.6
       1.83      106.1      101.9
       1.83      118.3      131.2
       1.83      118.4      143.6
      1.932       33.5      344.0
      1.932       34.0      233.8
      1.932       45.0      128.2
      1.932       70.3       65.2
      1.932       80.7       61.1
      1.932       87.0       65.5
      1.932       99.3       91.2
      1.932      115.8      129.7
      1.932      117.9      121.3
      1.932      124.2      125.6
      1.932      136.4      180.9
      2.033       38.7      270.5
      2.033       41.1      213.7
      2.033       50.0      120.4
      2.033       56.4      104.2
      2.033       67.1       76.0
      2.033       71.4       63.9
      2.033       77.8       59.9
      2.033       88.4       60.1
      2.033       94.7       60.2
      2.033      103.1       76.6
      2.033      119.9      113.4
      2.033      126.2      129.8
      2.033      142.8      187.0
      2.135       35.3      262.4
      2.135       38.1      198.1
      2.135       45.4      116.8
      2.135       51.9      101.9
      2.135       62.8       72.0
      2.135       67.1       63.5
      2.135       71.4       59.2
      2.135       75.6       63.6
      2.135       84.2       53.0
      2.135       92.5       63.8
      2.135       94.7       57.4
      2.135       98.8       68.1
      2.135      105.1       72.5
      2.135      111.3       85.4
      2.135      117.5      106.9
      2.135      123.7      121.9
      2.135      127.4      130.5
      2.135      141.9      195.0
      2.236       37.2      229.4
      2.236       48.7      109.5
      2.236       55.1       93.0
      2.236       63.8       68.2
      2.236       68.1       62.0
      2.236       74.5       55.9
      2.236       76.5       60.0
      2.236       89.3       47.7
      2.236       91.4       56.0
      2.236       95.7       49.8
      2.236       99.8       60.2
      2.236      106.2       62.3
      2.236      114.5       78.9
      2.236      118.6       97.5
      2.236      122.7      122.4
      2.236      127.0      112.1
      2.236      131.2      114.2
      2.236      145.5      188.8
      2.338       39.4      215.9
      2.338       39.7      180.7
      2.338       51.1      106.2
      2.338       53.4       91.7
      2.338       66.4       60.7
      2.338       75.0       52.5
      2.338       77.1       48.4
      2.338       85.7       42.3
      2.338       94.0       48.6
      2.338      100.3       54.8
      2.338      104.6       57.0
      2.338      112.8       75.7
      2.338      116.8       98.5
      2.338      125.1      113.1
      2.338      145.5      190.0
      2.439       34.7      203.3
      2.439       35.1      167.3
      2.439       48.5       95.4
      2.439       52.9       84.9
      2.439       65.9       53.2
      2.439       74.5       44.9
      2.439       89.3       38.7
      2.439       93.5       42.9
      2.439       95.7       38.7
      2.439       99.8       49.4
      2.439      108.3       53.7
      2.439      114.5       66.5
      2.439      116.3       94.0
      2.439      124.6      102.6
      2.439      124.7      111.0
      2.439      128.9      109.0
      2.439      142.8      193.8
       2.54       36.3      194.2
       2.54       38.8      156.7
       2.54       45.6      102.6
       2.54       47.8       92.2
       2.54       54.1       79.8
       2.54       64.7       52.8
       2.54       73.0       46.6
       2.54       87.6       36.4
       2.54       99.9       44.9
       2.54      110.1       63.7
       2.54      114.0       76.3
       2.54      119.8      101.3
       2.54      120.0      111.8
       2.54      139.6      191.1
      2.642       42.4      143.4
      2.642       53.0       86.8
      2.642       59.2       78.4
      2.642       69.6       53.3
      2.642       69.7       49.1
      2.642       77.9       42.8
      2.642       88.3       34.5
      2.642       94.5       40.8
      2.642       96.6       34.5
      2.642      102.7       38.7
      2.642      108.9       45.0
      2.642      115.1       57.7
      2.642      119.1       80.8
      2.642      125.2      101.8
      2.642      143.4      194.3
      2.743       37.6      174.9
      2.743       42.0      139.7
      2.743       50.6       87.9
      2.743       56.9       77.6
      2.743       65.3       52.7
      2.743       69.5       48.6
      2.743       73.7       42.4
      2.743       75.8       36.2
      2.743       86.1       32.1
      2.743       92.3       32.2
      2.743      100.5       38.5
      2.743      106.7       40.6
      2.743      112.8       51.0
      2.743      118.9       75.9
      2.743      124.9       92.5
      2.743      128.0      102.9
      2.743      142.9      192.2
      2.844       38.2      164.5
      2.844       40.5      137.4
      2.844       51.3       83.3
      2.844       68.1       52.3
      2.844       68.1       46.0
      2.844       74.4       37.7
      2.844       86.9       29.5
      2.844       95.1       29.6
      2.844      101.3       35.9
      2.844      107.4       40.1
      2.844      113.5       52.6
      2.844      117.5       73.5
      2.844      123.5       90.2
      2.844      145.3      192.5
      2.945       39.7      126.8
      2.945       48.4       82.2
      2.945       71.5       37.7
      2.945       75.7       33.5
      2.945       86.1       22.9
      2.945       92.3       23.0
      2.945      112.8       44.5
      2.945      122.7       89.3
      2.945      130.0       91.3
      2.945      140.8      144.7
ENDDATA            280
ENDSUBENT          293
ENDENTRY             2
