ENTRY            10810   20110112   20110216   20110117       1369
SUBENT        10810001   20110112   20110216   20110117       1369
BIB                 14         41
INSTITUTE  (1USALTI)
REFERENCE  (J,NSE,91,187,198510)
           (C,79KNOX,,685(FC4),197910)
           (J,BAP,23,637(KL14),197804)
AUTHOR     (J.H.Dave,J.J.Egan,G.P.Couchell,G.H.R.Kegel,A.Mittler,
           D.J.Pullen,W.A.Schier,E.Sheldon)
TITLE      Cross sections, transition schemes, and branching
            ratios for 232Th from the 232Th(n,n'gamma) reaction
FACILITY   (VDG,1USALTI)
INC-SOURCE (P-T) Protons on tritium
SAMPLE     Disk shaped samples
DETECTOR   (GELI) 40-Cubic cm germanium-lithium detector
           (NAICR) sodium iodide annular ring to reduce compton
            effects
           (LONGC) Long counter flux monitor
           (FISCH) Fission chamber flux monitor
           (SCIN) Plastic scintillator used as auxilliary time of
            flight system
MONITOR    No information
METHOD     (TOF) Pulsed time of flight.
CORRECTION Corrected for:
            -neutron attenuation in sample
            -gamma attenuation in sample
            -neutron multiple scattering
            -internal conversion
            -variation of incident fluence over sample
ERR-ANALYS (DATA-ERR) Errors contributed by:
            . statistics (up to 40%),
            . yield extraction uncertainties (1-20%),
            . incident neutron fluence uncertainty (5%),
            . Ge(Li) detector efficiency uncertainty (4-6%).
STATUS     (APRVD) Approved by J.J.Egan, 1981/7/14.
           (TABLE) Data from private comm., J.Egan, 1980/9,
            and revised in private comm., J.Egan, 1986/6.
HISTORY    (19801015C)
           (19810722U) Status added
           (19820108A) Corrected reference.
           (19860129U) BIB update.
           (19860623A) Revised as per private communication.
           (20110112A) VM:Updated to new date formats,lower case.
                       BIB updates. Updates to subentry 003.
ENDBIB              41
NOCOMMON             0          0
ENDSUBENT           44
SUBENT        10810002     860623              20050926       0000
BIB                  1          1
REACTION   (90-TH-232(N,INL)90-TH-232,PAR,DA,G)
ENDBIB               1
COMMON               1          3
ANG
ADEG
 125.
ENDCOMMON            3
DATA                 4        998
EN         E          DATA       DATA-ERR
KEV        KEV        MB/SR      MB/SR
  766.6      664.83     5.62      0.67
  766.6      680.90     1.26      0.32
  766.6      714.24     0.83      0.22
  817.9      611.81     1.75      0.45
  817.9      664.83     9.44      1.17
  817.9      680.90     3.60      0.69
  817.9      714.24     2.33      0.37
  817.9      724.62     0.66      0.27
  817.9      774.09     2.73      0.54
  817.9      785.21     0.43      0.38
  836.5      611.81     3.60      0.56
  836.5      664.83    12.41      1.37
  836.5      680.90     3.79      0.55
  836.5      714.24     2.95      0.49
  836.5      724.62     1.01      0.25
  836.5      727.52     0.41      0.40
  836.5      735.92     3.90      0.57
  836.5      774.09     1.42      0.23
  836.5      780.12     0.94      0.24
  836.5      785.21     1.69      0.38
  867.9      611.81     5.29      0.68
  867.9      664.83    13.57      1.55
  867.9      680.90     4.77      0.41
  867.9      714.24     2.16      0.33
  867.9      724.62     0.74      0.20
  867.9      727.52     0.71      0.31
  867.9      735.92     6.30      0.75
  867.9      774.09     3.72      0.68
  867.9      780.12     1.12      0.27
  867.9      785.21     5.36      0.48
  944.1      611.81    10.07      1.10
  944.1      664.83    15.94      1.60
  944.1      667.49     0.66      0.16
  944.1      680.90     5.10      0.58
  944.1      714.24     3.02      0.40
  944.1      724.62     1.66      0.50
  944.1      727.52     0.81      0.42
  944.1      735.92     9.03      0.94
  944.1      774.09     6.33      0.65
  944.1      780.12     4.58      0.50
  944.1      785.21     5.57      0.62
  967.7      611.81    12.55      1.52
  967.7      664.83    17.28      2.01
  967.7      680.90     5.38      0.67
  967.7      714.24     3.41      0.46
  967.7      724.62     1.74      0.29
  967.7      727.52     0.95      0.43
  967.7      735.92     9.10      1.05
  967.7      774.09     8.36      0.96
  967.7      785.21     5.53      0.67
  967.7      823.36     0.78      0.20
 1043.4      611.81    10.76      1.35
 1043.4      664.83    15.72      1.60
 1043.4      667.49     1.53      0.24
 1043.4      680.90     5.24      0.58
 1043.4      714.24     2.92      0.38
 1043.4      724.62     2.04      0.29
 1043.4      727.52     1.83      0.30
 1043.4      735.92     9.57      1.06
 1043.4      774.09     5.95      0.62
 1043.4      780.12     6.03      0.69
 1043.4      785.21     5.49      0.64
 1068.7      611.81    13.71      1.70
 1068.7      664.83    16.94      2.00
 1068.7      667.49     1.12      0.27
 1068.7      680.90     6.12      0.77
 1068.7      714.24     3.94      0.54
 1068.7      724.62     2.30      0.35
 1068.7      727.52     4.61      0.72
 1068.7      735.92    11.74      1.42
 1068.7      774.09     7.93      0.90
 1068.7      780.12     7.89      0.90
 1068.7      785.21     6.80      0.80
 1068.7      823.36     1.33      0.29
 1068.7     1072.50     0.20      0.12
 1155.1      611.81    13.46      1.40
 1155.1      664.83    15.95      1.65
 1155.1      667.49     1.01      0.20
 1155.1      680.90     6.10      0.69
 1155.1      714.24     3.07      0.38
 1155.1      724.62     1.93      0.26
 1155.1      727.52     4.92      0.57
 1155.1      735.92    12.19      1.23
 1155.1      774.09     5.99      0.49
 1155.1      780.12     8.53      0.87
 1155.1      785.21     7.06      0.74
 1155.1      823.36     2.43      0.34
 1155.1     1004.20     1.07      0.22
 1155.1     1023.79     1.70      0.29
 1155.1     1029.00     1.50      0.32
 1155.1     1056.01     0.56      0.22
 1155.1     1072.50     0.60      0.10
 1166.8      611.81    17.92      2.76
 1166.8      664.83    19.10      2.57
 1166.8      667.49     1.88      0.29
 1166.8      680.90     6.38      0.89
 1166.8      714.24     3.35      0.51
 1166.8      724.62     2.55      0.35
 1166.8      727.52     4.97      0.69
 1166.8      735.92    12.99      1.52
 1166.8      774.09     5.99      0.71
 1166.8      780.12     9.19      1.02
 1166.8      785.21     7.17      0.82
 1166.8      823.36     2.50      0.34
 1166.8     1004.20     0.91      0.22
 1166.8     1023.79     2.78      0.43
 1166.8     1029.00     1.92      0.33
 1166.8     1045.00     0.40      0.17
 1166.8     1056.01     0.64      0.17
 1166.8     1072.50     1.50      0.28
 1166.8     1077.79     1.76      0.34
 1169.5      611.81    13.06      1.61
 1169.5      664.83    17.74      2.06
 1169.5      667.49     1.89      0.37
 1169.5      680.90     5.59      0.71
 1169.5      714.24     2.24      0.25
 1169.5      724.62     3.39      0.46
 1169.5      727.52     3.40      0.65
 1169.5      735.92    14.25      1.59
 1169.5      774.09     7.00      0.87
 1169.5      780.12    10.58      1.19
 1169.5      785.21     8.94      1.02
 1169.5      823.36     2.54      0.41
 1169.5     1023.79     3.40      0.42
 1169.5     1029.00     1.77      0.25
 1169.5     1056.01     0.85      0.17
 1169.5     1072.50     1.18      0.18
 1169.5     1077.79     0.98      0.31
 1223.6      611.81    17.07      2.05
 1223.6      664.83    18.37      2.12
 1223.6      667.49     2.22      0.34
 1223.6      680.90     5.62      0.79
 1223.6      714.24     3.41      0.50
 1223.6      724.62     3.24      0.44
 1223.6      727.52     4.84      0.61
 1223.6      735.92    15.55      1.73
 1223.6      774.09     7.20      0.82
 1223.6      780.12     9.80      1.11
 1223.6      785.21     8.15      0.96
 1223.6      823.36     2.46      0.39
 1223.6      959.45     1.87      0.31
 1223.6     1004.20     0.81      0.15
 1223.6     1023.79     5.12      0.56
 1223.6     1029.00     2.22      0.31
 1223.6     1045.00     0.43      0.19
 1223.6     1056.01     1.91      0.28
 1223.6     1072.50     3.14      0.37
 1223.6     1077.79     2.45      0.41
 1269.7      550.22     0.70      0.25
 1269.7      611.81    14.76      1.78
 1269.7      627.14     0.38      0.24
 1269.7      664.83    18.24      2.10
 1269.7      667.49     1.49      0.28
 1269.7      680.90     4.59      0.59
 1269.7      714.24     2.81      0.42
 1269.7      724.62     3.52      0.47
 1269.7      727.52     4.06      0.62
 1269.7      735.92    13.04      1.33
 1269.7      774.09     6.75      0.78
 1269.7      780.12    10.91      1.20
 1269.7      785.21     8.00      0.91
 1269.7      797.78     1.19      0.70
 1269.7      823.36     2.08      0.34
 1269.7      959.45     2.64      0.34
 1269.7      981.02     0.59      0.21
 1269.7     1004.20     1.20      0.30
 1269.7     1023.79     5.70      0.63
 1269.7     1029.00     2.47      0.31
 1269.7     1045.00     0.27      0.14
 1269.7     1056.01     1.97      0.24
 1269.7     1072.50     3.31      0.37
 1269.7     1077.79     3.66      0.43
 1347.2      550.22     1.82      0.61
 1347.2      611.81    15.68      2.45
 1347.2      664.83    18.46      2.48
 1347.2      667.49     1.32      0.34
 1347.2      680.90     5.03      0.75
 1347.2      714.24     3.05      0.50
 1347.2      724.62     3.78      0.53
 1347.2      727.52     7.82      1.04
 1347.2      735.92    12.06      1.42
 1347.2      774.09     7.50      0.87
 1347.2      780.12    10.08      1.13
 1347.2      785.21     6.36      0.77
 1347.2      797.78     0.61      0.24
 1347.2      823.36     2.74      0.41
 1347.2      932.29     0.71      0.24
 1347.2      943.33     0.20      0.26
 1347.2      959.45     2.88      0.43
 1347.2      981.02     1.36      0.31
 1347.2      986.22     1.64      0.35
 1347.2     1004.20     1.86      0.32
 1347.2     1020.42     0.80      0.21
 1347.2     1023.79     5.89      0.82
 1347.2     1029.00     4.00      0.59
 1347.2     1045.00     0.93      0.22
 1347.2     1053.51     0.30      0.06
 1347.2     1056.01     3.15      0.46
 1347.2     1072.50     1.71      0.25
 1347.2     1077.79     3.97      0.70
 1347.2     1132.90     0.40      0.08
 1357.9      550.22     0.83      0.18
 1357.9      611.81    12.28      1.32
 1357.9      627.14     0.45      0.18
 1357.9      664.83    14.15      1.50
 1357.9      667.49     2.03      0.25
 1357.9      680.90     4.19      0.46
 1357.9      714.24     2.20      0.27
 1357.9      724.62     3.07      0.41
 1357.9      727.52     4.82      0.53
 1357.9      735.92    11.17      1.11
 1357.9      774.09     7.05      0.71
 1357.9      780.12     8.97      0.90
 1357.9      785.21     6.60      0.67
 1357.9      797.78     1.22      0.17
 1357.9      823.36     2.70      0.31
 1357.9      959.45     2.39      0.30
 1357.9      981.02     1.51      0.21
 1357.9     1004.20     1.67      0.30
 1357.9     1020.42     0.50      0.11
 1357.9     1023.79     5.85      0.67
 1357.9     1029.00     3.73      0.45
 1357.9     1045.00     0.78      0.11
 1357.9     1053.51     0.78      0.14
 1357.9     1056.01     3.85      0.46
 1357.9     1072.50     4.82      0.50
 1357.9     1077.79     5.15      0.54
 1357.9     1121.53     0.53      0.14
 1357.9     1132.90     1.74      0.25
 1376.9      550.22     1.89      0.33
 1376.9      611.81    15.05      1.78
 1376.9      627.14     0.64      0.21
 1376.9      664.83    15.79      1.80
 1376.9      667.49     2.30      0.33
 1376.9      680.90     4.55      0.55
 1376.9      714.24     2.79      0.37
 1376.9      724.62     3.36      0.43
 1376.9      727.52     5.99      0.72
 1376.9      735.92    13.41      1.48
 1376.9      774.09     6.25      0.70
 1376.9      780.12    10.66      1.22
 1376.9      785.21     7.70      0.86
 1376.9      797.78     1.30      0.21
 1376.9      823.36     3.32      0.41
 1376.9      932.29     0.43      0.15
 1376.9      943.33     0.68      0.23
 1376.9      959.45     2.90      0.35
 1376.9      981.02     1.69      0.24
 1376.9      986.22     0.71      0.19
 1376.9     1004.20     1.78      0.26
 1376.9     1020.42     0.66      0.15
 1376.9     1023.79     6.77      0.71
 1376.9     1029.00     3.21      0.36
 1376.9     1045.00     0.93      0.13
 1376.9     1053.51     1.48      0.21
 1376.9     1056.01     3.08      0.33
 1376.9     1072.50     7.57      0.77
 1376.9     1077.79     5.10      0.54
 1376.9     1132.90     2.43      0.31
 1427.3      550.22     2.11      0.46
 1427.3      611.81    15.80      1.89
 1427.3      627.14     0.53      0.27
 1427.3      664.83    17.08      2.00
 1427.3      667.49     3.03      0.42
 1427.3      680.90     4.21      0.56
 1427.3      714.24     2.30      0.35
 1427.3      724.62     3.64      0.47
 1427.3      727.52     6.94      0.88
 1427.3      735.92    14.34      1.59
 1427.3      774.09     7.05      0.81
 1427.3      780.12    11.98      1.32
 1427.3      785.21     6.63      0.73
 1427.3      797.78     1.66      0.30
 1427.3      823.36     3.67      0.50
 1427.3      884.53     0.29      0.21
 1427.3      932.29     0.28      0.18
 1427.3      943.33     0.34      0.21
 1427.3      959.45     3.21      0.40
 1427.3      981.02     2.02      0.30
 1427.3      986.22     0.61      0.21
 1427.3     1004.20     1.83      0.32
 1427.3     1020.42     0.94      0.21
 1427.3     1023.79     7.41      0.78
 1427.3     1029.00     3.85      0.46
 1427.3     1045.00     0.89      0.25
 1427.3     1053.51     1.28      0.28
 1427.3     1056.01     3.74      0.42
 1427.3     1072.50     9.16      0.94
 1427.3     1077.79     6.19      0.68
 1427.3     1121.53     0.52      0.20
 1427.3     1132.90     2.50      0.33
 1477.9      550.22     1.82      0.38
 1477.9      611.81    14.14      1.68
 1477.9      627.14     0.75      0.24
 1477.9      664.83    15.49      1.78
 1477.9      667.49     1.80      0.24
 1477.9      680.90     3.67      0.48
 1477.9      714.24     2.23      0.32
 1477.9      724.62     2.56      0.27
 1477.9      727.52     6.29      0.75
 1477.9      735.92    12.52      1.38
 1477.9      774.09     5.79      0.68
 1477.9      780.12    10.31      1.12
 1477.9      785.21     6.35      0.73
 1477.9      797.78     1.59      0.27
 1477.9      823.36     3.79      0.50
 1477.9      932.29     0.37      0.18
 1477.9      943.33     1.07      0.20
 1477.9      959.45     2.85      0.34
 1477.9      981.02     1.73      0.24
 1477.9      986.22     0.65      0.17
 1477.9     1004.20     1.86      0.26
 1477.9     1020.42     0.70      0.14
 1477.9     1023.79     6.69      0.68
 1477.9     1029.00     3.84      0.43
 1477.9     1045.00     1.13      0.14
 1477.9     1053.51     1.61      0.21
 1477.9     1056.01     3.82      0.40
 1477.9     1072.50     7.45      0.76
 1477.9     1077.79     5.47      0.57
 1477.9     1121.53     0.48      0.16
 1477.9     1132.90     2.75      0.32
 1537.2      550.22     2.60      0.46
 1537.2      611.81    13.05      1.56
 1537.2      627.14     0.84      0.17
 1537.2      664.83    16.06      1.83
 1537.2      667.49     2.22      0.29
 1537.2      680.90     3.71      0.49
 1537.2      714.24     2.11      0.35
 1537.2      724.62     2.73      0.38
 1537.2      727.52     6.65      0.78
 1537.2      735.92    12.72      1.41
 1537.2      774.09     6.83      0.77
 1537.2      780.12    12.13      1.34
 1537.2      785.21     7.85      0.85
 1537.2      797.78     1.45      0.24
 1537.2      823.36     2.72      0.33
 1537.2      884.53     0.49      0.22
 1537.2      932.29     0.40      0.20
 1537.2      943.33     0.99      0.21
 1537.2      959.45     3.83      0.44
 1537.2      981.02     2.55      0.33
 1537.2      986.22     0.93      0.20
 1537.2     1004.20     1.74      0.27
 1537.2     1020.42     1.13      0.21
 1537.2     1023.79     6.99      0.72
 1537.2     1029.00     3.85      0.44
 1537.2     1045.00     0.96      0.19
 1537.2     1046.59     0.43      0.14
 1537.2     1053.51     1.37      0.23
 1537.2     1056.01     4.47      0.47
 1537.2     1072.50     8.27      0.84
 1537.2     1077.79     7.36      0.76
 1537.2     1121.53     0.53      0.17
 1537.2     1132.90     2.95      0.35
 1537.2     1303.22     0.89      0.16
 1537.2     1400.88     0.41      0.14
 1537.2     1430.58     0.53      0.16
 1571.3      550.22     1.94      0.51
 1571.3      611.81    15.78      2.46
 1571.3      627.14     0.85      0.17
 1571.3      664.83    14.11      1.91
 1571.3      667.49     1.26      0.28
 1571.3      680.90     3.08      0.50
 1571.3      714.24     2.03      0.36
 1571.3      724.62     2.42      0.41
 1571.3      727.52     7.30      0.90
 1571.3      735.92    11.59      1.37
 1571.3      774.09     5.74      0.75
 1571.3      780.12    10.32      1.14
 1571.3      785.21     6.56      0.75
 1571.3      797.78     2.19      0.35
 1571.3      823.36     3.47      0.50
 1571.3      932.29     0.84      0.29
 1571.3      943.33     0.80      0.23
 1571.3      959.45     3.19      0.45
 1571.3      981.02     1.86      0.31
 1571.3      986.22     1.42      0.29
 1571.3     1004.20     1.44      0.28
 1571.3     1020.42     0.49      0.15
 1571.3     1023.79     6.33      0.87
 1571.3     1029.00     3.36      0.52
 1571.3     1045.00     1.34      0.21
 1571.3     1046.59     0.50      0.23
 1571.3     1053.51     1.28      0.25
 1571.3     1056.01     4.22      0.61
 1571.3     1072.50     7.44      1.07
 1571.3     1077.79     5.10      0.77
 1571.3     1121.53     0.56      0.18
 1571.3     1132.90     2.54      0.44
 1571.3     1224.88     0.95      0.22
 1571.3     1303.22     0.96      0.25
 1571.3     1400.88     1.09      0.32
 1571.3     1430.58     0.55      0.20
 1627.0      550.22     3.01      0.47
 1627.0      611.81    18.46      2.21
 1627.0      627.14     1.14      0.31
 1627.0      664.83    16.68      1.93
 1627.0      667.49     3.23      0.44
 1627.0      680.90     3.41      0.47
 1627.0      714.24     2.73      0.39
 1627.0      724.62     3.60      0.46
 1627.0      727.52     8.51      1.00
 1627.0      735.92    13.90      1.54
 1627.0      774.09     5.14      0.59
 1627.0      780.12    12.08      1.32
 1627.0      785.21     8.01      0.90
 1627.0      797.78     1.92      0.28
 1627.0      814.82     0.75      0.24
 1627.0      823.36     3.58      0.45
 1627.0      884.53     0.60      0.20
 1627.0      932.29     0.79      0.21
 1627.0      943.33     0.67      0.21
 1627.0      959.45     3.74      0.43
 1627.0      981.02     2.73      0.35
 1627.0      986.22     0.95      0.20
 1627.0     1004.20     1.44      0.25
 1627.0     1020.42     1.11      0.20
 1627.0     1023.79     7.72      0.79
 1627.0     1029.00     3.85      0.39
 1627.0     1045.00     1.34      0.22
 1627.0     1046.59     0.61      0.14
 1627.0     1053.51     1.64      0.23
 1627.0     1056.01     5.08      0.67
 1627.0     1072.50     8.79      0.89
 1627.0     1077.79     7.68      0.80
 1627.0     1121.53     0.78      0.22
 1627.0     1132.90     3.70      0.46
 1627.0     1224.88     0.91      0.19
 1627.0     1303.22     1.39      0.24
 1627.0     1322.19     0.87      0.18
 1627.0     1337.58     0.55      0.18
 1627.0     1387.28     0.22      0.10
 1627.0     1400.88     0.98      0.21
 1627.0     1430.58     0.81      0.19
 1627.0     1439.67     0.47      0.17
 1627.0     1505.29     0.26      0.15
 1627.0     1555.10     0.71      0.17
 1677.1      550.22     2.87      0.39
 1677.1      611.81    16.14      1.90
 1677.1      627.14     1.15      0.25
 1677.1      664.83    14.92      1.71
 1677.1      667.49     3.20      0.42
 1677.1      680.90     2.55      0.35
 1677.1      714.24     2.41      0.33
 1677.1      724.62     2.84      0.36
 1677.1      727.52     8.35      0.96
 1677.1      735.92    13.05      1.43
 1677.1      774.09     6.43      0.71
 1677.1      780.12    11.66      1.27
 1677.1      785.21     8.32      0.92
 1677.1      797.78     2.16      0.28
 1677.1      823.36     3.49      0.42
 1677.1      884.53     0.21      0.16
 1677.1      932.29     0.56      0.13
 1677.1      943.33     0.61      0.15
 1677.1      959.45     3.27      0.37
 1677.1      981.02     2.49      0.31
 1677.1      986.22     0.78      0.16
 1677.1     1004.20     1.43      0.22
 1677.1     1020.42     0.89      0.16
 1677.1     1023.79     6.91      0.70
 1677.1     1029.00     3.21      0.36
 1677.1     1045.00     1.21      0.19
 1677.1     1046.59     0.53      0.13
 1677.1     1053.51     1.06      0.17
 1677.1     1056.01     4.73      0.49
 1677.1     1072.50     7.93      0.80
 1677.1     1077.79     6.91      0.71
 1677.1     1121.53     0.68      0.17
 1677.1     1132.90     3.63      0.40
 1677.1     1166.19     0.70      0.16
 1677.1     1224.88     0.95      0.19
 1677.1     1303.22     1.28      0.22
 1677.1     1322.19     1.38      0.21
 1677.1     1328.94     0.20      0.13
 1677.1     1337.58     0.79      0.16
 1677.1     1387.28     0.51      0.14
 1677.1     1400.88     1.49      0.23
 1677.1     1430.58     1.45      0.21
 1677.1     1439.67     0.78      0.17
 1677.1     1489.35     0.49      0.14
 1677.1     1505.29     1.50      0.24
 1677.1     1555.10     0.79      0.19
 1677.1     1572.47     0.31      0.14
 1745.6     1166.19     0.35      0.16
 1745.9      550.22     3.36      0.75
 1745.9      611.81    17.21      2.65
 1745.9      627.14     1.42      0.45
 1745.9      664.83    17.10      2.31
 1745.9      667.49     2.03      0.40
 1745.9      680.90     2.92      0.52
 1745.9      714.24     2.79      0.46
 1745.9      724.62     1.93      0.33
 1745.9      727.52     7.66      1.04
 1745.9      735.92    12.46      1.47
 1745.9      774.09     4.89      0.61
 1745.9      780.12    11.31      1.24
 1745.9      785.21     6.72      0.74
 1745.9      797.78     1.97      0.34
 1745.9      814.82     0.79      0.27
 1745.9      823.36     2.85      0.43
 1745.9      884.53     0.33      0.28
 1745.9      932.29     0.66      0.22
 1745.9      943.33     0.49      0.23
 1745.9      959.45     3.91      0.54
 1745.9      981.02     3.43      0.50
 1745.9      986.22     1.53      0.30
 1745.9     1004.20     1.54      0.32
 1745.9     1020.42     0.97      0.23
 1745.9     1023.79     6.04      0.83
 1745.9     1029.00     2.53      0.40
 1745.9     1045.00     0.94      0.22
 1745.9     1046.59     0.87      0.20
 1745.9     1053.51     0.84      0.14
 1745.9     1056.01     5.03      0.73
 1745.9     1072.50     7.79      1.12
 1745.9     1077.79     4.72      0.72
 1745.9     1121.53     0.68      0.21
 1745.9     1132.90     2.82      0.49
 1745.9     1224.88     1.38      0.33
 1745.9     1303.22     0.92      0.25
 1745.9     1322.19     1.43      0.33
 1745.9     1328.94     0.16      0.14
 1745.9     1337.58     0.65      0.14
 1745.9     1387.28     0.38      0.16
 1745.9     1391.51     0.60      0.22
 1745.9     1400.88     1.48      0.33
 1745.9     1416.78     0.27      0.15
 1745.9     1430.58     1.38      0.34
 1745.9     1439.67     0.49      0.16
 1745.9     1446.46     0.23      0.15
 1745.9     1470.68     0.22      0.11
 1745.9     1485.50     0.26      0.15
 1745.9     1489.35     0.41      0.15
 1745.9     1505.29     2.57      0.58
 1745.9     1523.38     0.28      0.13
 1745.9     1527.36     0.16      0.15
 1745.9     1555.10     1.41      0.34
 1745.9     1560.89     0.32      0.14
 1745.9     1568.64     0.61      0.19
 1745.9     1572.47     0.38      0.17
 1745.9     1640.59     0.40      0.16
 1759.2      550.22     3.07      0.37
 1759.2      611.81    14.85      1.56
 1759.2      627.14     1.46      0.22
 1759.2      664.83    13.96      1.43
 1759.2      667.49     3.02      0.33
 1759.2      680.90     2.23      0.27
 1759.2      714.24     2.94      0.32
 1759.2      724.62     2.41      0.27
 1759.2      727.52     6.17      0.63
 1759.2      735.92    11.63      1.15
 1759.2      774.09     4.74      0.48
 1759.2      780.12    12.08      1.18
 1759.2      785.21     7.49      0.75
 1759.2      797.78     1.85      0.34
 1759.2      814.82     0.45      0.13
 1759.2      823.36     2.92      0.32
 1759.2      884.53     0.34      0.15
 1759.2      932.29     0.53      0.12
 1759.2      943.33     0.69      0.13
 1759.2      959.45     2.70      0.32
 1759.2      981.02     2.54      0.30
 1759.2      986.22     0.91      0.14
 1759.2     1004.20     1.14      0.16
 1759.2     1020.42     0.98      0.15
 1759.2     1023.79     5.65      0.64
 1759.2     1029.00     2.80      0.34
 1759.2     1045.00     0.81      0.12
 1759.2     1046.59     0.98      0.14
 1759.2     1053.51     0.98      0.15
 1759.2     1056.01     5.04      0.58
 1759.2     1072.50     7.24      0.83
 1759.2     1077.79     5.65      0.65
 1759.2     1121.53     0.48      0.12
 1759.2     1132.90     3.38      0.42
 1759.2     1166.19     0.57      0.13
 1759.2     1224.88     1.08      0.17
 1759.2     1303.22     1.04      0.17
 1759.2     1322.19     1.20      0.19
 1759.2     1337.58     0.56      0.19
 1759.2     1387.28     0.23      0.09
 1759.2     1391.51     0.79      0.15
 1759.2     1400.88     1.75      0.26
 1759.2     1416.78     0.18      0.10
 1759.2     1430.58     1.58      0.24
 1759.2     1439.67     0.52      0.18
 1759.2     1446.46     0.36      0.10
 1759.2     1485.50     0.50      0.12
 1759.2     1489.35     0.81      0.15
 1759.2     1505.29     2.45      0.36
 1759.2     1527.36     0.25      0.09
 1759.2     1555.10     0.97      0.17
 1759.2     1560.89     0.84      0.16
 1759.2     1572.47     1.08      0.18
 1759.2     1640.59     0.33      0.10
 1777.3      550.22     3.49      0.50
 1777.3      611.81    16.99      2.01
 1777.3      627.14     1.54      0.32
 1777.3      664.83    16.56      1.90
 1777.3      667.49     1.96      0.22
 1777.3      680.90     2.66      0.40
 1777.3      714.24     2.05      0.32
 1777.3      724.62     2.39      0.33
 1777.3      727.52     7.28      0.86
 1777.3      735.92    11.72      1.30
 1777.3      774.09     5.13      0.59
 1777.3      780.12    11.75      1.28
 1777.3      785.21     7.95      0.89
 1777.3      797.78     1.52      0.24
 1777.3      814.82     0.23      0.03
 1777.3      823.36     3.19      0.40
 1777.3      932.29     0.61      0.24
 1777.3      943.33     0.64      0.22
 1777.3      959.45     3.08      0.35
 1777.3      981.02     2.82      0.34
 1777.3      986.22     1.46      0.22
 1777.3     1004.20     1.29      0.21
 1777.3     1020.42     0.95      0.18
 1777.3     1023.79     6.59      0.68
 1777.3     1029.00     2.69      0.33
 1777.3     1045.00     1.20      0.18
 1777.3     1046.59     1.08      0.18
 1777.3     1053.51     1.15      0.21
 1777.3     1056.01     4.73      0.49
 1777.3     1072.50     7.77      0.79
 1777.3     1077.79     6.47      0.67
 1777.3     1121.53     0.66      0.17
 1777.3     1132.90     3.71      0.42
 1777.3     1166.19     0.66      0.19
 1777.3     1224.88     1.25      0.24
 1777.3     1303.22     1.16      0.22
 1777.3     1322.19     1.53      0.23
 1777.3     1328.94     0.24      0.14
 1777.3     1337.58     0.59      0.15
 1777.3     1387.28     0.34      0.17
 1777.3     1391.51     0.62      0.18
 1777.3     1400.88     1.89      0.29
 1777.3     1416.78     0.17      0.11
 1777.3     1430.58     1.58      0.26
 1777.3     1439.67     0.59      0.18
 1777.3     1446.46     0.22      0.11
 1777.3     1470.68     0.53      0.16
 1777.3     1485.50     0.86      0.19
 1777.3     1489.35     0.73      0.15
 1777.3     1505.29     2.87      0.37
 1777.3     1523.38     0.14      0.10
 1777.3     1527.36     0.28      0.14
 1777.3     1555.10     0.91      0.17
 1777.3     1560.89     1.14      0.22
 1777.3     1572.47     1.03      0.18
 1777.3     1640.59     0.93      0.19
 1777.3     1716.51     0.94      0.16
 1777.3     1727.28     0.09      0.02
 1827.1      550.22     4.20      0.53
 1827.1      611.81    19.12      2.23
 1827.1      627.14     1.40      0.31
 1827.1      664.83    16.30      1.86
 1827.1      667.49     2.99      0.43
 1827.1      680.90     1.91      0.32
 1827.1      714.24     2.33      0.44
 1827.1      724.62     1.86      0.28
 1827.1      727.52     6.64      0.77
 1827.1      735.92    13.44      1.50
 1827.1      774.09     5.44      0.63
 1827.1      780.12    13.66      1.48
 1827.1      785.21     8.98      0.99
 1827.1      797.78     1.42      0.25
 1827.1      814.82     0.82      0.21
 1827.1      823.36     2.67      0.35
 1827.1      932.29     0.85      0.13
 1827.1      943.33     0.72      0.13
 1827.1      959.45     3.05      0.37
 1827.1      981.02     2.61      0.32
 1827.1      986.22     1.43      0.22
 1827.1     1004.20     1.10      0.18
 1827.1     1020.42     1.09      0.18
 1827.1     1023.79     6.65      0.68
 1827.1     1029.00     2.65      0.32
 1827.1     1045.00     0.72      0.15
 1827.1     1046.59     0.92      0.15
 1827.1     1053.51     0.83      0.16
 1827.1     1056.01     4.96      0.51
 1827.1     1072.50     8.80      0.89
 1827.1     1077.79     6.46      0.69
 1827.1     1121.53     0.59      0.14
 1827.1     1132.90     3.22      0.36
 1827.1     1166.19     0.99      0.22
 1827.1     1224.88     1.16      0.22
 1827.1     1303.22     0.96      0.20
 1827.1     1322.19     1.51      0.23
 1827.1     1328.94     0.28      0.13
 1827.1     1337.58     0.69      0.16
 1827.1     1387.28     0.36      0.17
 1827.1     1391.51     0.85      0.18
 1827.1     1400.88     1.84      0.31
 1827.1     1416.78     0.60      0.17
 1827.1     1430.58     1.57      0.24
 1827.1     1439.67     0.84      0.17
 1827.1     1446.46     0.63      0.16
 1827.1     1470.68     0.25      0.15
 1827.1     1485.50     0.78      0.17
 1827.1     1489.35     0.82      0.17
 1827.1     1505.29     3.49      0.43
 1827.1     1523.38     0.73      0.18
 1827.1     1527.36     0.77      0.15
 1827.1     1555.10     1.36      0.21
 1827.1     1560.89     1.72      0.27
 1827.1     1568.64     1.58      0.23
 1827.1     1572.47     1.45      0.21
 1827.1     1578.33     0.63      0.15
 1827.1     1640.59     0.94      0.16
 1827.1     1679.10     0.49      0.13
 1827.1     1727.28     0.42      0.12
 1877.3      550.22     3.79      0.75
 1877.3      611.81    16.71      2.25
 1877.3      627.14     1.60      0.30
 1877.3      664.83    16.50      2.20
 1877.3      667.49     2.60      0.40
 1877.3      680.90     2.33      0.37
 1877.3      714.24     2.66      0.39
 1877.3      724.62     2.63      0.42
 1877.3      727.52     8.41      1.01
 1877.3      735.92    12.15      1.38
 1877.3      774.09     3.95      0.48
 1877.3      780.12    11.14      1.18
 1877.3      785.21     7.38      0.80
 1877.3      797.78     1.95      0.29
 1877.3      814.82     0.11      0.02
 1877.3      823.36     3.53      0.45
 1877.3      932.29     0.73      0.18
 1877.3      943.33     0.50      0.13
 1877.3      959.45     2.89      0.39
 1877.3      981.02     2.92      0.40
 1877.3      986.22     1.20      0.21
 1877.3     1004.20     1.03      0.20
 1877.3     1020.42     0.77      0.17
 1877.3     1023.79     5.98      0.80
 1877.3     1029.00     2.07      0.33
 1877.3     1045.00     0.95      0.20
 1877.3     1046.59     0.82      0.19
 1877.3     1053.51     0.81      0.18
 1877.3     1056.01     4.44      0.62
 1877.3     1072.50     6.65      0.96
 1877.3     1077.79     6.50      0.93
 1877.3     1132.90     3.07      0.48
 1877.3     1166.19     1.00      0.23
 1877.3     1224.88     0.77      0.20
 1877.3     1303.22     0.69      0.17
 1877.3     1322.19     1.70      0.33
 1877.3     1337.58     0.52      0.20
 1877.3     1387.28     0.39      0.14
 1877.3     1391.51     0.90      0.23
 1877.3     1400.88     1.30      0.28
 1877.3     1416.78     0.87      0.25
 1877.3     1430.58     1.45      0.32
 1877.3     1439.67     0.61      0.18
 1877.3     1446.46     0.53      0.18
 1877.3     1485.50     0.85      0.22
 1877.3     1489.35     0.78      0.20
 1877.3     1505.29     2.83      0.63
 1877.3     1523.38     0.38      0.14
 1877.3     1527.36     0.51      0.16
 1877.3     1555.10     0.91      0.22
 1877.3     1560.89     1.30      0.32
 1877.3     1568.64     1.49      0.35
 1877.3     1572.47     1.33      0.32
 1877.3     1578.33     0.66      0.20
 1877.3     1640.59     0.54      0.13
 1877.3     1679.10     0.63      0.18
 1877.3     1716.51     0.66      0.15
 1877.3     1727.28     0.57      0.18
 1877.3     1808.41     0.37      0.14
 1877.3     1825.29     0.82      0.23
 1972.8      550.22     3.86      0.81
 1972.8      611.81    15.83      2.45
 1972.8      627.14     1.53      0.44
 1972.8      664.83    15.49      2.10
 1972.8      667.49     3.18      0.36
 1972.8      680.90     2.10      0.37
 1972.8      714.24     2.64      0.43
 1972.8      724.62     2.60      0.42
 1972.8      727.52     8.11      0.99
 1972.8      735.92    11.26      1.31
 1972.8      774.09     2.98      0.40
 1972.8      780.12    10.66      1.17
 1972.8      785.21     6.31      0.67
 1972.8      797.78     1.89      0.30
 1972.8      814.82     0.57      0.24
 1972.8      823.36     2.31      0.32
 1972.8      932.29     1.00      0.21
 1972.8      943.33     0.67      0.19
 1972.8      959.45     2.75      0.40
 1972.8      981.02     2.75      0.41
 1972.8      986.22     1.72      0.31
 1972.8     1004.20     0.83      0.21
 1972.8     1020.42     1.12      0.23
 1972.8     1023.79     5.55      0.77
 1972.8     1029.00     1.85      0.32
 1972.8     1045.00     0.73      0.18
 1972.8     1046.59     1.12      0.24
 1972.8     1053.51     0.75      0.20
 1972.8     1056.01     4.17      0.62
 1972.8     1072.50     6.97      1.02
 1972.8     1077.79     5.85      0.87
 1972.8     1121.53     0.81      0.22
 1972.8     1132.90     3.15      0.52
 1972.8     1166.19     1.29      0.27
 1972.8     1224.88     0.63      0.20
 1972.8     1303.22     0.81      0.25
 1972.8     1322.19     1.23      0.29
 1972.8     1337.58     0.24      0.16
 1972.8     1387.28     0.29      0.12
 1972.8     1391.51     0.78      0.23
 1972.8     1400.88     1.45      0.33
 1972.8     1416.78     0.92      0.26
 1972.8     1430.58     1.73      0.39
 1972.8     1439.67     0.95      0.26
 1972.8     1446.46     0.77      0.22
 1972.8     1485.50     0.73      0.20
 1972.8     1489.35     0.73      0.21
 1972.8     1505.29     2.30      0.53
 1972.8     1523.38     0.44      0.17
 1972.8     1527.36     0.83      0.22
 1972.8     1560.89     1.27      0.33
 1972.8     1568.64     1.02      0.25
 1972.8     1572.47     0.58      0.14
 1972.8     1578.33     0.55      0.17
 1972.8     1640.59     1.45      0.35
 1972.8     1679.10     0.76      0.23
 1972.8     1716.51     0.40      0.14
 1972.8     1727.28     0.48      0.16
 1972.8     1808.41     0.59      0.15
 1972.8     1833.72     0.74      0.25
 2022.1      550.22     4.00      0.80
 2022.1      611.81    16.41      2.54
 2022.1      627.14     1.84      0.45
 2022.1      664.83    15.73      2.14
 2022.1      667.49     1.61      0.33
 2022.1      680.90     1.69      0.35
 2022.1      714.24     2.47      0.41
 2022.1      724.62     1.81      0.29
 2022.1      727.52     7.93      1.01
 2022.1      735.92    11.90      1.42
 2022.1      774.09     4.52      0.56
 2022.1      780.12    11.78      1.30
 2022.1      785.21     6.43      0.75
 2022.1      797.78     1.72      0.30
 2022.1      814.82     0.75      0.25
 2022.1      823.36     2.05      0.33
 2022.1      932.29     1.11      0.26
 2022.1      943.33     0.38      0.18
 2022.1      959.45     2.31      0.37
 2022.1      981.02     2.14      0.34
 2022.1      986.22     1.18      0.25
 2022.1     1004.20     0.54      0.20
 2022.1     1023.79     5.25      0.74
 2022.1     1029.00     2.18      0.40
 2022.1     1045.00     0.47      0.17
 2022.1     1046.59     0.62      0.19
 2022.1     1053.51     0.46      0.17
 2022.1     1056.01     4.37      0.62
 2022.1     1072.50     6.81      1.00
 2022.1     1077.79     4.29      0.67
 2022.1     1132.90     3.07      0.50
 2022.1     1166.19     0.78      0.21
 2022.1     1224.88     0.70      0.18
 2022.1     1303.22     0.62      0.19
 2022.1     1322.19     1.10      0.27
 2022.1     1337.58     0.42      0.16
 2022.1     1391.51     0.58      0.18
 2022.1     1400.88     0.92      0.21
 2022.1     1416.78     0.63      0.20
 2022.1     1430.58     1.44      0.34
 2022.1     1439.67     0.51      0.17
 2022.1     1446.46     0.59      0.21
 2022.1     1485.50     0.95      0.25
 2022.1     1489.35     0.57      0.23
 2022.1     1505.29     1.75      0.41
 2022.1     1527.36     0.55      0.19
 2022.1     1560.89     1.02      0.26
 2022.1     1568.64     1.11      0.33
 2022.1     1572.47     1.53      0.37
 2022.1     1578.33     0.75      0.20
 2022.1     1640.59     1.57      0.41
 2022.1     1679.10     1.10      0.31
 2022.1     1716.51     0.63      0.19
 2022.1     1727.28     0.30      0.12
 2022.1     1808.41     0.73      0.21
 2022.1     1825.29     0.83      0.25
 2022.1     1833.72     0.72      0.21
 2071.9      550.22     4.41      0.98
 2071.9      611.81    14.86      2.34
 2071.9      627.14     1.71      0.51
 2071.9      664.83    13.77      1.92
 2071.9      667.49     1.85      0.44
 2071.9      680.90     1.66      0.44
 2071.9      714.24     3.04      0.55
 2071.9      724.62     1.73      0.35
 2071.9      727.52     7.69      1.19
 2071.9      735.92    10.48      1.30
 2071.9      774.09     1.96      0.40
 2071.9      780.12    11.31      1.30
 2071.9      785.21     5.92      0.76
 2071.9      797.78     1.82      0.44
 2071.9      814.82     0.85      0.29
 2071.9      823.36     2.03      0.38
 2071.9      932.29     1.40      0.33
 2071.9      943.33     0.47      0.23
 2071.9      959.45     2.17      0.42
 2071.9      981.02     2.34      0.42
 2071.9      986.22     1.38      0.33
 2071.9     1004.20     0.89      0.21
 2071.9     1023.79     5.77      0.82
 2071.9     1029.00     1.58      0.32
 2071.9     1045.00     0.57      0.22
 2071.9     1046.59     0.48      0.10
 2071.9     1056.01     3.70      0.76
 2071.9     1072.50     6.49      0.98
 2071.9     1077.79     3.21      0.56
 2071.9     1132.90     2.90      0.53
 2071.9     1166.19     1.22      0.30
 2071.9     1224.88     0.77      0.26
 2071.9     1303.22     0.59      0.24
 2071.9     1322.19     0.94      0.29
 2071.9     1337.58     0.65      0.24
 2071.9     1391.51     0.82      0.25
 2071.9     1400.88     1.22      0.28
 2071.9     1430.58     1.56      0.40
 2071.9     1439.67     0.61      0.16
 2071.9     1446.46     0.72      0.24
 2071.9     1485.50     0.74      0.23
 2071.9     1489.35     0.56      0.27
 2071.9     1505.29     2.27      0.57
 2071.9     1527.36     0.71      0.24
 2071.9     1560.89     1.10      0.28
 2071.9     1568.64     1.21      0.33
 2071.9     1572.47     1.11      0.30
 2071.9     1578.33     0.56      0.20
 2071.9     1640.59     2.08      0.54
 2071.9     1679.10     0.60      0.22
 2071.9     1716.51     1.05      0.35
 2071.9     1727.28     0.35      0.15
 2071.9     1738.13     0.17      0.13
 2122.8      550.22     3.94      0.86
 2122.8      611.81    16.12      2.51
 2122.8      627.14     1.36      0.41
 2122.8      664.83    14.01      1.94
 2122.8      667.49     1.10      0.21
 2122.8      680.90     1.53      0.38
 2122.8      714.24     2.25      0.39
 2122.8      724.62     1.50      0.31
 2122.8      727.52     6.76      0.93
 2122.8      735.92    10.49      1.28
 2122.8      774.09     2.68      0.38
 2122.8      780.12    10.01      1.15
 2122.8      785.21     5.53      0.70
 2122.8      797.78     2.03      0.38
 2122.8      814.82     0.64      0.28
 2122.8      823.36     1.09      0.18
 2122.8      959.45     2.53      0.40
 2122.8      981.02     3.02      0.45
 2122.8      986.22     2.00      0.36
 2122.8     1004.20     1.11      0.26
 2122.8     1020.42     0.88      0.23
 2122.8     1023.79     5.10      0.73
 2122.8     1029.00     1.64      0.31
 2122.8     1045.00     0.43      0.17
 2122.8     1046.59     0.96      0.22
 2122.8     1056.01     3.93      0.61
 2122.8     1072.50     5.68      0.86
 2122.8     1077.79     4.00      0.64
 2122.8     1132.90     2.64      0.46
 2122.8     1166.19     0.86      0.23
 2122.8     1224.88     0.64      0.24
 2122.8     1303.22     0.35      0.18
 2122.8     1322.19     0.91      0.26
 2122.8     1337.58     0.40      0.17
 2122.8     1391.51     0.55      0.20
 2122.8     1400.88     1.61      0.24
 2122.8     1416.78     0.50      0.18
 2122.8     1430.58     1.05      0.27
 2122.8     1439.67     0.75      0.23
 2122.8     1446.46     0.60      0.19
 2122.8     1485.50     0.59      0.21
 2122.8     1489.35     0.39      0.12
 2122.8     1505.29     1.99      0.47
 2122.8     1527.36     0.63      0.21
 2122.8     1560.89     1.62      0.41
 2122.8     1568.64     1.28      0.33
 2122.8     1572.47     1.97      0.47
 2122.8     1578.33     0.71      0.21
 2122.8     1640.59     1.02      0.27
 2122.8     1716.51     0.21      0.15
 2122.8     1727.28     0.13      0.16
 2122.8     1738.13     0.13      0.13
 2122.8     1825.29     0.12      0.12
ENDDATA           1000
ENDSUBENT         1010
SUBENT        10810003   20110112   20110216   20110117       1369
BIB                  4          8
REACTION   (90-TH-232(N,INL)90-TH-232,PAR,SIG)
ANALYSIS   (4PI1A) Obtained from inelastic gamma emission cross
            section at 125 degrees by multiplying by 4pi, summing
            for transitions which originate at a given level and
            subtracting any feeding transitions.
STATUS     (DEP,10810002)
HISTORY    (19820917A) BIB corrections.
           (20110112A) Second level energy field added.
ENDBIB               8
NOCOMMON             0          0
DATA                 5        651
EN         E-LVL      E-LVL      DATA       DATA-ERR
KEV        KEV        KEV        MB         MB
  766.6      714.2                 81.0      11.2
  766.6      730.3                 15.8       4.0
  766.6      774.09     774.4      10.7       1.7
  817.9      713.2                147.9      19.4
  817.9      730.3                 45.2       8.7
  817.9      774.09     774.4      64.6      15.8
  817.9      785.2                  5.4       4.8
  836.5      713.2                205.6      23.4
  836.5      730.3                 47.6       6.9
  836.5      774.09     774.4      63.1      13.1
  836.5      785.2                 70.3      11.9
  836.5      829.5                 11.8       3.0
  867.9      713.2                197.6      18.6
  867.9      730.3                 59.9       5.2
  867.9      774.09     774.4     122.5      19.6
  867.9      785.2                146.5      11.7
  867.9      829.5                 14.1       2.6
  944.1      713.2                238.2      26.1
  944.1      730.3                 64.1       7.3
  944.1      774.09     774.4     227.0      28.3
  944.1      785.2                183.4      19.6
  944.1      829.4                 65.9       8.4
  944.1      889.6                 10.1       5.4
  967.7      713.2                260.0      31.1
  967.7      730.3                 67.6       8.4
  967.7      774.09     774.4     284.5      34.8
  967.7      785.2                183.9      21.6
  967.7      889.6                 11.9       5.4
 1043.4      713.2                234.3      24.9
 1043.4      730.3                 65.9       7.3
 1043.4      774.09     774.4     235.5      29.3
 1043.4      785.2                189.2      21.4
 1043.4      829.5                 95.0      11.7
 1043.4      889.6                 23.0       3.8
 1068.7      713.2                262.4      31.9
 1068.7      730.3                 76.9       9.7
 1068.7      774.09     774.4     300.8      37.1
 1068.7      785.2                232.9      27.9
 1068.7      829.5                113.1      14.7
 1068.7      872.7                 16.7       3.6
 1068.7      889.6                 57.9       9.1
 1068.7     1121.9                  2.8       1.5
 1155.1      713.2                239.0      25.5
 1155.1      730.3                 76.7       8.7
 1155.1      774.09     774.4     268.7      27.0
 1155.1      785.2                242.0      24.6
 1155.1      829.5                119.9      13.5
 1155.1      872.7                 30.6       4.3
 1155.1      889.6                 61.8       7.2
 1155.1     1053.6                 13.6       2.8
 1155.1     1073.2                 21.4       3.6
 1155.1     1078.3                 18.8       4.0
 1155.1     1105.4                  7.0       2.8
 1155.1     1121.9                  7.6       1.3
 1166.8      713.2                282.1      38.7
 1166.8      730.3                 80.2       9.9
 1166.8      774.09     774.4     332.4      35.7
 1166.8      785.2                253.3      29.4
 1166.8      829.5                139.1      16.5
 1166.8      872.7                 31.5       4.3
 1166.8      889.6                 62.5       8.7
 1166.8     1053.6                 14.2       4.4
 1166.8     1073.2                 35.0       5.4
 1166.8     1077.8                 22.1       4.3
 1166.8     1078.3                 24.1       4.1
 1166.8     1094.4                  5.0       2.1
 1166.8     1105.4                  8.0       2.1
 1166.8     1121.9                 18.8       3.5
 1169.5      713.2                251.1      29.0
 1169.5      730.3                 70.3       8.9
 1169.5      774.09     774.4     294.8      36.9
 1169.5      785.2                291.4      32.8
 1169.5      829.5                156.6      19.6
 1169.5      872.8                 32.0       5.2
 1169.5      889.6                 42.8       8.2
 1169.5     1073.2                 42.7       5.3
 1169.5     1077.8                 12.3       3.9
 1169.5     1078.3                 22.3       3.1
 1169.5     1105.4                 10.7       2.1
 1169.5     1121.9                 14.8       2.3
 1223.6      713.2                273.7      32.9
 1223.6      730.3                 70.6       9.9
 1223.6      774.09     774.4     345.6      41.6
 1223.6      785.2                297.8      33.8
 1223.6      829.5                151.1      18.2
 1223.6      872.7                 30.9       4.9
 1223.6      889.6                 60.8       7.6
 1223.6     1053.6                 10.3       1.9
 1223.6     1073.2                 64.4       7.0
 1223.6     1077.8                 30.7       5.2
 1223.6     1078.3                 27.9       3.9
 1223.6     1094.4                  5.4       2.4
 1223.6     1105.4                 24.0       3.5
 1223.6     1121.9                 62.9       8.5
 1269.7      713.2                264.5      31.7
 1269.7      730.3                 57.7       7.4
 1269.7      774.09     774.4     314.5      38.1
 1269.7      785.2                269.1      28.1
 1269.7      829.5                155.8      18.6
 1269.7      872.8                 26.1       4.3
 1269.7      883.3                  8.8       3.1
 1269.7      889.6                 51.0       7.8
 1269.7      960.2                 19.5      11.8
 1269.7     1053.6                 15.2       3.8
 1269.7     1073.2                 71.7       7.9
 1269.7     1077.8                 46.0       5.4
 1269.7     1078.3                 31.0       3.9
 1269.7     1094.4                  3.4       1.8
 1269.7     1105.4                 24.7       3.0
 1269.7     1121.9                 74.7       8.9
 1269.7     1143.1                  7.4       2.6
 1269.7     1182.5                  5.0       1.0
 1347.2      713.2                270.2      37.5
 1347.2      730.3                 63.2       9.4
 1347.2      774.09     774.4     333.8      48.4
 1347.2      785.2                231.4      27.5
 1347.2      829.5                143.3      18.5
 1347.2      872.7                 34.5       5.2
 1347.2      883.3                 22.8       7.7
 1347.2      889.6                 98.2      13.1
 1347.2     1053.6                 27.1       4.8
 1347.2     1073.2                 74.0      10.3
 1347.2     1077.8                 49.9       8.8
 1347.2     1078.3                 50.2       7.4
 1347.2     1094.4                 20.7       5.8
 1347.2     1105.4                 42.0       9.4
 1347.2     1121.9                 57.7       8.6
 1347.2     1143.1                 17.0       3.9
 1347.2     1182.5                 31.8       5.8
 1357.9      713.2                205.5      22.2
 1357.9      730.3                 52.7       5.8
 1357.9      774.09     774.4     281.4      30.7
 1357.9      785.2                223.3      22.4
 1357.9      829.5                138.2      14.5
 1357.9      872.7                 33.9       3.9
 1357.9      883.3                 10.4       2.3
 1357.9      889.6                 60.6       6.6
 1357.9      960.2                 21.0       4.4
 1357.9     1053.6                 30.8       5.5
 1357.9     1073.2                 73.6       8.4
 1357.9     1077.8                 64.8       6.8
 1357.9     1078.3                 46.9       5.7
 1357.9     1094.4                  9.8       1.4
 1357.9     1105.4                 49.3       5.8
 1357.9     1121.9                 96.9      10.7
 1357.9     1143.6                 18.9       2.6
 1357.9     1182.5                 36.8       5.3
 1376.9      713.2                233.4      27.3
 1376.9      730.3                 57.2       6.9
 1376.9      774.09     774.4     309.8      36.6
 1376.9      785.2                265.3      29.4
 1376.9      829.5                162.9      19.5
 1376.9      872.7                 41.7       5.2
 1376.9      883.3                 23.7       4.0
 1376.9      889.6                 75.3       9.1
 1376.9      960.2                 24.4       5.3
 1376.9     1053.6                 41.1       5.9
 1376.9     1073.2                 85.1       8.9
 1376.9     1077.8                 64.1       6.8
 1376.9     1078.3                 40.4       4.5
 1376.9     1094.4                 17.2       3.5
 1376.9     1105.4                 47.2       7.0
 1376.9     1121.9                142.0      17.2
 1376.9     1143.6                 21.2       5.4
 1376.9     1148.3                  8.9       2.3
 1376.9     1182.5                 38.9       5.8
 1427.3      713.2                243.4      29.5
 1427.3      730.3                 52.9       7.0
 1427.3      774.09     774.4     332.9      39.8
 1427.3      785.2                263.5      29.2
 1427.3      829.5                188.7      21.9
 1427.3      872.7                 46.2       6.3
 1427.3      883.3                 26.6       5.8
 1427.3      889.6                 87.3      11.1
 1427.3      960.2                 27.6       7.2
 1427.3     1053.6                 39.0       7.5
 1427.3     1073.2                 93.1       9.8
 1427.3     1077.8                 77.8       8.5
 1427.3     1078.3                 48.4       5.7
 1427.3     1094.4                 14.7       5.4
 1427.3     1105.4                 51.4       7.9
 1427.3     1121.9                156.8      18.1
 1427.3     1143.6                 25.4       6.4
 1427.3     1148.3                  7.6       2.6
 1427.3     1182.5                 43.2       6.8
 1427.3     1217.6                  3.7       2.6
 1477.9      713.2                222.7      26.4
 1477.9      730.3                 46.1       6.0
 1477.9      774.09     774.4     282.5      33.1
 1477.9      785.2                237.1      26.5
 1477.9      829.5                152.2      17.1
 1477.9      872.7                 47.7       6.3
 1477.9      883.3                 22.8       4.8
 1477.9      889.6                 79.0       9.4
 1477.9      960.2                 29.4       6.4
 1477.9     1053.6                 43.6       5.9
 1477.9     1073.2                 84.0       8.6
 1477.9     1077.8                 68.7       7.2
 1477.9     1078.3                 48.2       5.4
 1477.9     1094.4                 18.9       4.0
 1477.9     1105.4                 61.4       7.5
 1477.9     1121.9                148.4      17.2
 1477.9     1143.6                 21.7       3.0
 1477.9     1148.3                  8.1       2.1
 1477.9     1182.5                 43.3       5.8
 1537.2      713.2                228.4      27.4
 1537.2      730.3                 46.6       6.2
 1537.2      774.09     774.4     284.0      34.1
 1537.2      785.2                258.5      28.4
 1537.2      829.5                180.3      20.5
 1537.2      872.7                 34.2       4.2
 1537.2      883.3                 32.7       5.8
 1537.2      889.6                 83.6       9.8
 1537.2      960.2                 28.8       5.2
 1537.2     1053.6                 39.1       6.3
 1537.2     1073.2                 87.9       9.0
 1537.2     1077.8                 92.4       9.6
 1537.2     1078.3                 48.4       5.5
 1537.2     1094.4                 17.1       4.9
 1537.2     1105.4                 68.8       8.5
 1537.2     1121.9                158.7      18.2
 1537.2     1143.6                 32.0       4.2
 1537.2     1148.3                 11.7       2.5
 1537.2     1182.5                 51.2       7.0
 1537.2     1208.7                  5.4       1.8
 1537.2     1217.6                  6.2       2.8
 1537.2     1303.2                 11.2       2.0
 1537.2     1450.2                  5.2       1.8
 1537.2     1479.9                  6.8       2.0
 1571.3      713.2                202.8      28.5
 1571.3      730.3                 38.7       6.3
 1571.3      774.09     774.4     300.8      45.2
 1571.3      785.2                228.1      26.6
 1571.3      829.5                145.5      17.8
 1571.3      872.7                 43.6       6.3
 1571.3      883.3                 24.4       6.4
 1571.3      889.6                 91.7      11.3
 1571.3      960.2                 38.1       6.5
 1571.3     1053.6                 34.1       6.6
 1571.3     1073.2                 79.5      10.9
 1571.3     1077.8                 64.1       9.7
 1571.3     1078.3                 42.3       6.5
 1571.3     1094.4                 27.4       6.3
 1571.3     1105.4                 63.1      10.6
 1571.3     1121.9                140.6      21.3
 1571.3     1143.1                 23.4       3.9
 1571.3     1148.3                 17.8       3.6
 1571.3     1182.5                 38.0       7.4
 1571.3     1208.7                  6.3       2.9
 1571.3     1303.2                 12.1       3.1
 1571.3     1387.3                 11.9       2.8
 1571.3     1450.3                 13.8       4.0
 1571.3     1480.0                  6.9       2.6
 1627.0      713.2                243.9      29.2
 1627.0      730.3                 42.9       5.9
 1627.0      774.09     774.4     341.9      40.9
 1627.0      785.2                275.4      30.7
 1627.0      829.5                192.4      22.1
 1627.0      872.7                 45.0       5.7
 1627.0      883.3                 37.9       2.8
 1627.0      889.6                106.9      12.6
 1627.0      960.2                 38.4       7.4
 1627.0     1053.6                 38.6       6.0
 1627.0     1073.2                 97.0       9.9
 1627.0     1077.8                 96.5      10.1
 1627.0     1078.3                 48.4       4.9
 1627.0     1094.4                 26.7       5.4
 1627.0     1105.4                 72.2      11.1
 1627.0     1121.9                167.3      19.4
 1627.0     1143.6                 34.3       4.4
 1627.0     1148.3                 21.4       5.5
 1627.0     1182.5                 60.4       8.3
 1627.0     1208.7                  7.6       1.8
 1627.0     1217.6                  7.5       2.5
 1627.0     1303.2                 17.5       3.0
 1627.0     1387.3                 21.5       5.9
 1627.0     1450.3                 12.3       2.6
 1627.0     1480.0                 10.2       2.4
 1627.0     1484.3                 10.9       2.3
 1627.0     1489.4                  5.8       2.1
 1627.0     1554.7                 12.2       4.0
 1677.1      713.2                217.7      25.6
 1677.1      730.3                 32.0       4.4
 1677.1      774.09     774.4     319.3      37.3
 1677.1      785.2                268.4      29.5
 1677.1      829.5                186.7      21.2
 1677.1      872.7                 43.8       5.3
 1677.1      883.3                 36.1       4.9
 1677.1      889.6                104.9      12.1
 1677.1      960.2                 41.6       6.7
 1677.1     1053.6                 31.2       4.9
 1677.1     1073.2                 86.8       8.8
 1677.1     1077.8                 86.8       8.9
 1677.1     1078.3                 40.3       4.5
 1677.1     1094.4                 22.2       4.0
 1677.1     1105.4                 67.1       8.0
 1677.1     1121.9                149.2      16.8
 1677.1     1143.1                 31.3       3.9
 1677.1     1182.5                 56.8       7.0
 1677.1     1208.7                  6.7       1.6
 1677.1     1217.6                  2.6       2.0
 1677.1     1303.2                 16.1       2.8
 1677.1     1328.9                 11.3       3.6
 1677.1     1387.3                 28.2       6.2
 1677.1     1450.3                 18.8       2.9
 1677.1     1480.0                 18.3       2.6
 1677.1     1484.3                 17.3       2.6
 1677.1     1489.4                 16.1       3.9
 1677.1     1554.7                 28.8       5.4
 1677.1     1572.8                  3.8       1.8
 1745.9      713.2                249.9      34.8
 1745.9      730.3                 36.7       6.5
 1745.9      774.09     774.4     301.6      45.1
 1745.9      785.2                241.0      27.8
 1745.9      829.5                167.6      20.6
 1745.9      872.7                 35.9       5.4
 1745.9      883.3                 42.2       9.4
 1745.9      889.6                 96.2      13.1
 1745.9      960.2                 42.6       9.9
 1745.9     1053.6                 29.9       5.8
 1745.9     1073.2                 75.9      10.4
 1745.9     1077.8                 59.3       9.1
 1745.9     1078.3                 31.8       5.0
 1745.9     1094.4                 20.1       5.5
 1745.9     1105.4                 69.3      12.1
 1745.9     1121.9                155.5      23.0
 1745.9     1143.6                 43.1       6.2
 1745.9     1148.3                 29.2       7.2
 1745.9     1182.5                 47.7       9.0
 1745.9     1208.7                 10.9       2.5
 1745.9     1217.6                  4.1       3.5
 1745.9     1303.2                 11.6       3.1
 1745.9     1328.9                  6.5       3.8
 1745.9     1387.3                 30.3       7.9
 1745.9     1450.3                 18.7       4.2
 1745.9     1480.0                 17.3       4.3
 1745.9     1484.3                 17.9       4.2
 1745.9     1489.4                 11.2       3.9
 1745.9     1520.1                  2.7       1.4
 1745.9     1554.7                 57.5      14.2
 1745.9     1560.9                  4.1       1.8
 1745.9     1572.8                  8.2       3.8
 1745.9     1578.3                  5.4       3.8
 1745.9     1608.6                  2.9       1.9
 1745.9     1618.0                  7.6       2.4
 1745.9     1647.6                  3.3       1.9
 1745.9     1690.0                  5.0       2.0
 1759.2      713.2                212.4      22.0
 1759.2      730.3                 28.0       3.4
 1759.2      774.09     774.4     276.6      29.0
 1759.2      785.2                240.2      23.9
 1759.2      829.5                189.7      16.6
 1759.2      872.7                 36.7       4.0
 1759.2      883.3                 38.5       4.6
 1759.2      889.6                 77.6       7.9
 1759.2      960.2                 41.6       7.0
 1759.2     1053.6                 26.5       3.9
 1759.2     1073.2                 71.0       8.0
 1759.2     1077.8                 71.1       8.2
 1759.2     1078.3                 35.2       4.3
 1759.2     1094.4                 16.8       3.0
 1759.2     1105.4                 72.0       8.9
 1759.2     1121.9                130.9      16.1
 1759.2     1143.6                 31.9       3.8
 1759.2     1148.3                 17.2       3.4
 1759.2     1182.5                 54.8       8.0
 1759.2     1208.7                 12.3       1.8
 1759.2     1217.6                  4.3       1.9
 1759.2     1303.2                 13.1       2.1
 1759.2     1328.9                  7.2       1.6
 1759.2     1387.3                 22.5       5.6
 1759.2     1450.3                 22.0       3.3
 1759.2     1480.0                 19.9       3.0
 1759.2     1484.3                 15.1       2.4
 1759.2     1489.4                 16.5       2.9
 1759.2     1554.7                 41.0       8.5
 1759.2     1560.9                 10.6       2.0
 1759.2     1572.8                 12.6       3.2
 1759.2     1578.3                  5.3       2.4
 1759.2     1608.6                  4.5       1.3
 1759.2     1647.6                  6.3       1.5
 1759.2     1690.0                  4.1       1.3
 1777.3      713.2                233.9      27.9
 1777.3      730.3                 33.4       5.0
 1777.3      774.09     774.4     307.9      36.8
 1777.3      785.2                247.2      27.5
 1777.3      829.5                172.2      18.9
 1777.3      872.7                 40.0       5.0
 1777.3      883.3                 43.9       6.3
 1777.3      889.6                 91.5      10.8
 1777.3      960.2                 38.5       7.0
 1777.3     1053.6                 30.6       5.3
 1777.3     1073.2                 82.8       8.5
 1777.3     1077.8                 81.3       8.4
 1777.3     1078.3                 33.8       4.2
 1777.3     1094.4                 22.7       5.3
 1777.3     1105.4                 67.4       7.9
 1777.3     1121.9                144.5      16.5
 1777.3     1143.1                 35.4       4.3
 1777.3     1148.3                 21.1       3.1
 1777.3     1182.5                 54.4       7.5
 1777.3     1208.7                 13.6       2.3
 1777.3     1303.2                 14.0       2.8
 1777.3     1328.9                 11.3       4.2
 1777.3     1387.3                 27.4       7.0
 1777.3     1450.3                 23.7       3.6
 1777.3     1480.0                 19.9       3.3
 1777.3     1484.3                 19.2       2.9
 1777.3     1489.4                 16.7       4.2
 1777.3     1520.1                  6.6       2.0
 1777.3     1554.7                 55.3       9.1
 1777.3     1560.9                 14.3       2.7
 1777.3     1572.8                 14.7       4.0
 1777.3     1578.3                  5.7       3.1
 1777.3     1608.6                  2.8       1.4
 1777.3     1647.6                 10.8       2.4
 1777.3     1690.0                 11.7       1.4
 1777.3     1716.5                 11.8       2.0
 1777.3     1727.3                  1.2       0.3
 1827.1      713.2                234.1      28.9
 1827.1      730.3                 24.0       4.0
 1827.1      774.09     774.4     331.8      39.5
 1827.1      785.2                281.7      31.3
 1827.1      829.5                209.1      24.0
 1827.1      872.7                 33.6       4.4
 1827.1      883.3                 52.8       6.6
 1827.1      889.6                 83.4       9.7
 1827.1      960.2                 35.4       7.0
 1827.1     1053.6                 24.2       4.3
 1827.1     1073.2                 83.6       8.5
 1827.1     1077.8                 81.2       8.7
 1827.1     1078.3                 33.3       4.0
 1827.1     1094.4                 19.6       3.5
 1827.1     1105.4                 71.4       8.0
 1827.1     1121.9                156.3      17.6
 1827.1     1143.6                 32.7       4.0
 1827.1     1148.3                 28.3       5.4
 1827.1     1182.5                 54.2       6.8
 1827.1     1208.7                 11.5       1.9
 1827.1     1303.2                 12.1       2.5
 1827.1     1328.9                 15.9       4.1
 1827.1     1387.3                 27.8       6.9
 1827.1     1450.3                 23.2       3.9
 1827.1     1480.0                 19.7       3.0
 1827.1     1484.3                 19.0       2.9
 1827.1     1489.4                 20.9       4.2
 1827.1     1520.1                  3.2       1.9
 1827.1     1554.7                 71.6      10.3
 1827.1     1560.9                 21.7       3.4
 1827.1     1572.8                 27.3       4.9
 1827.1     1578.3                 25.1       5.9
 1827.1     1608.6                  7.9       2.0
 1827.1     1618.0                 19.8       2.9
 1827.1     1647.6                  9.8       2.1
 1827.1     1690.0                 11.8       2.0
 1827.1     1727.3                 11.5       3.1
 1877.3      713.2                240.7      33.8
 1877.3      730.3                 29.3       4.7
 1877.3      774.09     774.4     292.6      39.6
 1877.3      785.2                245.5      27.4
 1877.3      829.5                172.7      19.9
 1877.3      872.7                 44.3       5.7
 1877.3      883.3                 47.6       9.4
 1877.3      889.6                105.7      12.7
 1877.3      960.2                 44.6       7.4
 1877.3     1053.6                 23.1       4.8
 1877.3     1073.2                 75.1      10.1
 1877.3     1077.8                 81.7      11.7
 1877.3     1078.3                 26.0       4.1
 1877.3     1094.4                 21.1       4.8
 1877.3     1105.4                 62.0       9.4
 1877.3     1121.9                119.9      16.8
 1877.3     1143.6                 36.7       5.0
 1877.3     1148.3                 16.5       2.9
 1877.3     1182.5                 48.3       8.2
 1877.3     1208.7                 10.3       2.4
 1877.3     1303.2                  8.6       2.1
 1877.3     1328.9                 12.5       2.8
 1877.3     1387.3                 21.1       6.8
 1877.3     1450.3                 16.3       3.5
 1877.3     1480.0                 18.2       4.0
 1877.3     1484.3                 21.3       4.2
 1877.3     1489.4                 17.4       4.8
 1877.3     1554.7                 58.3      13.6
 1877.3     1560.9                 16.4       4.0
 1877.3     1572.8                 21.6       7.8
 1877.3     1578.3                 25.7       7.7
 1877.3     1608.6                  6.8       2.3
 1877.3     1618.0                 18.7       4.4
 1877.3     1647.6                 10.7       2.8
 1877.3     1690.0                  6.8       1.6
 1877.3     1716.5                  8.3       1.9
 1877.3     1727.3                 15.0       4.5
 1877.3     1808.4                  4.7       1.8
 1877.3     1825.3                 10.3       2.9
 1972.8      713.2                227.8      31.8
 1972.8      730.3                 26.4       4.7
 1972.8      774.09     774.4     269.0      41.4
 1972.8      785.2                220.9      24.9
 1972.8      829.5                173.9      19.2
 1972.8      872.7                 29.0       4.0
 1972.8      883.3                 48.5      10.2
 1972.8      889.6                101.9      12.4
 1972.8      960.2                 42.9       9.3
 1972.8     1053.6                 19.8       5.2
 1972.8     1073.2                 69.7       9.7
 1972.8     1077.8                 73.6      10.9
 1972.8     1078.3                 23.2       4.0
 1972.8     1094.4                 21.7       4.9
 1972.8     1105.4                 60.8      10.2
 1972.8     1121.9                132.3      17.8
 1972.8     1143.1                 34.6       5.2
 1972.8     1148.3                 28.8       6.9
 1972.8     1182.5                 53.8       9.4
 1972.8     1208.7                 14.0       3.0
 1972.8     1303.2                 10.1       3.1
 1972.8     1328.9                 16.2       3.4
 1972.8     1387.3                 10.9       4.5
 1972.8     1450.3                 18.2       4.2
 1972.8     1480.0                 21.7       4.9
 1972.8     1484.3                 15.4       3.6
 1972.8     1489.4                 21.2       5.9
 1972.8     1554.7                 38.6       9.3
 1972.8     1560.9                 15.9       4.2
 1972.8     1572.8                 12.8       3.7
 1972.8     1578.3                 28.8       8.9
 1972.8     1608.6                  9.7       2.8
 1972.8     1618.0                 12.8       3.1
 1972.8     1647.6                  9.2       2.5
 1972.8     1690.0                 18.2       4.5
 1972.8     1716.5                  4.9       1.8
 1972.8     1727.3                 15.6       4.9
 1972.8     1808.4                  7.4       1.9
 1972.8     1833.7                  9.3       3.1
 2022.1      713.2                228.7      32.0
 2022.1      730.3                 21.2       4.4
 2022.1      774.09     774.4     285.8      42.6
 2022.1      785.2                230.3      27.3
 2022.1      829.5                168.3      20.5
 2022.1      872.7                 25.8       4.2
 2022.1      883.3                 50.3      10.1
 2022.1      889.6                 99.6      12.7
 2022.1      960.2                 44.8       9.3
 2022.1     1053.6                 12.5       4.7
 2022.1     1073.2                 66.0       9.3
 2022.1     1077.8                 53.9       8.4
 2022.1     1078.3                 27.5       5.0
 2022.1     1094.4                 19.9       5.4
 2022.1     1105.4                 59.7       3.8
 2022.1     1121.9                114.6      17.2
 2022.1     1143.1                 26.8       4.3
 2022.1     1148.3                 24.2       6.3
 2022.1     1182.5                 38.6       6.2
 2022.1     1208.7                  7.8       2.4
 2022.1     1303.2                  7.8       2.4
 2022.1     1328.9                  9.7       2.6
 2022.1     1387.3                 14.1       4.3
 2022.1     1450.3                 11.6       4.0
 2022.1     1480.0                 18.2       7.7
 2022.1     1484.3                 13.9       3.4
 2022.1     1489.4                 13.5       5.0
 2022.1     1554.7                 29.3       7.4
 2022.1     1560.9                 12.8       3.3
 2022.1     1572.8                 19.2       4.7
 2022.1     1578.3                 24.4       8.8
 2022.1     1608.6                  7.4       2.6
 2022.1     1618.0                 13.9       4.2
 2022.1     1647.6                 11.9       3.1
 2022.1     1690.0                 19.7       5.2
 2022.1     1716.5                  8.7       2.4
 2022.1     1727.3                 17.6       5.4
 2022.1     1808.4                  9.2       2.6
 2022.1     1825.3                 10.4       3.1
 2022.1     1833.7                  9.0       2.0
 2071.9      713.2                211.2      31.0
 2071.9      730.3                 20.9       5.5
 2071.9      774.09     774.4     233.1      38.8
 2071.9      785.2                206.0      25.9
 2071.9      829.5                165.4      21.9
 2071.9      872.7                 28.3       4.2
 2071.9      883.3                 55.4      12.3
 2071.9      889.6                 96.6      15.0
 2071.9      960.2                 44.3      11.9
 2071.9     1053.6                 11.2       2.6
 2071.9     1073.2                 72.5      10.3
 2071.9     1077.8                 40.3       7.0
 2071.9     1078.3                 19.8       4.0
 2071.9     1094.4                 24.8       6.9
 2071.9     1105.4                 52.4      12.4
 2071.9     1121.9                108.8      17.6
 2071.9     1143.1                 30.0       5.3
 2071.9     1148.3                 28.1       7.8
 2071.9     1182.5                 36.5       6.7
 2071.9     1208.7                  6.1       1.3
 2071.9     1303.2                  7.4       3.0
 2071.9     1328.9                 15.3       3.8
 2071.9     1387.3                 17.8       6.3
 2071.9     1450.3                 15.3       3.5
 2071.9     1480.0                 19.6       8.7
 2071.9     1484.3                 11.8       3.6
 2071.9     1489.4                 14.7       5.4
 2071.9     1554.7                 38.9      10.3
 2071.9     1560.9                 13.8       3.5
 2071.9     1572.8                 13.9       3.8
 2071.9     1578.3                 15.9       5.5
 2071.9     1608.6                  9.1       3.0
 2071.9     1618.0                 15.2       4.1
 2071.9     1647.6                  9.3       2.9
 2071.9     1690.0                 26.2       6.8
 2071.9     1716.5                 13.3       4.6
 2071.9     1727.3                 12.0       4.7
 2071.9     1738.1                  2.1       1.6
 2122.8      713.2                204.3      29.3
 2122.8      730.3                 19.2       4.8
 2122.8      774.09     774.4     255.0      40.2
 2122.8      785.2                201.3      24.9
 2122.8      829.5                139.6      17.1
 2122.8      872.7                 13.7       2.3
 2122.8      883.3                 49.6      10.8
 2122.8      889.6                 84.9       9.2
 2122.8      960.2                 42.7       9.9
 2122.8     1053.6                 14.0       3.3
 2122.8     1073.2                 64.1       9.1
 2122.8     1077.8                 50.3       8.0
 2122.8     1078.3                 20.6       3.9
 2122.8     1094.4                  5.4       2.3
 2122.8     1105.4                 49.4      10.6
 2122.8     1121.9                103.1      15.8
 2122.8     1143.6                 37.8       5.7
 2122.8     1148.3                 33.1       8.0
 2122.8     1182.5                 33.1       8.7
 2122.8     1208.7                 12.1       2.8
 2122.8     1303.2                  4.4       2.3
 2122.8     1328.9                 10.6       2.9
 2122.8     1387.3                 13.0       5.2
 2122.8     1450.3                 20.2       3.0
 2122.8     1480.0                 13.3       3.3
 2122.8     1484.3                 11.4       3.3
 2122.8     1489.4                 14.4       4.4
 2122.8     1554.7                 32.0       8.4
 2122.8     1560.9                 20.3       5.2
 2122.8     1572.8                 24.7       5.9
 2122.8     1578.3                 23.1       7.5
 2122.8     1608.6                  7.5       2.4
 2122.8     1618.0                 16.1       4.2
 2122.8     1647.6                  7.5       2.6
 2122.8     1690.0                 12.8       3.4
 2122.8     1716.5                  2.6       1.9
 2122.8     1727.3                  1.6       2.0
 2122.8     1738.1                  1.6       1.6
 2122.8     1825.3                  1.5       1.5
ENDDATA            653
ENDSUBENT          666
ENDENTRY             3
