ENTRY            10865     891212
SUBENT        10865001     891212              20050926       0000
BIB                 12         28
INSTITUTE  (1USAINL)
REFERENCE  (R,ICP-1142,7809)
AUTHOR     (W.J.MAECK,W.A.EMEL,F.A.DUCE,R.L.TROMP,J.W.METEER)
TITLE      ABSOLUTE THERMAL FISSION YIELDS FOR U-235
FACILITY   (REAC) ETR.
INC-SPECT  THERMAL REACTOR SPECTRUM.
SAMPLE     SAMPLES ENCLOSED IN HIGH PURITY ALUMINUM. U-235 IN FORM
            OF U(3)O(8). MEAN ABUNDANCE U-235 IS 99.735-PERCENT.
METHOD     (ASEP) AMOUNTS OF NON-GASEOUS FISSION PRODUCTS
            DETERMINED  USING ISOTOPE DILUTION MASS SPECTROMETRY.
MONITOR    NUMBER OF FISSIONS DETERMINED BY SUMMATION METHOD FOR
            LOW ATOM PERCENT FISSION, AND BY SUMMATION AND
            DIFFERENCE METHODS FOR HIGH ATOM PERCENT FISSION.
ERR-ANALYS (DATA-ERR) STANDARD DEVIATION OBTAINED BY APPROXIMATING
            FUNCTIONS USED TO CALCULATE YIELDS, APPROXIMATING
            LINEAR TERMS OF TAYLOR EXPANSION, AND APPLYING STAND-
            ARD METHODS FOR CALCULATING ERRORS FOR A LINEAR SUM
            OF RANDOM VARIABLES.
           UNCERTAINTY IN NET SAMPLE CONTENT APPROX 0.2% RELATIVE.
           UNCERTAINTY IN ABSOLUTE FISSION YIELDS CAUSED BY
            RELATIVE ERROR OF 0.5% IN DETERMINATION OF THE NUMBER
            OF FISSIONS.
STATUS     (APRVD) APPROVED BY W.J.MAECK, 80/2/28.
HISTORY    (791116C)
           (800820U) BIB CORRECTION.
           (801029U) BIB CORRECTION.
           (840917A) BIB CORRECTION.
           (891212A) BIB CORRECTIONS.
ENDBIB              28
COMMON               1          3
EN-DUMMY
EV
 0.0253
ENDCOMMON            3
ENDSUBENT           35
SUBENT        10865002     801029              20050926       0000
BIB                  3          3
REACTION   (92-U-235(N,F)MASS,CHN,FY,,SPA)
METHOD     DATA AVERAGED OVER THREE SIMILARLY PREPARED SAMPLES
HISTORY    (801029A) REACTION, DATA CORRECTIONS.
ENDBIB               3
NOCOMMON
DATA                 4         41
MASS       MASS       DATA       DATA-ERR
NO-DIM     NO-DIM     PC/FIS     PC/FIS
  83.                  0.543      0.004
  84.                  1.016      0.007
  85.                  1.333      0.007
  86.                  1.979      0.014
  87.                  2.586      0.014
  88.                  3.547      0.019
  90.                  5.714      0.032
  91.                  5.764      0.168
  92.                  5.828      0.138
  93.                  6.207      0.160
  94.                  6.221      0.148
  95.                  6.535      0.055
  96.                  6.030      0.146
  97.                  5.937      0.043
  98.                  5.827      0.043
 100.                  6.249      0.051
 101.                  5.244      0.051
 102.                  4.362      0.042
 104.                  1.902      0.019
 106.                  0.460      0.033
 131.                  2.914      0.018
 132.                  4.344      0.024
 133.                  6.685      0.036
 134.                  7.918      0.037
 135.       136.      12.847      0.065
 136.                 12.847      0.065
 137.                  6.234      0.037
 138.                  6.756      0.039
 140.                  6.102      0.056
 142.                  5.783      0.053
 143.                  6.006      0.034
 144.                  5.540      0.031
 145.                  3.960      0.021
 146.                  3.009      0.018
 147.                  2.223      0.022
 148.                  1.677      0.012
 149.                  1.032      0.010
 150.                  0.658      0.007
 151.                  0.399      0.017
 152.                  0.251      0.008
 154.                  0.076      0.003
ENDDATA             43
ENDSUBENT           51
ENDENTRY             2
