ENTRY            O1548   20070911   20071206   20071116       O032
SUBENT        O1548001   20070911   20071206   20071116       O032
BIB                 13         47
TITLE      Measurement and DWBA analysis of the C-12(Li-6,d)O-16
           alpha-transfer reaction cross sections at 48.2 MeV.
           R-matrix analysis of C-12(a,g)O-16 direct capture
           reaction data.
AUTHOR     (A.Belhout, S.Ouichaoui, H.Beaumevieille, A.Boughrara,
           S.Fortier, J.Kiener, J.M.Maison, S.K.Mehdi, L.Rosier,
           J.P.Thibaud, A.Trabelsi, J.Vernotte)
INSTITUTE  (3ALGUAG)
           (2FR PAR)
           (2FR CSN)
REFERENCE  (J,NP/A,793,178,2007)
HISTORY    (20070911C)
INC-SOURCE *EN-RSL-FW*. The energy resolution varied between 35
            and 55 keV.
SAMPLE     A 100-mug/cm**2 thick self-supported natural carbon,
            98.9% C-12, 1.1% C-13, target foils prepared by vacuum
           evaporation,were used.
ADD-RES    (COMP) FRDWBA theory.
           Deuteron energy spectrum from the C-12(Li-6,d)O-16
           reaction at Ang=5-degree is observed.
           (POT)
           (STRUC) Spectroscopic factors.
DETECTOR   (MAGSP) The split-pole magnetic spectrograph-for
           reaction products
           (PS) a high energy resolution position sensitive
           detector system-
            * a position and angle sensitive 128-anode wires drift
             chamber
            * a proportional counter measuring the particle energy
              loss, delta-E
            * a plastic scintillator measuring the residual
              particle energy.
           (SIBAR) For beam intensity and target thickness
FACILITY   (VDGT,2FR PAR) Orsay MP tandem.
METHOD     (BCINT)
ERR-ANALYS (ERR-SYS).The overall systematic uncertainty in the
           measured absolute differential cross sections was
           estimated to be of +-15% while the relative
           uncertainties(statistical and peak fitting) were of
           about +-10%.
           (ERR-S).SEE above.
           (ANG-ERR-D).Data-point reader uncertainty.
           (ANG-ERR).The uncertainty is reported by authors on fig
            for 6.05-MeV and 0.00-MeV levels.
           (DATA-ERR).The error is reported by authors on fig.
           (ERR-DIG).Digitizing error of data.
STATUS     (CURVE).By CAJAD. No reply from S.Ouichaoui
ENDBIB              47
COMMON               6          3
EN         EN-RSL     ERR-SYS    ERR-S      ANG-ERR-D  ERR-DIG
MEV        KEV        PER-CENT   PER-CENT   ADEG       PER-CENT
48.2       55.        15.        10.        0.27       7.
ENDCOMMON            3
ENDSUBENT           54
SUBENT        O1548002   20070911   20071206   20071116       O032
BIB                  3         12
REACTION   (6-C-12(3-LI-6,D)8-O-16,PAR,DA) Figure 2
EN-SEC     (E-LVL,8-O-16)
LEVEL-PROP (8-O-16,E-LVL=0.000,SPIN=0.0,PARITY=+1.)
           (8-O-16,E-LVL=6.050,SPIN=0.0,PARITY=+1.)
           (8-O-16,E-LVL=6.130,SPIN=3.0,PARITY=-1.)
           (8-O-16,E-LVL=6.920,SPIN=2.0,PARITY=+1.)
           (8-O-16,E-LVL=7.120,SPIN=1.0,PARITY=-1.)
           (8-O-16,E-LVL=8.870,SPIN=2.0,PARITY=-1.)
           (8-O-16,E-LVL=9.600,SPIN=1.0,PARITY=-1.)
           (8-O-16,E-LVL=9.850,SPIN=2.0,PARITY=+1.)
           (8-O-16,E-LVL=10.35,SPIN=4.0,PARITY=+1.)
           (8-O-16,E-LVL=11.09,SPIN=3.0,PARITY=+1.) PLUS 4+
ENDBIB              12
COMMON               1          3
ANG-ERR
ADEG
1.3
ENDCOMMON            3
DATA                 4        114
E-LVL      ANG-CM     DATA-CM    DATA-ERR
MEV        ADEG       MB/SR      PER-CENT
    0.00000    6.40000    0.03500
    0.00000   12.40000    0.02300
    0.00000   19.00000    0.04500
    0.00000   25.00000    0.07700
    0.00000   31.10000    0.03900
    0.00000   37.30000    0.01300   35.00000
    0.00000   43.20000    0.00770   10.00000
    0.00000   49.00000    0.00420   10.00000
    0.00000   54.80000    0.00290   10.00000
    0.00000   60.60000    0.00150   90.00000
    0.00000   72.00000    0.00120   30.00000
    6.05000    6.70000    0.05700
    6.05000   12.70000    0.01710
    6.05000   19.40000    0.01190
    6.05000   25.60000    0.02440   10.00000
    6.05000   31.80000    0.01800
    6.05000   37.70000    0.00700   11.00000
    6.05000   43.70000    0.00520   15.00000
    6.05000   49.90000    0.00380   30.00000
    6.05000   73.10000    0.00460   50.00000
    6.05000   84.10000    0.00116
    6.13000    6.63000    0.23900
    6.13000   13.08000    0.20300
    6.13000   19.53000    0.14500
    6.13000   25.57000    0.07500   24.00000
    6.13000   31.36000    0.07600   13.00000
    6.13000   37.58000    0.08000
    6.13000   43.57000    0.11100
    6.13000   49.58000    0.09100
    6.13000   55.40000    0.05090
    6.13000   61.22000    0.02740
    6.13000   72.79000    0.03800   11.00000
    6.13000   83.78000    0.01280   10.00000
    6.92000    6.21000    0.62000
    6.92000   12.69000    0.40300
    6.92000   18.96000    0.19900
    6.92000   25.02000    0.10700
    6.92000   31.48000    0.13800
    6.92000   37.31000    0.09000   25.00000
    6.92000   43.35000    0.07900
    6.92000   49.62000    0.04270
    6.92000   55.44000    0.04350
    6.92000   61.50000    0.02570
    6.92000   72.94000    0.01480
    6.92000   83.92000    0.02000   11.00000
    7.12000    5.90000    0.06200   30.00000
    7.12000   12.46000    0.02000   13.00000
    7.12000   18.55000    0.02960
    7.12000   25.03000    0.03790
    7.12000   31.15000    0.03120
    7.12000   37.49000    0.01700   24.00000
    7.12000   43.61000    0.01400   19.00000
    7.12000   49.58000    0.00720   16.00000
    7.12000   55.31000    0.00680
    7.12000   61.27000    0.00380   17.00000
    7.12000   72.94000    0.00270   21.00000
    7.12000   84.01000    0.00300   30.00000
    8.87000    6.92000    0.02570
    8.87000   13.41000    0.02280
    8.87000   19.49000    0.01930    9.00000
    8.87000   25.98000    0.01510   12.00000
    8.87000   32.26000    0.01170   13.00000
    8.87000   38.54000    0.01140
    8.87000   44.40000    0.01370   13.00000
    8.87000   50.48000    0.00820
    8.87000   56.56000    0.00449
    8.87000   62.21000    0.00500   16.00000
    8.87000   73.93000    0.00340   15.00000
    8.87000   85.03000    0.00250   20.00000
    9.60000    6.82000    0.10500
    9.60000   13.11000    0.04000
    9.60000   19.61000    0.02850
    9.60000   25.89000    0.02260
    9.60000   31.97000    0.00920
    9.60000   38.04000    0.01180
    9.60000   44.31000    0.01340
    9.60000   50.38000    0.01720
    9.60000   56.46000    0.01280
    9.60000   62.53000    0.00710
    9.60000   73.83000    0.00900
    9.60000   85.14000    0.00710
    9.85000    6.53000    0.02450
    9.85000   13.03000    0.01220   17.00000
    9.85000   19.54000    0.00400   23.00000
    9.85000   25.60000    0.00670   19.00000
    9.85000   31.87000    0.00980
    9.85000   38.15000    0.00800   10.00000
    9.85000   44.21000    0.01160
    9.85000   50.29000    0.00900
    9.85000   56.35000    0.01310
    9.85000   62.22000    0.00970
    9.85000   73.94000    0.00840
    9.85000   84.83000    0.00530
   10.35000    6.47000    0.61000   13.00000
   10.35000   13.17000    0.58000
   10.35000   19.24000    0.38800
   10.35000   25.53000    0.21000   30.00000
   10.35000   31.61000    0.17200
   10.35000   38.10000    0.12000
   10.35000   44.38000    0.10900
   10.35000   50.46000    0.06600
   10.35000   56.11000    0.07500
   10.35000   62.39000    0.05900
   10.35000   73.91000    0.03020
   10.35000   85.01000    0.01800   15.00000
   11.09000    6.20000    0.06600   12.00000
   11.09000   12.70000    0.04200   40.00000
   11.09000   18.98000    0.04500   12.00000
   11.09000   25.25000    0.05600   14.00000
   11.09000   31.74000    0.05300   15.00000
   11.09000   37.81000    0.04600   15.00000
   11.09000   44.09000    0.04000   15.00000
   11.09000   50.15000    0.06700
   11.09000   73.80000    0.06400
ENDDATA            116
ENDSUBENT          137
ENDENTRY             2
