ENTRY            O1542   20070823   20071015   20071015       O031
SUBENT        O1542001   20070823   20071015   20071015       O031
BIB                 13         21
TITLE      Si-30(p,a)Al-27 reaction at 40.75 MeV.
AUTHOR     (F.PELLEGRINI, G.CALVELLI, P.Guazzoni, S.MICHELETTI)
INSTITUTE  (2ITYPAD)
           (2ITYMIL)
REFERENCE  (J,PR/C,18,613,1978)
HISTORY    (20070823C)
SAMPLE     The target was prepared by vacuum evaporation of
           silicon dioxide, enriched to 95.5+-0.1% in Si-30 onto
           a 200-mug/cm**2 carbon backing.
ADD-RES    (COMP).DWBA analysis.
            Alpha spectrum from the Si-30(p,a)Al-27 reaction at
            E(p)=40.75 MeV and ANG=20-degree was measured.
DETECTOR   (TELES,SIBAR,SIBAR).Two counter telescopes, each
           counter telescope consisted of two(or three) silicon
           surface barrier detectors.
PART-DET   (A)
FACILITY   (ISOCY,2ITYMIL) The Milan university AVF cyclotron.
INC-SOURCE *EN-RSL-FW*.The energy resolution is of the order of
            90-keV.
METHOD     (SITA)
STATUS     (CURVE).By CAJAD.
ENDBIB              21
COMMON               2          3
EN         EN-RSL-FW
MEV        KEV
40.75      90.
ENDCOMMON            3
ENDSUBENT           28
SUBENT        O1542002   20070823   20071015   20071015       O031
BIB                  2          3
REACTION   (14-SI-30(P,EL)14-SI-30,,DA,,RTH) Fig. 2
ERR-ANALYS (ERR-DIG).DIGITIZING ERROR OF DATA.
           (ANG-ERR-D).DIGITIZING ERROR OF ANGLE.
ENDBIB               3
COMMON               2          3
ERR-DIG    ANG-ERR-D
PER-CENT   ADEG
3.          0.7
ENDCOMMON            3
DATA                 2         29
ANG-CM     DATA-CM
ADEG       NO-DIM
       14.9        3.7
       20.8       6.27
       28.1       5.12
       32.6       2.54
       37.2       2.61
       40.9       5.59
       45.7       9.01
       51.8        10.
       58.6       8.14
       61.9       5.47
       67.3        3.6
       73.4       3.81
        79.       4.66
        83.       4.52
       89.2       4.27
       91.9       3.55
       97.8       2.23
      101.6        1.5
      107.3       1.44
      112.4       1.45
       117.       1.57
      122.3       1.16
      127.5       1.06
      132.4      0.651
      138.6      0.556
      142.9      0.441
      147.4      0.524
      151.9      0.621
      157.9      0.757
ENDDATA             31
ENDSUBENT           43
SUBENT        O1542003   20070823   20071015   20071015       O031
BIB                  4         12
REACTION   (14-SI-30(P,A)13-AL-27,PAR,DA)  Fig.3
EN-SEC     (E-LVL,13-AL-27)
LEVEL-PROP (13-AL-27,E-LVL=0.000,SPIN=2.5,PARITY=+1.)
           (13-AL-27,E-LVL=2.980,SPIN=1.5,PARITY=+1.) plus 9/2+
                3.0 MeV
           (13-AL-27,E-LVL=4.050,SPIN=0.5,PARITY=-1.) or 3/2-
           (13-AL-27,E-LVL=5.160,SPIN=0.5,PARITY=-1.) or 3/2-
           (13-AL-27,E-LVL=6.815,SPIN=0.5,PARITY=+1.)
            the isobaric analog state of Mg-27 at 6.815 MeV
ERR-ANALYS (DATA-ERR).THE ERROR IS REPORTED BY AUTHORS ON FIG.
           (ERR-DIG).DIGITIZING ERROR OF DATA.
           (ANG-ERR-D).DIGITIZING ERROR OF ANGLE.
ENDBIB              12
COMMON               2          3
ERR-DIG    ANG-ERR-D
PER-CENT   ADEG
1.9        0.4
ENDCOMMON            3
DATA                 4         85
E-LVL      ANG-CM     DATA-CM    DATA-ERR
MEV        ADEG       MU-B/SR    PER-CENT
    0.00000    8.40000  196.00000
    0.00000   10.90000  323.00000
    0.00000   13.50000  394.00000
    0.00000   16.70000  468.00000
    0.00000   19.00000  394.00000
    0.00000   22.40000  389.00000
    0.00000   24.10000  323.00000
    0.00000   27.00000  236.00000
    0.00000   29.80000  165.00000
    0.00000   32.40000  168.00000
    0.00000   35.50000  120.60000
    0.00000   37.50000  100.30000
    0.00000   40.40000   93.90000
    0.00000   43.00000   81.30000
    0.00000   45.80000   70.30000
    0.00000   48.40000   63.30000
    0.00000   51.30000   54.10000
    0.00000   54.10000   30.30000
    0.00000   57.00000   27.60000
    0.00000   58.70000   24.20000
    0.00000   61.50000   20.40000
    0.00000   64.40000   16.11000
    0.00000   67.00000   15.09000
    0.00000   69.00000   12.88000
    0.00000   72.10000   11.91000
    0.00000   74.10000   10.86000
    2.98000    8.40000  216.00000
    2.98000   10.40000  133.30000
    2.98000   13.90000  109.60000
    2.98000   16.10000   98.80000
    2.98000   19.00000   93.80000
    2.98000   22.20000  124.90000
    2.98000   23.90000  155.80000
    2.98000   26.50000  182.00000
    2.98000   29.60000  189.00000
    2.98000   32.20000  182.00000
    2.98000   34.80000  162.00000
    2.98000   37.60000  149.90000
    2.98000   40.20000  133.30000
    2.98000   43.00000   86.80000
    2.98000   45.60000   67.80000
    2.98000   48.20000   61.10000
    2.98000   51.30000   43.00000
    2.98000   53.90000   30.30000
    2.98000   56.20000   24.30000
    2.98000   58.70000   18.50000
    2.98000   61.30000   14.99000
    2.98000   63.90000   14.05000
    2.98000   66.50000   14.99000
    2.98000   68.70000   12.66000
    2.98000   71.60000   12.50000
    2.98000   74.20000   13.87000
    4.05000   21.30000   66.00000    9.00000
    4.05000   24.00000   61.00000   11.00000
    4.05000   27.00000   49.00000   18.00000
    4.05000   29.30000   23.00000   22.00000
    4.05000   32.30000   27.00000   15.00000
    4.05000   34.70000   21.20000   14.00000
    4.05000   37.30000    9.00000   40.00000
    4.05000   40.00000    7.60000   26.00000
    4.05000   42.40000    7.10000   28.00000
    5.16000    7.50000  180.00000   12.00000
    5.16000   11.10000  201.00000    9.00000
    5.16000   13.40000  134.00000   16.00000
    5.16000   16.10000  115.00000   15.00000
    5.16000   19.10000  105.00000   13.00000
    5.16000   21.50000   77.00000   12.00000
    5.16000   24.40000   67.00000   12.00000
    5.16000   26.50000   47.00000   17.00000
    5.16000   29.50000   37.00000   19.00000
    5.16000   32.50000   24.00000   17.00000
    5.16000   34.80000   14.90000   19.00000
    5.16000   37.50000   10.90000   20.00000
    6.81500   18.60000   74.00000   14.00000
    6.81500   21.00000   71.00000   11.00000
    6.81500   23.70000   43.00000   14.00000
    6.81500   26.70000   60.00000   17.00000
    6.81500   29.10000   39.00000   23.00000
    6.81500   36.80000   12.30000   24.00000
    6.81500   40.40000   16.00000   19.00000
    6.81500   42.70000   12.50000   24.00000
    6.81500   45.70000   13.50000   21.00000
    6.81500   48.10000   16.00000   19.00000
    6.81500   51.10000   16.80000   17.00000
    6.81500   55.90000   10.60000   20.00000
ENDDATA             87
ENDSUBENT          108
ENDENTRY             3
