ENTRY            O1568   20071112   20080407   20080403       O034
SUBENT        O1568001   20071112   20080407   20080403       O034
BIB                 12         31
TITLE      C-14(Li-6,t)O-17 reaction at E(Li-6)=34 MeV.
AUTHOR     (A.Cunsolo, A.Foti, G.Imme, G.Pappalardo, G.Raciti,
           N.Saunier)
INSTITUTE  (2ITYLNS)
           (2ITYSIC)
           (2ITYCAT)
           (2FR SAC)
REFERENCE  (J,PR/C,24,2127,1981)
ADD-RES    (COMP).The experimental data have been analyzed in
           terms of Hauser-Feshbach and exact-finite-range
           distorted-wave Born-approximation theories.
           He-3 spectroscopic strengths are extracted.
           A typical energy spectrum of tritons, detected at
           ang(lab)=15-degree is observed.
FACILITY   (VDGT,2FR SAC) the Saclay FN Tandem Van de Graaff
           Facility.
SAMPLE     A C-14 target, enriched to 70% and 45+-9-mug/cm**2
           thick, was used.
DETECTOR   (TELES) Delta-E-E silicon counter telescope,
           delta-E=200 mum, E=5000 mum thick.
           A silicon detector 200 mum thick, fixed at 30-degree
           was used as monitor.
INC-SOURCE *EN-RSL-FW*.The overall triton energy resolution(FWHM)
            was about 80 keV.
ERR-ANALYS (ERR-T).The uncertainty in the absolute cross section
             is estimated to be 20%, mainly due to target
             thickness non-uniformity.
           (ANG-ERR-D).Digitizing error of angle.
           (ERR-DIG).Digitizing error of data.
HISTORY    (20071112C) SB
STATUS     (CURVE) by Cajad.
ENDBIB              31
COMMON               5          3
EN         ERR-T      EN-RSL-FW  ANG-ERR-D  ERR-DIG
MEV        PER-CENT   KEV        ADEG       PER-CENT
34.        20.        80.        0.3        3.0
ENDCOMMON            3
ENDSUBENT           38
SUBENT        O1568002   20071121   20080407   20080403       O034
BIB                  4         18
REACTION   (6-C-14(3-LI-6,T)8-O-17,PAR,DA) Fig. 2, 3, 4, 5
ERR-ANALYS (DATA-ERR).The error is reported by authors on fig.
EN-SEC     (E-LVL,8-O-17)
LEVEL-PROP (8-O-17,E-LVL=0.000,SPIN=2.5,PARITY=+1.)
           (8-O-17,E-LVL=0.870,SPIN=0.5,PARITY=+1.)
           (8-O-17,E-LVL=3.050,SPIN=0.5,PARITY=-1.)
           (8-O-17,E-LVL=3.840,SPIN=2.5,PARITY=-1.)
           (8-O-17,E-LVL=4.550,SPIN=1.5,PARITY=-1.)
           (8-O-17,E-LVL=5.690,SPIN=3.5,PARITY=-1.)
           (8-O-17,E-LVL=7.170,SPIN=2.5,PARITY=-1.)
           (8-O-17,E-LVL=7.380,SPIN=2.5,PARITY=-1.) or parity +1.
           (8-O-17,E-LVL=7.750,SPIN=5.5,PARITY=-1.)
           (8-O-17,E-LVL=8.200,SPIN=1.5,PARITY=-1.)
           (8-O-17,E-LVL=8.470,SPIN=3.5,PARITY=+1.)
           (8-O-17,E-LVL=9.180,SPIN=3.5,PARITY=-1.)
           (8-O-17,E-LVL=9.720,SPIN=3.5,PARITY=+1.)
           (8-O-17,E-LVL=9.870,SPIN=4.5,PARITY=+1.)
           (8-O-17,E-LVL=5.220,SPIN=4.5,PARITY=-1.)
ENDBIB              18
NOCOMMON             0          0
DATA                 4        188
E-LVL      ANG-CM     DATA-CM    DATA-ERR
MEV        ADEG       MU-B/SR    PER-CENT
    0.00000    7.75000   40.00000   18.00000
    0.00000   12.60000   65.00000   15.00000
    0.00000   19.46000   56.00000   13.00000
    0.00000   25.64000   24.00000   13.00000
    0.00000   31.55000   11.20000   25.00000
    0.00000   38.28000   32.00000   16.00000
    0.00000   43.73000   15.50000   16.00000
    0.00000   49.59000   18.00000   17.00000
    0.00000   56.00000   33.00000   15.00000
    0.87000    8.19000   73.00000   12.00000
    0.87000   13.00000   15.00000   30.00000
    0.87000   19.70000   47.00000   17.00000
    0.87000   25.54000   28.00000   18.00000
    0.87000   31.73000    5.40000   40.00000
    0.87000   38.19000   17.00000   40.00000
    0.87000   44.38000    7.00000   26.00000
    0.87000   50.14000    2.60000   50.00000
    0.87000   56.13000    8.80000   23.00000
    3.05000    8.31000   32.00000   19.00000
    3.05000   13.87000   23.00000   22.00000
    3.05000   20.09000   18.00000   22.00000
    3.05000   26.22000   18.00000   22.00000
    3.05000   32.69000    6.20000   30.00000
    3.05000   39.03000    3.10000   40.00000
    3.05000   44.95000    6.70000   24.00000
    3.05000   51.54000    3.20000   40.00000
    3.05000   57.35000    4.40000   30.00000
    3.84000    8.33000   93.00000   15.00000
    3.84000   13.68000   56.00000   18.00000
    3.84000   19.63000   20.00000   20.00000
    3.84000   25.75000   25.00000   16.00000
    3.84000   32.22000   19.00000   21.00000
    3.84000   38.34000   24.00000   17.00000
    3.84000   44.33000   18.80000   15.00000
    3.84000   50.65000   10.40000   20.00000
    3.84000   56.39000    8.80000   26.00000
    4.55000    8.91000  107.00000   14.00000
    4.55000   14.12000  109.00000   16.00000
    4.55000   20.32000   37.00000   16.00000
    4.55000   26.71000   15.00000   20.00000
    4.55000   32.88000   15.00000   27.00000
    4.55000   39.57000   12.70000   20.00000
    4.55000   45.46000   14.70000   20.00000
    4.55000   51.03000    9.60000   24.00000
    4.55000   57.49000    7.50000   25.00000
    5.22000    7.78000   30.00000   20.00000
    5.22000   13.39000   30.00000   23.00000
    5.22000   19.66000   22.00000   18.00000
    5.22000   26.38000   20.00000   20.00000
    5.22000   32.42000   15.00000   20.00000
    5.22000   38.92000    9.00000   23.00000
    5.22000   45.19000   11.40000   20.00000
    5.22000   51.24000    9.30000   20.00000
    5.22000   57.51000    7.70000   25.00000
    5.69000    9.85000  430.00000    7.00000
    5.69000   14.87000  360.00000   11.00000
    5.69000   21.31000  125.00000   11.00000
    5.69000   27.36000   76.00000   11.00000
    5.69000   33.51000   82.00000   10.00000
    5.69000   39.93000   76.00000    9.00000
    5.69000   46.19000   54.00000   11.00000
    5.69000   52.01000   32.00000   13.00000
    5.69000   58.29000   52.00000   10.00000
    7.17000   10.40000   79.00000   13.00000
    7.17000   15.43000   65.00000   15.00000
    7.17000   21.59000   27.00000   15.00000
    7.17000   28.27000   23.00000   17.00000
    7.17000   46.98000   10.80000   21.00000
    7.17000   53.64000   10.20000   21.00000
    7.17000   59.28000    4.80000   30.00000
    7.38000    5.87000  530.00000    8.00000
    7.38000   12.32000  460.00000   11.00000
    7.38000   18.66000  195.00000    7.00000
    7.38000   25.27000   76.00000   11.00000
    7.38000   31.92000   78.00000   12.00000
    7.38000   38.50000   35.80000    8.00000
    7.38000   56.80000   29.00000   14.00000
    7.75000    7.27000  250.00000   16.00000
    7.75000   12.65000  320.00000    9.00000
    7.75000   18.63000  244.00000    8.00000
    7.75000   31.95000   75.00000    9.00000
    7.75000   38.01000   36.00000   11.00000
    8.20000    6.57000   79.00000   15.00000
    8.20000   12.07000   57.00000   19.00000
    8.20000   18.47000   17.00000   18.00000
    8.20000   25.43000   14.00000   21.00000
    8.20000   31.41000   10.50000   24.00000
    8.20000   38.14000    7.30000   23.00000
    8.20000   44.59000    6.30000   24.00000
    8.20000   50.54000    5.40000   26.00000
    8.20000   56.76000    4.20000   29.00000
    8.47000    6.74000  800.00000    9.00000
    8.47000   11.71000  700.00000   11.00000
    8.47000   18.27000  319.00000    7.00000
    8.47000   25.36000  129.00000    9.00000
    8.47000   31.35000   92.00000    8.00000
    8.47000   37.84000   64.00000    9.00000
    8.47000   44.33000   43.00000    9.00000
    8.47000   50.53000   37.00000   14.00000
    8.47000   57.00000   28.00000   14.00000
    9.18000    6.85000  113.00000   14.00000
    9.18000   12.03000  125.00000   13.00000
    9.18000   19.18000   51.00000   14.00000
    9.18000   25.97000   31.00000   16.00000
    9.18000   32.34000   32.00000   16.00000
    9.18000   38.63000   21.00000   19.00000
    9.18000   45.07000   18.30000   16.00000
    9.18000   51.35000   12.20000   24.00000
    9.18000   57.71000   13.40000   19.00000
    9.72000    6.07000  350.00000    9.00000
    9.72000   11.07000  320.00000    9.00000
    9.72000   17.96000  140.00000    9.00000
    9.72000   24.56000   72.00000   10.00000
    9.72000   31.11000   45.00000   13.00000
    9.72000   37.58000   35.00000   11.00000
    9.72000   44.08000   24.00000   13.00000
    9.72000   50.42000   13.40000   17.00000
    9.87000    4.62000 1270.00000    9.00000
    9.87000   10.09000 1170.00000    9.00000
    9.87000   16.71000  590.00000    7.00000
    9.87000   23.13000  255.00000    9.00000
    9.87000   29.70000  146.00000    9.00000
    9.87000   36.26000   86.00000    8.00000
    9.87000   43.03000   55.00000    9.00000
    9.87000   48.31000   44.00000   11.00000
    9.87000   55.58000   54.00000    9.00000
   10.43000    8.57000  232.00000   13.00000
   10.43000   20.59000   76.00000   12.00000
   10.43000   26.95000   39.00000   18.00000
   10.43000   33.60000   28.00000   18.00000
   10.43000   39.79000   22.00000   18.00000
   11.23000   10.14000  460.00000    7.00000
   11.23000   15.65000  430.00000    9.00000
   11.23000   21.97000  186.00000   10.00000
   11.23000   28.31000   89.00000   13.00000
   11.23000   34.47000   60.00000   10.00000
   11.23000   41.60000   42.00000   10.00000
   11.23000   47.80000   34.00000   15.00000
   11.82000   11.83000  530.00000    8.00000
   11.82000   17.31000  425.00000    6.00000
   11.82000   23.88000  190.00000    9.00000
   11.82000   30.74000  115.00000   13.00000
   11.82000   36.90000   73.00000   11.00000
   11.82000   43.56000   54.00000   15.00000
   11.82000   50.45000   37.00000   11.00000
   11.82000   55.88000   23.10000   13.00000
   11.82000   62.54000   17.00000   18.00000
   12.01000   13.49000  131.00000   11.00000
   12.01000   18.93000   84.00000   20.00000
   12.01000   25.59000   60.00000   17.00000
   12.01000   32.23000   40.00000   18.00000
   12.01000   38.56000   17.00000   29.00000
   12.01000   44.80000   17.00000   18.00000
   12.01000   51.73000   15.00000   20.00000
   12.01000   58.14000   10.40000   24.00000
   12.01000   64.41000   12.10000   21.00000
   12.27000   19.95000  283.00000   10.00000
   12.27000   26.55000  126.00000   10.00000
   12.27000   33.36000   92.00000   14.00000
   12.27000   40.17000   74.00000   11.00000
   12.27000   46.76000   34.00000   12.00000
   12.27000   52.86000   32.00000   16.00000
   12.27000   59.44000   23.00000   13.00000
   12.99000    8.72000  194.00000   12.00000
   12.99000   14.35000  183.00000   13.00000
   12.99000   20.94000   87.00000   17.00000
   12.99000   27.53000   54.00000   13.00000
   12.99000   34.58000   38.00000   16.00000
   12.99000   40.93000   24.00000   17.00000
   12.99000   47.51000   15.00000   27.00000
   12.99000   53.62000   12.00000   25.00000
   12.99000   60.18000   12.00000   30.00000
   13.60000    9.25000  400.00000   10.00000
   13.60000   14.41000  390.00000   13.00000
   13.60000   21.24000  216.00000    8.00000
   13.60000   28.53000  126.00000   12.00000
   13.60000   34.88000   73.00000   15.00000
   13.60000   41.23000   50.00000   16.00000
   13.60000   48.51000   38.00000   16.00000
   16.30000   10.02000  310.00000   19.00000
   16.30000   15.42000  250.00000   12.00000
   16.30000   22.71000  133.00000   12.00000
   16.30000   29.78000   59.00000   19.00000
   16.30000   36.81000   64.00000   17.00000
   16.30000   43.16000   49.00000   16.00000
   16.30000   50.20000   45.00000   16.00000
   16.30000   57.03000   17.00000   40.00000
   16.30000   63.82000   26.00000   19.00000
ENDDATA            190
ENDSUBENT          213
ENDENTRY             2
