ENTRY            O1579   20071129   20080407   20080403       O034
SUBENT        O1579001   20071129   20080407   20080403       O034
BIB                 14         32
TITLE      Elastic scattering phenomenological analysis of the
           first resonant structure of the Si-28+O-16 system.
AUTHOR     (M.C.Mermaz, E.R.Chavez-Lomeli, J.Barrette, B.Berthier,
           A.Greiner)
INSTITUTE  (2FR SAC)
REFERENCE  (J,PR/C,29,147,1984)
SAMPLE     A 100-mug/cm**2 self-supporting SiO target was used
           at the backward angle range and the Si-28 beam.
           The O-16 beam and a 30-mug/cm**2 enriched Si-28
           target on carbon backing was used at the forward angle.
ADD-RES    (COMP).Optical model, Regge pole and phase shift
            analyses.
DETECTOR   (MAGSP) a QDDD magnetic spectrometer for detection
           O-16 recoil nuclei at forward angles.
           (TELES) a delta-E-E solid state telescope.
           (PSSSD) position sensitive solid state counter.
           (SOLST) In both experiments, two solid state monitors,
           placed left and right with respect to the beam axis,
           were used in order to correct beam alignment
           instability.
FACILITY   (VDGT,2FR SAC)
METHOD     (EDE)
COMMENT    *By authors*.The absolute values were obtained by
           normalization on the pure Rutherford value at forward
           angles.
CORRECTION  Charge state corrections for the yields obtained
           from the QDDD spectrometer was made.
ERR-ANALYS (ERR-DIG).Digitizing error of data.
           (DATA-ERR).The error is reported by authors on fig.
           (ANG-ERR-D).Digitizing error of angle.
STATUS     (CURVE).BY CAJAD.
HISTORY    (20071122C)
ENDBIB              32
COMMON               3          3
ANG-ERR-D  ERR-DIG    DATA-ERR
ADEG       PER-CENT   PER-CENT
0.6        6.         15.
ENDCOMMON            3
ENDSUBENT           39
SUBENT        O1579002   20071129   20080407   20080403       O034
BIB                  2          5
REACTION   (14-SI-28(8-O-16,EL)14-SI-28,,DA,,RTH)
COMMENT    *By authors*.All of the angular distributions present
           oscillatory behavior at backward angles.
           *By compiler*.The data at 21.1 MeV was taken from a
           group at BNL.See reference 1.
ENDBIB               5
NOCOMMON             0          0
DATA                 3        445
EN         ANG-CM     DATA
MEV        ADEG       NO-DIM
   18.67000   30.20000    1.05000
   18.67000   33.50000    0.93000
   18.67000   36.90000    0.96000
   18.67000   40.20000    0.95000
   18.67000   43.60000    0.95000
   18.67000   46.90000    1.01000
   18.67000   49.00000    0.92000
   18.67000   50.30000    0.92000
   18.67000   51.10000    0.92000
   18.67000   55.70000    0.86000
   18.67000   58.20000    0.91000
   18.67000   61.50000    0.96000
   18.67000   64.50000    1.05000
   18.67000   66.10000    1.02000
   18.67000   68.20000    1.02000
   18.67000   69.10000    0.93000
   18.67000   72.80000    0.95000
   18.67000   75.80000    0.95000
   18.67000   79.10000    1.04000
   18.67000   82.40000    0.89000
   18.67000   84.10000    0.97000
   18.67000   84.90000    0.82000
   18.67000   86.60000    0.81000
   18.67000   90.00000    0.81000
   18.67000   92.00000    0.81000
   18.67000   95.40000    0.72000
   18.67000   98.30000    0.65600
   18.67000   99.10000    0.63600
   18.67000  100.00000    0.63600
   18.67000  101.60000    0.59800
   18.67000  103.30000    0.65300
   18.67000  105.80000    0.56200
   18.67000  107.50000    0.52900
   18.67000  110.00000    0.52800
   18.67000  110.80000    0.57600
   18.67000  115.00000    0.55800
   18.67000  119.60000    0.52300
   18.67000  123.70000    0.37700
   18.67000  127.90000    0.24800
   18.67000  132.00000    0.18400
   18.67000  135.80000    0.13300
   18.67000  140.00000    0.17200
   18.67000  143.30000    0.17700
   18.67000  147.50000    0.17100
   18.67000  151.70000    0.15200
   18.67000  155.80000    0.14700
   18.67000  159.20000    0.14600
   18.67000  164.20000    0.12900
   18.67000  167.50000    0.14500
   18.67000  171.30000    0.14500
   18.67000  175.50000    0.11400
   19.03000   31.20000    1.03000
   19.03000   33.30000    0.97000
   19.03000   37.90000    0.99000
   19.03000   40.00000    1.02000
   19.03000   43.30000    1.05000
   19.03000   46.70000    1.02000
   19.03000   47.90000    1.02000
   19.03000   50.00000    1.05000
   19.03000   51.70000    0.96000
   19.03000   55.50000    0.93000
   19.03000   58.80000    0.98000
   19.03000   62.20000    1.11000
   19.03000   65.50000    1.10000
   19.03000   66.80000    1.14000
   19.03000   68.00000    1.10000
   19.03000   69.30000    1.17000
   19.03000   73.00000    1.10000
   19.03000   76.00000    1.13000
   19.03000   78.90000    1.07000
   19.03000   82.20000    0.97000
   19.03000   83.90000    0.89000
   19.03000   85.10000    0.86000
   19.03000   86.80000    0.81000
   19.03000   90.10000    0.74000
   19.03000   92.20000    0.72000
   19.03000   95.50000    0.64100
   19.03000   98.50000    0.62200
   19.03000   99.30000    0.58600
   19.03000  101.00000    0.53600
   19.03000  101.80000    0.55200
   19.03000  103.10000    0.58500
   19.03000  105.10000    0.55100
   19.03000  107.70000    0.51900
   19.03000  110.20000    0.55000
   19.03000  111.40000    0.48900
   19.03000  112.30000    0.53300
   19.03000  115.60000    0.43300
   19.03000  119.30000    0.39600
   19.03000  123.90000    0.21300
   19.03000  127.60000    0.12500
   19.03000  131.30000    0.09300
   19.03000  135.10000    0.15800
   19.03000  139.30000    0.17700
   19.03000  143.50000    0.15700
   19.03000  147.70000    0.14000
   19.03000  151.00000    0.12400
   19.03000  155.60000    0.09500
   19.03000  159.30000    0.12700
   19.03000  162.70000    0.10600
   19.03000  167.70000    0.11300
   19.03000  171.50000    0.11200
   19.03000  175.20000    0.08900
   19.50000   31.50000    1.06000
   19.50000   34.10000    1.00000
   19.50000   37.60000    1.07000
   19.50000   40.60000    1.01000
   19.50000   44.60000    0.99000
   19.50000   48.00000    1.02000
   19.50000   49.80000    0.96000
   19.50000   51.10000    0.96000
   19.50000   52.40000    0.93000
   19.50000   56.70000    1.00000
   19.50000   59.70000    1.00000
   19.50000   62.30000    1.11000
   19.50000   65.80000    1.15000
   19.50000   67.10000    1.15000
   19.50000   68.40000    1.05000
   19.50000   70.60000    1.08000
   19.50000   73.20000    1.09000
   19.50000   76.70000    0.99000
   19.50000   79.70000    0.91000
   19.50000   82.80000    0.81000
   19.50000   84.10000    0.73000
   19.50000   84.50000    0.78000
   19.50000   85.40000    0.78000
   19.50000   86.70000    0.71000
   19.50000   90.20000    0.67000
   19.50000   92.40000    0.61600
   19.50000   95.50000    0.52900
   19.50000   99.00000    0.46900
   19.50000   99.80000    0.51500
   19.50000   99.90000    0.44100
   19.50000  102.00000    0.47000
   19.50000  103.30000    0.45700
   19.50000  105.10000    0.41700
   19.50000  105.50000    0.44400
   19.50000  107.70000    0.44500
   19.50000  110.20000    0.47500
   19.50000  111.60000    0.44700
   19.50000  112.80000    0.49200
   19.50000  115.50000    0.32900
   19.50000  115.60000    0.39700
   19.50000  119.10000    0.24200
   19.50000  123.50000    0.17200
   19.50000  128.00000    0.09900
   19.50000  131.80000    0.16400
   19.50000  135.60000    0.17500
   19.50000  139.60000    0.14600
   19.50000  144.00000    0.11800
   19.50000  147.50000    0.09500
   19.50000  151.80000    0.09600
   19.50000  156.10000    0.11200
   19.50000  159.60000    0.12400
   19.50000  163.50000    0.10000
   19.50000  167.50000    0.06710
   19.50000  172.00000    0.04220
   19.50000  175.70000    0.01710
   20.12000   32.50000    1.03000
   20.12000   34.20000    0.97000
   20.12000   38.80000    1.06000
   20.12000   42.10000    0.95000
   20.12000   45.40000    0.92000
   20.12000   48.70000    0.97000
   20.12000   50.00000    1.03000
   20.12000   52.10000    1.00000
   20.12000   52.90000    1.00000
   20.12000   56.70000    1.13000
   20.12000   59.60000    1.20000
   20.12000   62.50000    1.20000
   20.12000   66.60000    1.13000
   20.12000   67.50000    1.07000
   20.12000   69.10000    1.07000
   20.12000   70.40000    1.04000
   20.12000   73.70000    1.01000
   20.12000   77.00000    0.90000
   20.12000   80.30000    0.82000
   20.12000   83.20000    0.68900
   20.12000   85.30000    0.65000
   20.12000   86.10000    0.61300
   20.12000   87.70000    0.57800
   20.12000   91.00000    0.54500
   20.12000   93.50000    0.45800
   20.12000   96.00000    0.39500
   20.12000   98.80000    0.32200
   20.12000   99.70000    0.27800
   20.12000  100.10000    0.30400
   20.12000  100.80000    0.25500
   20.12000  100.90000    0.30400
   20.12000  103.00000    0.27800
   20.12000  103.10000    0.30400
   20.12000  105.90000    0.25500
   20.12000  108.00000    0.24800
   20.12000  110.80000    0.21400
   20.12000  111.70000    0.24800
   20.12000  114.90000    0.15500
   20.12000  119.80000    0.08400
   20.12000  122.70000    0.09200
   20.12000  127.30000    0.10300
   20.12000  131.50000    0.10900
   20.12000  135.60000    0.07700
   20.12000  139.70000    0.04960
   20.12000  142.90000    0.03390
   20.12000  147.50000    0.02930
   20.12000  150.90000    0.04420
   20.12000  155.90000    0.04550
   20.12000  160.00000    0.03930
   20.12000  163.70000    0.02690
   20.12000  167.00000    0.02260
   20.12000  170.70000    0.02320
   20.12000  175.40000    0.03310
   20.83000   30.60000    1.08000
   20.83000   33.70000    1.00000
   20.83000   37.50000    1.09000
   20.83000   40.60000    0.92000
   20.83000   43.60000    1.09000
   20.83000   47.90000    1.05000
   20.83000   48.80000    1.14000
   20.83000   50.50000    1.09000
   20.83000   51.40000    1.19000
   20.83000   56.10000    1.35000
   20.83000   58.70000    1.30000
   20.83000   61.70000    1.15000
   20.83000   66.10000    1.20000
   20.83000   67.80000    1.06000
   20.83000   68.70000    0.94000
   20.83000   70.40000    0.98000
   20.83000   73.90000    0.86000
   20.83000   75.70000    0.76000
   20.83000   79.20000    0.60000
   20.83000   83.10000    0.53000
   20.83000   83.50000    0.51000
   20.83000   84.80000    0.46800
   20.83000   87.00000    0.44900
   20.83000   89.20000    0.38100
   20.83000   90.90000    0.36600
   20.83000   93.10000    0.36700
   20.83000   95.30000    0.26400
   20.83000   98.80000    0.21500
   20.83000   99.20000    0.20600
   20.83000  100.50000    0.17500
   20.83000  104.00000    0.15500
   20.83000  105.30000    0.16200
   20.83000  108.40000    0.13700
   20.83000  108.80000    0.14300
   20.83000  110.60000    0.11700
   20.83000  111.90000    0.11200
   20.83000  115.00000    0.08100
   20.83000  118.90000    0.05800
   20.83000  123.70000    0.05800
   20.83000  128.00000    0.06300
   20.83000  131.90000    0.05600
   20.83000  135.40000    0.03420
   20.83000  139.40000    0.02570
   20.83000  143.70000    0.02910
   20.83000  147.10000    0.03590
   20.83000  151.00000    0.03600
   20.83000  154.50000    0.02480
   20.83000  160.30000    0.01140
   20.83000  164.50000    0.00123
   20.83000  168.10000    0.01010
   20.83000  171.70000    0.03640
   20.83000  175.10000    0.07700
   21.10000   30.00000    1.06000
   21.10000   33.00000    1.11000
   21.10000   35.10000    1.11000
   21.10000   37.20000    1.07000
   21.10000   38.90000    1.04000
   21.10000   41.90000    0.96000
   21.10000   43.60000    1.05000
   21.10000   46.10000    1.05000
   21.10000   48.60000    1.15000
   21.10000   50.70000    1.16000
   21.10000   52.40000    1.11000
   21.10000   55.00000    1.17000
   21.10000   56.60000    1.17000
   21.10000   58.80000    1.18000
   21.10000   61.30000    1.14000
   21.10000   63.00000    1.05000
   21.10000   65.50000    1.06000
   21.10000   68.50000    0.95000
   21.10000   70.70000    0.88000
   21.10000   71.90000    0.81000
   21.10000   74.90000    0.72000
   21.10000   77.10000    0.62000
   21.10000   78.80000    0.57000
   21.10000   81.30000    0.51000
   21.10000   83.00000    0.47000
   21.10000   85.60000    0.40200
   21.10000   87.30000    0.42000
   21.10000   89.00000    0.35800
   21.10000   91.20000    0.27100
   21.10000   93.30000    0.28300
   21.10000   95.00000    0.22300
   21.10000   97.60000    0.19000
   21.10000   98.90000    0.15000
   21.10000  101.10000    0.13300
   21.10000  102.30000    0.13300
   21.10000  104.80000    0.15800
   21.10000  106.10000    0.14000
   21.10000  108.70000    0.12500
   21.10000  111.20000    0.12600
   21.10000  112.50000    0.11200
   21.10000  114.30000    0.06900
   21.10000  116.40000    0.06100
   21.10000  118.10000    0.05700
   21.10000  120.30000    0.05030
   21.10000  123.60000    0.06700
   21.10000  125.30000    0.07100
   21.10000  127.00000    0.06500
   21.10000  129.10000    0.05800
   21.10000  131.70000    0.05600
   21.10000  133.90000    0.03910
   21.10000  135.20000    0.03070
   21.10000  137.40000    0.02050
   21.10000  140.00000    0.01620
   21.10000  141.20000    0.02160
   21.10000  143.60000    0.03130
   21.10000  145.70000    0.03860
   21.10000  147.40000    0.04750
   21.10000  150.30000    0.04230
   21.10000  151.60000    0.04610
   21.10000  153.40000    0.02720
   21.10000  155.20000    0.01890
   21.10000  157.80000    0.01030
   21.10000  159.20000    0.00640
   21.10000  161.80000    0.00362
   21.10000  164.00000    0.00263
   21.10000  166.00000    0.00550
   21.10000  168.00000    0.00980
   21.10000  169.90000    0.02510
   21.10000  171.90000    0.05040
   21.10000  174.30000    0.07300
   21.10000  176.40000    0.10200
   21.10000  178.00000    0.11500
   21.56000   31.50000    1.05000
   21.56000   34.10000    0.97000
   21.56000   38.10000    0.93000
   21.56000   40.70000    0.93000
   21.56000   45.10000    1.00000
   21.56000   48.20000    1.08000
   21.56000   49.90000    1.08000
   21.56000   53.00000    1.08000
   21.56000   56.10000    1.12000
   21.56000   58.70000    1.03000
   21.56000   62.30000    0.99000
   21.56000   65.80000    0.87000
   21.56000   67.50000    0.84000
   21.56000   68.40000    0.80000
   21.56000   69.30000    0.71000
   21.56000   74.10000    0.58000
   21.56000   77.20000    0.45500
   21.56000   79.80000    0.42000
   21.56000   83.30000    0.35600
   21.56000   84.60000    0.32800
   21.56000   85.50000    0.32800
   21.56000   86.80000    0.32800
   21.56000   90.30000    0.25700
   21.56000   92.10000    0.24700
   21.56000   92.50000    0.20200
   21.56000   96.00000    0.15200
   21.56000   96.10000    0.18600
   21.56000   99.10000    0.14500
   21.56000  100.00000    0.15100
   21.56000  100.10000    0.15100
   21.56000  101.30000    0.14500
   21.56000  101.80000    0.14500
   21.56000  104.00000    0.12800
   21.56000  106.20000    0.12800
   21.56000  108.20000    0.06500
   21.56000  108.30000    0.11400
   21.56000  112.30000    0.07000
   21.56000  116.70000    0.04300
   21.56000  120.60000    0.05030
   21.56000  124.10000    0.05200
   21.56000  128.50000    0.03780
   21.56000  132.90000    0.01900
   21.56000  136.40000    0.01000
   21.56000  140.40000    0.01490
   21.56000  143.90000    0.02500
   21.56000  148.80000    0.03170
   21.56000  151.80000    0.02200
   21.56000  157.10000    0.00800
   21.56000  160.50000    0.00404
   21.56000  164.50000    0.00740
   21.56000  168.50000    0.00900
   21.56000  172.90000    0.01640
   21.56000  176.50000    0.04290
   22.30000   30.60000    1.11000
   22.30000   32.80000    1.07000
   22.30000   37.10000    0.95000
   22.30000   40.50000    1.12000
   22.30000   44.00000    1.22000
   22.30000   47.00000    1.23000
   22.30000   49.50000    1.23000
   22.30000   50.80000    1.29000
   22.30000   51.30000    1.14000
   22.30000   56.00000    1.15000
   22.30000   59.00000    0.98000
   22.30000   62.50000    0.88000
   22.30000   65.50000    0.78000
   22.30000   66.40000    0.75000
   22.30000   68.10000    0.72000
   22.30000   69.80000    0.62000
   22.30000   73.30000    0.50500
   22.30000   76.30000    0.51000
   22.30000   79.40000    0.35400
   22.30000   82.40000    0.31500
   22.30000   83.70000    0.31600
   22.30000   85.00000    0.28000
   22.30000   85.90000    0.28100
   22.30000   89.40000    0.18100
   22.30000   89.80000    0.19600
   22.30000   90.60000    0.20500
   22.30000   91.50000    0.16100
   22.30000   92.40000    0.15500
   22.30000   94.90000    0.11700
   22.30000   95.00000    0.13200
   22.30000   98.00000    0.11700
   22.30000   99.30000    0.10900
   22.30000  100.20000    0.10900
   22.30000  101.90000    0.10900
   22.30000  102.80000    0.10900
   22.30000  103.20000    0.08900
   22.30000  105.00000    0.07600
   22.30000  106.70000    0.07000
   22.30000  108.00000    0.06000
   22.30000  110.20000    0.04350
   22.30000  110.60000    0.04360
   22.30000  114.50000    0.03170
   22.30000  118.80000    0.04240
   22.30000  122.20000    0.04260
   22.30000  126.60000    0.02340
   22.30000  130.60000    0.00820
   22.30000  134.90000    0.01240
   22.30000  138.70000    0.01590
   22.30000  142.60000    0.01420
   22.30000  147.00000    0.00990
   22.30000  150.90000    0.00570
   22.30000  154.90000    0.00244
   22.30000  158.50000    0.01640
   22.30000  162.70000    0.02570
   22.30000  167.10000    0.01470
   22.30000  170.30000    0.00282
   22.30000  174.70000    0.03080
ENDDATA            447
ENDSUBENT          457
SUBENT        O1579003   20071129   20080407   20080403       O034
BIB                  3          3
REACTION   (14-SI-28(8-O-16,INL)14-SI-28,PAR,DA) fig 5
EN-SEC     (E-LVL,14-SI-28)
LEVEL-PROP (14-SI-28,E-LVL=1.78,SPIN=2.0,PARITY=+1.)
ENDBIB               3
COMMON               2          3
E-LVL      EN
MEV        MEV
1.78       21.56
ENDCOMMON            3
DATA                 2         29
ANG-CM     DATA-CM
ADEG       MB/SR
       89.8        6.3
       93.7        5.2
       98.1       4.57
       98.2       3.57
      100.7       4.39
      101.6        4.4
      102.9       4.22
      105.1       3.73
      106.4       3.74
      107.8       3.74
      110.4       3.31
      110.5       3.04
      112.6       2.92
      114.8        2.7
      118.7       2.49
      122.7       1.79
      126.6       1.72
       131.       1.46
       135.       1.19
      139.4       1.01
      142.9       1.01
      146.8       0.83
      151.2       0.73
      155.6       0.68
      159.6       0.55
      163.5      0.468
      167.9       0.58
      172.3       0.71
      176.3       0.88
ENDDATA             31
ENDSUBENT           43
ENDENTRY             3
