ENTRY            O1570   20071204   20080407   20080403       O034
SUBENT        O1570001   20071204   20080407   20080403       O034
BIB                 11         19
TITLE      C-13(3-Li-6,t)O-16 reaction in the 20-32 MeV incident
           energy range.
AUTHOR     (A.Cunsolo, A.Foti, G.Imme, G. Pappalardo, G.Raciti,
           F.Rizzo, N.Saunier)
INSTITUTE  (2ITYCAT)
           (2FR SAC)
REFERENCE  (J,PR/C,21,952,1980)
FACILITY   (VDGT,2FR SAC) The Saclay FN tandem Van de Graaff.
METHOD     (EDE)
SAMPLE     Self-supporting C-13 targets, enriched to 80% and
           of thicknesses in the range from 80 to 200-mug/cm**2 ,
           was used.
ADD-RES    (COMP).HF and EFR-DWBA analysis.
            Triton energy spectrum from the C-13(Li-6,t)O-16
            reaction at E(Li-6)=25 MeV was observed.
DETECTOR   (TELES) Delta-E-E telescopes made of two silicon
           detectors.
STATUS     (CURVE) Data from figure 3,4
HISTORY    (20071204C) SB
ENDBIB              19
NOCOMMON             0          0
ENDSUBENT           22
SUBENT        O1570002   20071210   20080407   20080403       O034
BIB                  4         13
REACTION   (6-C-13(3-LI-6,T)8-O-16,PAR,DA)   Fig 3
EN-SEC     (E-LVL,8-O-16)
LEVEL-PROP (8-O-16,E-LVL=0.000,SPIN=0.,PARITY=+1.)
           (8-O-16,E-LVL=6.130,SPIN=0./3.,PARITY=+1.)-1 for spin 3
           (8-O-16,E-LVL=7.120,SPIN=1.,PARITY=-1.)
           (8-O-16,E-LVL=6.920,SPIN=2.,PARITY=+1.)
           (8-O-16,E-LVL=8.870,SPIN=2.,PARITY=-1.)
           (8-O-16,E-LVL=9.850,SPIN=2.,PARITY=+1.)
           (8-O-16,E-LVL=10.35,SPIN=4.,PARITY=+1.)
           (8-O-16,E-LVL=11.09,SPIN=3./4.,PARITY=+1.)
ERR-ANALYS (DATA-ERR).The error is reported by authors on fig.
           (ERR-DIG).Digitizing error of data.
           (ANG-ERR-D).Digitizing error of angle.
ENDBIB              13
COMMON               3          3
EN         ANG-ERR-D  ERR-DIG
MEV        ADEG       PER-CENT
28.        0.7        3.
ENDCOMMON            3
DATA                 5        121
E-LVL      E-LVL      ANG-CM     DATA-CM    DATA-ERR
MEV        MEV        ADEG       MU-B/SR    PER-CENT
    0.00000              17.70000   11.70000   19.00000
    0.00000              20.20000   16.30000   17.00000
    0.00000              23.30000   16.00000   15.00000
    0.00000              30.20000   13.90000    9.00000
    0.00000              35.90000    4.80000   25.00000
    0.00000              42.10000    5.20000   23.00000
    0.00000              48.00000   11.90000   18.00000
    0.00000              54.30000   11.40000   26.00000
    0.00000              60.60000    3.20000   19.00000
    0.00000              72.40000    5.40000   26.00000
    0.00000              83.90000    5.90000   19.00000
    0.00000              93.80000    6.40000   20.00000
    0.00000             123.70000    4.80000   27.00000
    0.00000             133.10000    1.40000   40.00000
    0.00000             141.50000    5.10000   25.00000
    0.00000             149.40000    4.10000   24.00000
    6.13000              17.10000   67.00000   21.00000
    6.13000              20.80000   62.00000   11.00000
    6.13000              24.00000   56.00000   14.00000
    6.13000              30.80000   51.00000   10.00000
    6.13000              36.20000   37.00000   14.00000
    6.13000              44.00000   36.50000
    6.13000              48.70000   36.00000   14.00000
    6.13000              56.00000   38.00000   13.00000
    6.13000              61.70000   42.00000   12.00000
    6.13000              73.30000   33.00000   15.00000
    6.13000              85.30000   33.00000   12.00000
    6.13000              96.90000   31.10000    9.00000
    6.13000             105.90000   22.70000    9.00000
    6.13000             115.80000   22.70000   12.00000
    6.13000             125.10000   31.00000   16.00000
    6.13000             134.00000   31.00000   13.00000
    6.13000             142.30000   32.00000   13.00000
    6.13000             150.10000   35.00000   14.00000
    6.92000    7.12000   19.10000  100.00000
    6.92000    7.12000   22.20000  102.00000
    6.92000    7.12000   25.40000   93.00000
    6.92000    7.12000   30.90000   53.90000
    6.92000    7.12000   37.20000   44.70000    6.00000
    6.92000    7.12000   42.90000   46.00000   11.00000
    6.92000    7.12000   50.40000   35.50000
    6.92000    7.12000   55.80000   24.00000   17.00000
    6.92000    7.12000   61.50000   27.00000   15.00000
    6.92000    7.12000   74.10000   21.40000   13.00000
    6.92000    7.12000   85.20000   18.20000   12.00000
    6.92000    7.12000   96.30000   12.80000   13.00000
    6.92000    7.12000  106.10000   18.50000   10.00000
    6.92000    7.12000  116.60000   15.10000   13.00000
    6.92000    7.12000  124.40000   19.30000   13.00000
    6.92000    7.12000  134.40000   15.70000   13.00000
    6.92000    7.12000  142.70000   19.10000   12.00000
    6.92000    7.12000  150.80000   31.00000   10.00000
    8.87000              19.90000   26.90000
    8.87000              23.00000   32.00000   13.00000
    8.87000              26.60000   41.90000
    8.87000              31.40000   31.00000   13.00000
    8.87000              38.30000   15.10000   17.00000
    8.87000              44.60000   15.10000
    8.87000              50.80000   18.00000   10.00000
    8.87000              57.60000   18.10000   16.00000
    8.87000              64.30000   28.00000   14.00000
    8.87000              76.00000   13.90000   15.00000
    8.87000              87.00000   12.10000   12.00000
    8.87000              98.00000   10.50000   10.00000
    8.87000             107.80000   14.10000   13.00000
    8.87000             117.30000   11.10000   13.00000
    8.87000             127.10000   15.40000   14.00000
    8.87000             135.40000   17.00000   14.00000
    8.87000             143.20000   24.00000   17.00000
    8.87000             151.50000   26.00000   12.00000
    9.85000              20.40000   33.00000    9.00000
    9.85000              24.70000   24.00000   13.00000
    9.85000              27.70000   36.00000   14.00000
    9.85000              32.50000   24.00000   13.00000
    9.85000              39.40000   17.20000   14.00000
    9.85000              45.30000    9.90000   11.00000
    9.85000              51.50000   13.80000   14.00000
    9.85000              65.60000   13.50000   13.00000
    9.85000              76.10000   11.70000   14.00000
    9.85000              86.20000    6.10000   20.00000
    9.85000              98.10000    6.80000   21.00000
    9.85000             109.10000    7.50000   16.00000
    9.85000             117.50000    6.50000   15.00000
    9.85000             126.90000    5.90000   19.00000
    9.85000             135.80000    5.60000   20.00000
    9.85000             144.50000    8.40000   21.00000
    9.85000             151.80000    9.80000   24.00000
   10.35000              19.70000  141.00000
   10.35000              21.90000   79.10000
   10.35000              25.10000   79.20000
   10.35000              33.00000   58.80000
   10.35000              38.80000   44.00000   11.00000
   10.35000              45.70000   26.00000   15.00000
   10.35000              51.60000   17.80000   14.00000
   10.35000              57.40000   14.00000   21.00000
   10.35000              64.60000   22.50000
   10.35000              75.60000   15.10000
   10.35000              87.60000   18.10000   12.00000
   10.35000             108.40000   21.80000
   10.35000             118.30000   24.30000   11.00000
   10.35000             127.70000   24.00000   17.00000
   10.35000             135.60000   19.50000   15.00000
   10.35000             143.50000   16.40000   12.00000
   10.35000             151.80000   21.70000   12.00000
   11.09000              20.60000  262.00000
   11.09000              22.70000  227.00000
   11.09000              25.90000  174.00000   11.00000
   11.09000              33.30000  160.00000   13.00000
   11.09000              40.70000  114.00000   14.00000
   11.09000              46.60000   65.80000
   11.09000              52.30000   57.30000
   11.09000              59.60000   79.00000   11.00000
   11.09000              65.40000   55.40000
   11.09000              76.50000   42.00000   10.00000
   11.09000              88.00000   40.00000   10.00000
   11.09000              98.90000   46.00000   11.00000
   11.09000             109.40000   39.00000   10.00000
   11.09000             118.80000   33.00000   12.00000
   11.09000             127.70000   35.00000   11.00000
   11.09000             136.10000   28.00000   11.00000
   11.09000             152.70000   37.00000   16.00000
ENDDATA            123
ENDSUBENT          145
SUBENT        O1570003   20071210   20080407   20080403       O034
BIB                  4         12
REACTION   (6-C-13(3-LI-6,T)8-O-16,PAR,DA)   Fig 4
EN-SEC     (E-LVL,8-O-16)
LEVEL-PROP (8-O-16,E-LVL=0.000,SPIN=0.,PARITY=+1.)
           (8-O-16,E-LVL=6.130,SPIN=0./3.,PARITY=+1.)-1 for spin 3
           (8-O-16,E-LVL=7.120,SPIN=1.,PARITY=-1.)
           (8-O-16,E-LVL=6.920,SPIN=2.,PARITY=+1.)
           (8-O-16,E-LVL=8.870,SPIN=2.,PARITY=-1.)
           (8-O-16,E-LVL=10.35,SPIN=4.,PARITY=+1.)
           (8-O-16,E-LVL=11.09,SPIN=3./4.,PARITY=+1.)
ERR-ANALYS (DATA-ERR).The error is reported by authors on fig.
           (ERR-DIG).Digitizing error of data.
           (EN-ERR-DIG).Digitizing error of incident energy.
ENDBIB              12
COMMON               3          3
ANG        EN-ERR-DIG ERR-DIG
ADEG       MEV        PER-CENT
15.        0.06       3.
ENDCOMMON            3
DATA                 4         91
E-LVL      EN         DATA       DATA-ERR
MEV        MEV        MU-B/SR    PER-CENT
    0.00000   20.14000   34.00000   12.00000
    0.00000   21.11000   28.00000   11.00000
    0.00000   22.05000   10.70000   16.00000
    0.00000   23.01000   11.30000   19.00000
    0.00000   24.05000   11.00000   20.00000
    0.00000   25.05000   12.60000   16.00000
    0.00000   26.08000   21.20000   13.00000
    0.00000   27.05000   15.40000   18.00000
    0.00000   28.06000   11.30000   14.00000
    0.00000   29.06000   11.90000   13.00000
    0.00000   30.06000   10.00000   12.00000
    0.00000   31.06000   12.40000   13.00000
    0.00000   32.06000   11.80000   12.00000
    6.13000   20.13000  227.00000
    6.13000   21.08000  259.00000
    6.13000   22.13000  255.00000
    6.13000   23.05000  189.00000   11.00000
    6.13000   24.10000  155.00000
    6.13000   25.11000  130.00000    8.00000
    6.13000   26.07000  106.00000    8.00000
    6.13000   27.12000   85.00000    8.00000
    6.13000   28.13000   73.00000   10.00000
    6.13000   29.13000   71.00000   10.00000
    6.13000   30.09000   65.00000    9.00000
    6.13000   31.13000   64.00000    9.00000
    6.13000   32.05000   59.00000   14.00000
    6.92000   20.14000  189.00000    8.00000
    6.92000   21.10000  176.00000    9.00000
    6.92000   22.15000  146.00000    5.00000
    6.92000   23.07000  107.00000    9.00000
    6.92000   24.13000   87.00000    8.00000
    6.92000   25.13000   80.00000   14.00000
    6.92000   26.13000   79.00000    8.00000
    6.92000   27.14000   71.00000   10.00000
    6.92000   28.14000   64.00000   14.00000
    6.92000   29.10000   62.00000   10.00000
    6.92000   30.15000   58.00000   10.00000
    6.92000   31.11000   54.00000    7.00000
    6.92000   32.07000   46.00000    9.00000
    7.12000   20.17000   89.00000   12.00000
    7.12000   21.12000   94.00000   11.00000
    7.12000   22.13000   74.00000   14.00000
    7.12000   23.10000   58.00000   16.00000
    7.12000   24.09000   72.00000   10.00000
    7.12000   25.06000   56.00000   11.00000
    7.12000   26.06000   52.00000   10.00000
    7.12000   27.11000   55.00000   15.00000
    7.12000   28.11000   58.00000   10.00000
    7.12000   29.07000   52.00000   12.00000
    7.12000   30.07000   54.00000   19.00000
    7.12000   31.07000   46.00000   11.00000
    7.12000   32.03000   45.00000   11.00000
    8.87000   20.00000  113.00000    8.00000
    8.87000   21.00000   81.00000   10.00000
    8.87000   22.05000   55.00000   13.00000
    8.87000   22.96000   47.00000   11.00000
    8.87000   24.04000   49.00000   10.00000
    8.87000   24.96000   31.00000   13.00000
    8.87000   26.04000   33.00000   12.00000
    8.87000   26.99000   27.40000    9.00000
    8.87000   27.94000   30.00000   17.00000
    8.87000   28.94000   28.00000   11.00000
    8.87000   29.94000   29.00000   14.00000
    8.87000   30.93000   31.00000   13.00000
    8.87000   31.93000   26.10000   11.00000
   10.35000   19.94000   28.60000    9.00000
   10.35000   20.93000   36.10000
   10.35000   21.97000   26.80000
   10.35000   22.88000   21.50000
   10.35000   23.93000   16.00000   12.00000
   10.35000   24.88000   14.50000   11.00000
   10.35000   25.88000   14.60000    9.00000
   10.35000   26.92000   13.90000    8.00000
   10.35000   27.92000   12.40000
   10.35000   28.87000   11.30000
   10.35000   29.91000    8.50000    7.00000
   10.35000   30.91000    8.60000    8.00000
   10.35000   31.91000    7.22000
   11.09000   19.86000   54.00000    7.00000
   11.09000   20.90000   44.80000    6.00000
   11.09000   21.94000   47.30000
   11.09000   22.85000   43.30000
   11.09000   23.89000   43.90000    7.00000
   11.09000   24.84000   36.30000
   11.09000   25.89000   31.90000
   11.09000   26.93000   28.10000
   11.09000   27.84000   26.70000
   11.09000   28.79000   26.50000
   11.09000   29.83000   24.30000    7.00000
   11.09000   30.83000   17.50000    7.00000
   11.09000   31.83000   16.60000
ENDDATA             93
ENDSUBENT          114
ENDENTRY             3
