ENTRY            C0806   20090904   20100610   20100528       C097
SUBENT        C0806001   20090904   20100610   20100528       C097
BIB                 13         28
INSTITUTE  (2NEDGRN,1USAMHG,1USAINU)
REFERENCE  (J,PR/C,61,054602,2000)
AUTHOR     (R.T.G.Zegers,S.Brandenburg,M.N.Harakeh,
           S.Y.van der Werf,J.Janecke,T.O'Donnell,D.A.Roberts,
           S.Shaheen,G.P.A.Berg,C.C.Foster,T.Rinckel,
           E.J.Stephenson)
TITLE      Search for isovector giant monopole resonances via the
            124Sn(3He,tn) reaction
FACILITY   (CYCLO,1USAINU)
INC-SOURCE 3He++ beam.
SAMPLE     Target enriched to 97.2% 124Sn, thickness 7.7 mg/cm2.
METHOD     (BCINT) Flux collected in faraday cup positioned
            inside dipole magnet.
           (COINC) t-n and t-gamma coincidences measured.
DETECTOR   (MAGSP) K600 hqdd spectrometer.  Focal plane detection
            system consists of of a wire chamber array (2 vertical
            and 2 horizontal drift chambers) backed by two
            scintillation detectors.
           (SCIN) Neutron detected in 4 Ne213 and 4 Ne230 liquid
            scintillation detectors.
CORRECTION Corrected for background, detector efficiency, and
            neutron-decay multiplicity.
ERR-ANALYS A discussion of systematic errors given in reference.
STATUS     (TABLE) Data received by email from R.Zegers, 6 May and
                   8 May, 2001.
           (APRVD) Approved by R.Zegers, 17 May 2001.
HISTORY    (20010507C) VM
           (20090904A) BIB updates.
ENDBIB              28
COMMON               1          3
EN
MEV
199.
ENDCOMMON            3
ENDSUBENT           35
SUBENT        C0806002   20010517   20010702   20050926       0000
BIB                  2          3
REACTION   (50-SN-124(HE3,T)51-SB-124,,DA/DE)
            Low magnetic filed run.
ERR-ANALYS No uncertainties given (small).
ENDBIB               3
NOCOMMON             0          0
DATA                 3        619
ANG        E-EXC      DATA
ADEG       MEV        MB/SR/MEV
  0.0         0.064      1.0418
  0.0         0.164      1.6911
  0.0         0.264      1.4922
  0.0         0.364      0.9897
  0.0         0.464      0.8257
  0.0         0.564      0.5868
  0.0         0.664      0.3229
  0.0         0.764      0.3106
  0.0         0.864      0.4158
  0.0         0.964      0.3657
  0.0         1.064      0.5386
  0.0         1.164      0.8764
  0.0         1.264      1.2722
  0.0         1.364      1.6735
  0.0         1.464      2.2402
  0.0         1.564      2.0037
  0.0         1.664      1.5770
  0.0         1.764      1.3995
  0.0         1.864      1.3565
  0.0         1.964      1.5798
  0.0         2.064      1.7335
  0.0         2.164      1.7133
  0.0         2.264      1.1723
  0.0         2.364      0.9550
  0.0         2.464      1.2456
  0.0         2.564      0.9942
  0.0         2.664      1.0891
  0.0         2.764      1.1071
  0.0         2.864      1.4853
  0.0         2.964      1.9411
  0.0         3.064      1.6176
  0.0         3.164      1.5091
  0.0         3.264      1.8514
  0.0         3.364      1.3540
  0.0         3.464      1.4611
  0.0         3.564      1.8294
  0.0         3.664      2.2672
  0.0         3.764      1.7991
  0.0         3.864      1.9245
  0.0         3.964      1.7387
  0.0         4.064      2.1453
  0.0         4.164      2.3898
  0.0         4.264      2.1129
  0.0         4.364      2.2101
  0.0         4.464      1.8910
  0.0         4.564      1.7646
  0.0         4.664      2.0243
  0.0         4.764      1.7622
  0.0         4.864      2.0657
  0.0         4.964      2.0202
  0.0         5.064      2.0629
  0.0         5.164      1.9686
  0.0         5.264      1.7161
  0.0         5.364      2.1238
  0.0         5.464      2.0150
  0.0         5.564      2.2458
  0.0         5.664      2.0633
  0.0         5.764      1.8409
  0.0         5.864      1.8187
  0.0         5.964      2.0956
  0.0         6.064      2.1604
  0.0         6.164      2.4774
  0.0         6.264      2.3922
  0.0         6.364      2.3920
  0.0         6.464      2.3999
  0.0         6.564      2.2030
  0.0         6.664      2.6202
  0.0         6.764      2.1598
  0.0         6.864      2.1961
  0.0         6.964      2.3082
  0.0         7.064      2.1083
  0.0         7.164      1.9671
  0.0         7.264      2.3405
  0.0         7.364      1.9631
  0.0         7.464      1.9861
  0.0         7.564      1.7862
  0.0         7.664      2.1430
  0.0         7.764      2.2087
  0.0         7.864      2.3090
  0.0         7.964      2.2577
  0.0         8.064      2.3668
  0.0         8.164      2.0770
  0.0         8.264      2.2008
  0.0         8.364      2.1654
  0.0         8.464      2.5415
  0.0         8.564      2.4995
  0.0         8.664      2.1553
  0.0         8.764      2.0608
  0.0         8.864      2.4665
  0.0         8.964      2.4015
  0.0         9.064      2.4187
  0.0         9.164      2.7085
  0.0         9.264      2.6061
  0.0         9.364      2.4516
  0.0         9.464      2.4308
  0.0         9.564      2.9336
  0.0         9.664      2.6132
  0.0         9.764      2.9607
  0.0         9.864      2.8325
  0.0         9.964      2.9250
  0.0        10.064      3.2289
  0.0        10.164      3.1473
  0.0        10.264      3.4708
  0.0        10.364      2.9185
  0.0        10.464      3.5766
  0.0        10.564      3.4678
  0.0        10.664      3.4839
  0.0        10.764      3.6168
  0.0        10.864      3.9979
  0.0        10.964      4.0960
  0.0        11.064      4.0189
  0.0        11.164      4.2802
  0.0        11.264      4.1701
  0.0        11.364      3.9254
  0.0        11.464      4.4137
  0.0        11.564      4.7933
  0.0        11.664      5.0365
  0.0        11.764      5.1090
  0.0        11.864      5.1696
  0.0        11.964      5.7441
  0.0        12.064     10.1784
  0.0        12.164     26.0467
  0.0        12.264     37.5145
  0.0        12.364     23.0836
  0.0        12.464     11.2107
  0.0        12.564      8.0400
  0.0        12.664      7.2112
  0.0        12.764      6.6161
  0.0        12.864      6.3469
  0.0        12.964      5.8907
  0.0        13.064      6.5874
  0.0        13.164      6.4903
  0.0        13.264      7.1706
  0.0        13.364      7.0759
  0.0        13.464      6.8102
  0.0        13.564      7.3481
  0.0        13.664      7.7524
  0.0        13.764      7.2803
  0.0        13.864      7.4861
  0.0        13.964      7.2227
  0.0        14.064      7.1424
  0.0        14.164      7.6779
  0.0        14.264      8.0721
  0.0        14.364      7.7236
  0.0        14.464      7.0739
  0.0        14.564      7.9116
  0.0        14.664      7.3296
  0.0        14.764      7.7013
  0.0        14.864      7.4441
  0.0        14.964      7.3037
  0.0        15.064      7.3449
  0.0        15.164      7.1432
  0.0        15.264      7.0957
  0.0        15.364      7.5990
  0.0        15.464      7.2377
  0.0        15.564      7.6004
  0.0        15.664      7.2769
  0.0        15.764      7.4332
  0.0        15.864      6.5149
  0.0        15.964      7.1995
  0.0        16.064      7.2552
  0.0        16.164      6.7352
  0.0        16.264      6.7031
  0.0        16.364      6.4545
  0.0        16.464      7.6327
  0.0        16.564      6.6751
  0.0        16.664      6.7833
  0.0        16.764      6.6747
  0.0        16.864      6.8413
  0.0        16.964      6.3855
  0.0        17.064      6.7498
  0.0        17.164      6.6357
  0.0        17.264      6.4992
  0.0        17.364      6.4537
  0.0        17.464      7.1939
  0.0        17.564      7.0581
  0.0        17.664      7.6341
  0.0        17.764      7.0511
  0.0        17.864      6.8915
  0.0        17.964      6.9790
  0.0        18.064      7.1391
  0.0        18.164      7.2995
  0.0        18.264      6.2522
  0.0        18.364      7.0894
  0.0        18.464      6.7843
  0.0        18.564      6.8443
  0.0        18.664      7.3061
  0.0        18.764      7.1581
  0.0        18.864      7.2375
  0.0        18.964      7.2005
  0.0        19.064      7.4895
  0.0        19.164      7.6620
  0.0        19.264      7.5166
  0.0        19.364      7.7217
  0.0        19.464      7.8181
  0.0        19.564      7.4760
  0.0        19.664      7.9245
  0.0        19.764      7.5372
  0.0        19.864      7.8243
  0.0        19.964      7.8152
  0.0        20.064      8.1224
  0.0        20.164      8.1385
  0.0        20.264      8.3140
  0.0        20.364      7.7631
  0.0        20.464      8.1254
  0.0        20.564      8.3047
  0.0        20.664      7.8102
  0.0        20.764      8.4657
  0.0        20.864      7.9540
  0.0        20.964      8.4043
  0.0        21.064      8.9090
  0.0        21.164      9.0241
  0.0        21.264      8.6374
  0.0        21.364      8.5634
  0.0        21.464      8.2833
  0.0        21.564      7.9831
  0.0        21.664      7.9590
  0.0        21.764      8.5455
  0.0        21.864      8.1521
  0.0        21.964      8.9290
  0.0        22.064      8.4602
  0.0        22.164      8.6941
  0.0        22.264      9.2454
  0.0        22.364      9.1893
  0.0        22.464      8.2383
  0.0        22.564      8.7169
  0.0        22.664      8.6967
  0.0        22.764      8.9334
  0.0        22.864      8.6333
  0.0        22.964      8.5408
  0.0        23.064      7.7587
  0.0        23.164      8.7117
  0.0        23.264      8.3237
  0.0        23.364      8.7846
  0.0        23.464      8.8710
  0.0        23.564      8.2684
  0.0        23.664      8.8771
  0.0        23.764      8.5580
  0.0        23.864      8.9324
  0.0        23.964      8.1258
  0.0        24.064      7.9526
  0.0        24.164      7.8540
  0.0        24.264      7.6801
  0.0        24.364      7.5739
  0.0        24.464      8.5586
  0.0        24.564      8.5998
  0.0        24.664      7.9701
  0.0        24.764      7.6803
  0.0        24.864      7.7944
  0.0        24.964      7.6220
  0.0        25.064      8.2068
  0.0        25.164      7.6523
  0.0        25.264      7.6315
  0.0        25.364      7.9192
  0.0        25.464      7.6404
  0.0        25.564      7.7339
  0.0        25.664      7.6690
  0.0        25.764      8.1999
  0.0        25.864      7.9796
  0.0        25.964      8.0687
  0.0        26.064      8.0244
  0.0        26.164      7.9784
  0.0        26.264      7.4762
  0.0        26.364      7.2003
  0.0        26.464      7.7858
  0.0        26.564      7.6278
  0.0        26.664      7.9249
  0.0        26.764      7.5050
  0.0        26.864      7.6224
  0.0        26.964      7.4840
  0.0        27.064      7.4649
  0.0        27.164      7.8623
  0.0        27.264      7.5969
  0.0        27.364      7.7714
  0.0        27.464      7.0460
  0.0        27.564      7.2294
  0.0        27.664      7.7139
  0.0        27.764      7.7490
  0.0        27.864      7.5592
  0.0        27.964      7.1090
  0.0        28.064      7.0894
  0.0        28.164      7.4101
  0.0        28.264      7.5271
  0.0        28.364      7.3726
  0.0        28.464      7.3378
  0.0        28.564      7.5986
  0.0        28.664      7.0341
  0.0        28.764      7.6807
  0.0        28.864      7.5759
  0.0        28.964      7.3683
  0.0        29.064      7.5307
  0.0        29.164      7.5848
  0.0        29.264      7.6000
  0.0        29.364      7.5735
  0.0        29.464      7.4903
  0.0        29.564      7.2859
  0.0        29.664      7.6248
  0.0        29.764      7.3399
  0.0        29.864      7.3942
  0.0        29.964      7.7314
  0.0        30.064      7.9267
  0.0        30.164      7.5024
  0.0        30.264      7.5299
  0.0        30.364      7.5937
  0.0        30.464      6.6547
  0.0        30.564      6.9271
  0.0        30.664      5.0516
  0.0        30.764      0.8857
  2.0         0.064     1.3319
  2.0         0.164     1.4176
  2.0         0.264     1.2379
  2.0         0.364     1.0844
  2.0         0.464     0.7220
  2.0         0.564     0.4655
  2.0         0.664     0.2153
  2.0         0.764     0.1870
  2.0         0.864     0.2796
  2.0         0.964     0.2904
  2.0         1.064     0.5006
  2.0         1.164     0.9373
  2.0         1.264     0.7885
  2.0         1.364     0.7500
  2.0         1.464     1.2684
  2.0         1.564     1.0606
  2.0         1.664     1.1105
  2.0         1.764     1.1447
  2.0         1.864     0.8704
  2.0         1.964     0.9206
  2.0         2.064     0.8815
  2.0         2.164     1.1598
  2.0         2.264     1.1043
  2.0         2.364     0.8400
  2.0         2.464     0.6840
  2.0         2.564     0.7737
  2.0         2.664     0.8020
  2.0         2.764     0.8241
  2.0         2.864     0.9952
  2.0         2.964     0.9906
  2.0         3.064     1.1377
  2.0         3.164     1.0852
  2.0         3.264     0.8255
  2.0         3.364     0.9715
  2.0         3.464     0.9289
  2.0         3.564     1.1302
  2.0         3.664     1.6501
  2.0         3.764     1.2808
  2.0         3.864     1.1584
  2.0         3.964     0.9068
  2.0         4.064     1.3697
  2.0         4.164     1.0342
  2.0         4.264     1.3441
  2.0         4.364     1.5027
  2.0         4.464     1.2538
  2.0         4.564     1.2336
  2.0         4.664     1.3893
  2.0         4.764     1.3678
  2.0         4.864     1.2347
  2.0         4.964     1.0887
  2.0         5.064     1.3513
  2.0         5.164     1.2147
  2.0         5.264     1.4181
  2.0         5.364     1.4532
  2.0         5.464     1.2231
  2.0         5.564     1.4815
  2.0         5.664     1.4041
  2.0         5.764     1.3451
  2.0         5.864     1.3433
  2.0         5.964     1.5079
  2.0         6.064     1.5052
  2.0         6.164     1.3058
  2.0         6.264     1.3411
  2.0         6.364     1.2196
  2.0         6.464     1.4842
  2.0         6.564     1.5507
  2.0         6.664     1.3177
  2.0         6.764     1.2398
  2.0         6.864     1.3858
  2.0         6.964     1.1905
  2.0         7.064     1.1751
  2.0         7.164     0.9936
  2.0         7.264     1.0792
  2.0         7.364     1.4270
  2.0         7.464     1.4642
  2.0         7.564     1.4524
  2.0         7.664     1.4780
  2.0         7.764     1.2314
  2.0         7.864     1.6057
  2.0         7.964     1.3352
  2.0         8.064     1.5062
  2.0         8.164     1.5014
  2.0         8.264     1.5380
  2.0         8.364     1.6321
  2.0         8.464     1.7433
  2.0         8.564     1.7317
  2.0         8.664     1.3468
  2.0         8.764     1.5749
  2.0         8.864     1.6210
  2.0         8.964     1.9077
  2.0         9.064     1.6175
  2.0         9.164     1.8020
  2.0         9.264     1.6905
  2.0         9.364     1.9408
  2.0         9.464     1.8702
  2.0         9.564     2.1547
  2.0         9.664     2.2493
  2.0         9.764     2.2328
  2.0         9.864     2.0728
  2.0         9.964     2.2107
  2.0        10.064     2.0906
  2.0        10.164     1.8947
  2.0        10.264     2.3201
  2.0        10.364     2.3468
  2.0        10.464     2.5949
  2.0        10.564     2.5241
  2.0        10.664     2.0860
  2.0        10.764     2.6348
  2.0        10.864     2.5750
  2.0        10.964     2.6499
  2.0        11.064     3.0149
  2.0        11.164     2.7574
  2.0        11.264     3.5435
  2.0        11.364     2.7598
  2.0        11.464     3.1790
  2.0        11.564     3.5446
  2.0        11.664     3.3921
  2.0        11.764     3.7148
  2.0        11.864     3.4268
  2.0        11.964     4.6160
  2.0        12.064     6.6691
  2.0        12.164    11.2361
  2.0        12.264     9.8451
  2.0        12.364     7.0355
  2.0        12.464     4.8415
  2.0        12.564     4.8778
  2.0        12.664     4.8959
  2.0        12.764     4.7935
  2.0        12.864     4.8215
  2.0        12.964     4.8043
  2.0        13.064     5.0282
  2.0        13.164     4.5998
  2.0        13.264     5.6419
  2.0        13.364     5.4972
  2.0        13.464     5.6028
  2.0        13.564     5.6626
  2.0        13.664     6.4673
  2.0        13.764     5.5745
  2.0        13.864     5.4172
  2.0        13.964     5.7119
  2.0        14.064     6.4927
  2.0        14.164     6.0740
  2.0        14.264     5.6645
  2.0        14.364     6.4129
  2.0        14.464     6.2537
  2.0        14.564     6.2408
  2.0        14.664     6.3776
  2.0        14.764     6.1066
  2.0        14.864     6.1559
  2.0        14.964     6.1015
  2.0        15.064     6.9383
  2.0        15.164     6.4002
  2.0        15.264     6.3911
  2.0        15.364     7.1667
  2.0        15.464     6.8669
  2.0        15.564     6.2884
  2.0        15.664     6.7952
  2.0        15.764     6.4420
  2.0        15.864     6.7626
  2.0        15.964     6.9832
  2.0        16.064     6.3291
  2.0        16.164     7.4348
  2.0        16.264     6.7553
  2.0        16.364     6.8052
  2.0        16.464     7.1600
  2.0        16.564     7.1511
  2.0        16.664     7.0573
  2.0        16.764     7.0094
  2.0        16.864     7.3429
  2.0        16.964     7.2712
  2.0        17.064     6.9180
  2.0        17.164     7.2031
  2.0        17.264     6.7408
  2.0        17.364     7.1532
  2.0        17.464     8.0215
  2.0        17.564     7.9488
  2.0        17.664     7.9954
  2.0        17.764     8.1471
  2.0        17.864     8.3542
  2.0        17.964     8.8367
  2.0        18.064     8.2608
  2.0        18.164     7.2446
  2.0        18.264     8.1662
  2.0        18.364     8.1411
  2.0        18.464     8.1428
  2.0        18.564     7.6786
  2.0        18.664     8.5358
  2.0        18.764     8.5482
  2.0        18.864     8.1080
  2.0        18.964     8.1236
  2.0        19.064     9.2479
  2.0        19.164     9.1328
  2.0        19.264     8.5237
  2.0        19.364     8.6355
  2.0        19.464     8.5927
  2.0        19.564     8.5789
  2.0        19.664     8.3815
  2.0        19.764     8.5579
  2.0        19.864     8.9337
  2.0        19.964     9.4480
  2.0        20.064     9.1813
  2.0        20.164     9.1167
  2.0        20.264     9.3578
  2.0        20.364     8.9116
  2.0        20.464     8.7818
  2.0        20.564     9.1288
  2.0        20.664     9.3478
  2.0        20.764     8.9846
  2.0        20.864     9.1748
  2.0        20.964     8.8661
  2.0        21.064     9.2058
  2.0        21.164     9.2729
  2.0        21.264    10.2371
  2.0        21.364     9.4655
  2.0        21.464     9.7697
  2.0        21.564     9.6417
  2.0        21.664     9.3481
  2.0        21.764     9.8521
  2.0        21.864     9.8982
  2.0        21.964     9.3190
  2.0        22.064     9.6320
  2.0        22.164     9.0787
  2.0        22.264     9.8069
  2.0        22.364     9.3335
  2.0        22.464     9.3176
  2.0        22.564     9.6027
  2.0        22.664     8.9655
  2.0        22.764     9.2546
  2.0        22.864     9.3869
  2.0        22.964     9.5897
  2.0        23.064     9.4262
  2.0        23.164     9.1000
  2.0        23.264     8.3823
  2.0        23.364     9.2495
  2.0        23.464     8.8028
  2.0        23.564     9.2662
  2.0        23.664     9.6732
  2.0        23.764     8.9523
  2.0        23.864     9.2196
  2.0        23.964     8.8408
  2.0        24.064     8.7419
  2.0        24.164     8.3930
  2.0        24.264     8.2400
  2.0        24.364     8.6711
  2.0        24.464     8.1387
  2.0        24.564     8.3895
  2.0        24.664     7.9189
  2.0        24.764     8.7802
  2.0        24.864     8.6956
  2.0        24.964     7.3739
  2.0        25.064     8.0199
  2.0        25.164     8.4849
  2.0        25.264     7.9579
  2.0        25.364     8.4240
  2.0        25.464     8.3839
  2.0        25.564     8.3265
  2.0        25.664     7.9399
  2.0        25.764     8.1659
  2.0        25.864     7.6848
  2.0        25.964     8.4658
  2.0        26.064     7.7653
  2.0        26.164     8.4402
  2.0        26.264     6.8838
  2.0        26.364     7.2537
  2.0        26.464     8.1958
  2.0        26.564     8.1783
  2.0        26.664     8.2589
  2.0        26.764     8.2187
  2.0        26.864     7.9792
  2.0        26.964     8.1247
  2.0        27.064     7.2184
  2.0        27.164     7.9030
  2.0        27.264     7.7532
  2.0        27.364     7.6398
  2.0        27.464     7.7026
  2.0        27.564     8.2284
  2.0        27.664     7.0827
  2.0        27.764     7.3224
  2.0        27.864     7.3515
  2.0        27.964     7.6075
  2.0        28.064     8.2047
  2.0        28.164     7.3203
  2.0        28.264     8.2508
  2.0        28.364     7.1128
  2.0        28.464     7.0358
  2.0        28.564     7.5172
  2.0        28.664     7.2836
  2.0        28.764     8.0724
  2.0        28.864     7.7120
  2.0        28.964     8.0140
  2.0        29.064     7.2025
  2.0        29.164     7.3170
  2.0        29.264     7.4450
  2.0        29.364     6.8391
  2.0        29.464     8.0851
  2.0        29.564     7.5439
  2.0        29.664     7.4884
  2.0        29.764     7.2710
  2.0        29.864     7.3213
  2.0        29.964     8.0759
  2.0        30.064     7.3499
  2.0        30.164     8.0522
  2.0        30.264     7.3865
  2.0        30.364     8.1153
  2.0        30.464     7.5899
  2.0        30.564     6.7715
  2.0        30.664     7.2093
  2.0        30.764     7.5285
  2.0        30.864     7.4253
  2.0        30.964     5.3962
  2.0        31.064     0.8255
ENDDATA            621
ENDSUBENT          629
SUBENT        C0806003   20010517   20010702   20050926       0000
BIB                  2          3
REACTION   (50-SN-124(HE3,T)51-SB-124,,DA/DE)
            High magnetic filed run.
ERR-ANALYS No uncertainties given (small).
ENDBIB               3
NOCOMMON             0          0
DATA                 3        597
ANG        E-EXC      DATA
ADEG       MEV        MB/SR/MEV
  0.0        19.36       2.3103
  0.0        19.46       7.6806
  0.0        19.56       7.9701
  0.0        19.66       8.4181
  0.0        19.76       8.0214
  0.0        19.86       8.4551
  0.0        19.96       7.7114
  0.0        20.06       7.9324
  0.0        20.16       7.8154
  0.0        20.26       7.9423
  0.0        20.36       7.8158
  0.0        20.46       8.1764
  0.0        20.56       8.2120
  0.0        20.66       8.1876
  0.0        20.76       9.0038
  0.0        20.86       8.3665
  0.0        20.96       8.1232
  0.0        21.06       8.4817
  0.0        21.16       8.1251
  0.0        21.26       8.2386
  0.0        21.36       8.5114
  0.0        21.46       8.5459
  0.0        21.56       8.8227
  0.0        21.66       9.0565
  0.0        21.76       8.4615
  0.0        21.86       9.0479
  0.0        21.96       8.4894
  0.0        22.06       8.8648
  0.0        22.16       8.6873
  0.0        22.26       8.6787
  0.0        22.36       8.3359
  0.0        22.46       8.6027
  0.0        22.56       8.7469
  0.0        22.66       8.5315
  0.0        22.76       8.9049
  0.0        22.86       8.4731
  0.0        22.96       8.8837
  0.0        23.06       8.3587
  0.0        23.16       9.2378
  0.0        23.26       8.5233
  0.0        23.36       8.3889
  0.0        23.46       8.2619
  0.0        23.56       8.1542
  0.0        23.66       8.2996
  0.0        23.76       8.4447
  0.0        23.86       8.9364
  0.0        23.96       8.4553
  0.0        24.06       8.6065
  0.0        24.16       8.1398
  0.0        24.26       8.6829
  0.0        24.36       8.3186
  0.0        24.46       8.2083
  0.0        24.56       8.4066
  0.0        24.66       8.2308
  0.0        24.76       8.0489
  0.0        24.86       8.2544
  0.0        24.96       8.9233
  0.0        25.06       8.0640
  0.0        25.16       7.9598
  0.0        25.26       7.4969
  0.0        25.36       8.2056
  0.0        25.46       7.6864
  0.0        25.56       7.8287
  0.0        25.66       8.1272
  0.0        25.76       7.5893
  0.0        25.86       7.6990
  0.0        25.96       7.8664
  0.0        26.06       8.2792
  0.0        26.16       8.1938
  0.0        26.26       8.0656
  0.0        26.36       7.5911
  0.0        26.46       7.9310
  0.0        26.56       7.9373
  0.0        26.66       7.7476
  0.0        26.76       7.6851
  0.0        26.86       7.7932
  0.0        26.96       7.3768
  0.0        27.06       7.7994
  0.0        27.16       8.0194
  0.0        27.26       8.0252
  0.0        27.36       7.7695
  0.0        27.46       7.4435
  0.0        27.56       7.5282
  0.0        27.66       7.8063
  0.0        27.76       7.7063
  0.0        27.86       7.5355
  0.0        27.96       7.4896
  0.0        28.06       7.4617
  0.0        28.16       7.4520
  0.0        28.26       7.8983
  0.0        28.36       7.4704
  0.0        28.46       7.5754
  0.0        28.56       7.0493
  0.0        28.66       7.8428
  0.0        28.76       7.5530
  0.0        28.86       7.2574
  0.0        28.96       7.1874
  0.0        29.06       7.2530
  0.0        29.16       7.6408
  0.0        29.26       8.0091
  0.0        29.36       7.6589
  0.0        29.46       7.3645
  0.0        29.56       7.5207
  0.0        29.66       7.3545
  0.0        29.76       7.8039
  0.0        29.86       7.3831
  0.0        29.96       7.6846
  0.0        30.06       7.7976
  0.0        30.16       7.8435
  0.0        30.26       7.3053
  0.0        30.36       7.7730
  0.0        30.46       7.2998
  0.0        30.56       7.5000
  0.0        30.66       7.4433
  0.0        30.76       7.3365
  0.0        30.86       7.6292
  0.0        30.96       7.1763
  0.0        31.06       7.4229
  0.0        31.16       7.1542
  0.0        31.26       7.6290
  0.0        31.36       7.1469
  0.0        31.46       7.2058
  0.0        31.56       7.4187
  0.0        31.66       6.9893
  0.0        31.76       7.3868
  0.0        31.86       7.1524
  0.0        31.96       7.4127
  0.0        32.06       7.1278
  0.0        32.16       7.2865
  0.0        32.26       7.1856
  0.0        32.36       7.3532
  0.0        32.46       7.3476
  0.0        32.56       7.0755
  0.0        32.66       6.8759
  0.0        32.76       7.0263
  0.0        32.86       7.1608
  0.0        32.96       7.0135
  0.0        33.06       7.3644
  0.0        33.16       7.3035
  0.0        33.26       7.2876
  0.0        33.36       7.1010
  0.0        33.46       7.5369
  0.0        33.56       7.1254
  0.0        33.66       6.9454
  0.0        33.76       6.7278
  0.0        33.86       7.0507
  0.0        33.96       6.9678
  0.0        34.06       7.0629
  0.0        34.16       7.2552
  0.0        34.26       7.1411
  0.0        34.36       6.7595
  0.0        34.46       7.3567
  0.0        34.56       7.0835
  0.0        34.66       6.8564
  0.0        34.76       6.9607
  0.0        34.86       6.6902
  0.0        34.96       6.7012
  0.0        35.06       6.4427
  0.0        35.16       6.9982
  0.0        35.26       6.5386
  0.0        35.36       6.8109
  0.0        35.46       6.9388
  0.0        35.56       6.8320
  0.0        35.66       6.4242
  0.0        35.76       6.3456
  0.0        35.86       6.5692
  0.0        35.96       6.7989
  0.0        36.06       6.3704
  0.0        36.16       6.5269
  0.0        36.26       6.3527
  0.0        36.36       6.5233
  0.0        36.46       6.6133
  0.0        36.56       6.5515
  0.0        36.66       6.3452
  0.0        36.76       6.8386
  0.0        36.86       6.5783
  0.0        36.96       6.3897
  0.0        37.06       6.5441
  0.0        37.16       6.5282
  0.0        37.26       6.3327
  0.0        37.36       6.4533
  0.0        37.46       6.3478
  0.0        37.56       6.8985
  0.0        37.66       6.2441
  0.0        37.76       6.4921
  0.0        37.86       6.2641
  0.0        37.96       6.1346
  0.0        38.06       6.3234
  0.0        38.16       6.0839
  0.0        38.26       5.9199
  0.0        38.36       6.3921
  0.0        38.46       6.0959
  0.0        38.56       6.1247
  0.0        38.66       6.3472
  0.0        38.76       6.2452
  0.0        38.86       6.2202
  0.0        38.96       6.0502
  0.0        39.06       6.0567
  0.0        39.16       6.0970
  0.0        39.26       6.0928
  0.0        39.36       6.3503
  0.0        39.46       6.2474
  0.0        39.56       6.2937
  0.0        39.66       6.0881
  0.0        39.76       5.8947
  0.0        39.86       5.8295
  0.0        39.96       6.0035
  0.0        40.06       6.2973
  0.0        40.16       6.2239
  0.0        40.26       6.5377
  0.0        40.36       5.9731
  0.0        40.46       5.9141
  0.0        40.56       6.6323
  0.0        40.66       5.8701
  0.0        40.76       5.8047
  0.0        40.86       5.9243
  0.0        40.96       6.0252
  0.0        41.06       6.0276
  0.0        41.16       6.0269
  0.0        41.26       6.0188
  0.0        41.36       6.0487
  0.0        41.46       6.0775
  0.0        41.56       6.7939
  0.0        41.66       5.8971
  0.0        41.76       5.8709
  0.0        41.86       6.1739
  0.0        41.96       6.0008
  0.0        42.06       6.0728
  0.0        42.16       5.9722
  0.0        42.26       5.7160
  0.0        42.36       6.3582
  0.0        42.46       6.0872
  0.0        42.56       6.0690
  0.0        42.66       6.0560
  0.0        42.76       5.5893
  0.0        42.86       5.5295
  0.0        42.96       5.5359
  0.0        43.06       6.0551
  0.0        43.16       5.9953
  0.0        43.26       5.5412
  0.0        43.36       5.6837
  0.0        43.46       6.0157
  0.0        43.56       5.6288
  0.0        43.66       6.2208
  0.0        43.76       5.5007
  0.0        43.86       5.8455
  0.0        43.96       6.0593
  0.0        44.06       5.4993
  0.0        44.16       5.8297
  0.0        44.26       5.7353
  0.0        44.36       5.9135
  0.0        44.46       5.3309
  0.0        44.56       5.8415
  0.0        44.66       5.5527
  0.0        44.76       5.7192
  0.0        44.86       5.8794
  0.0        44.96       5.4116
  0.0        45.06       5.3801
  0.0        45.16       5.3888
  0.0        45.26       5.1164
  0.0        45.36       5.7591
  0.0        45.46       5.7590
  0.0        45.56       5.2811
  0.0        45.66       5.5049
  0.0        45.76       5.6341
  0.0        45.86       5.8918
  0.0        45.96       5.7129
  0.0        46.06       5.5260
  0.0        46.16       5.3784
  0.0        46.26       5.3232
  0.0        46.36       5.4023
  0.0        46.46       4.7256
  0.0        46.56       4.8211
  0.0        46.66       5.7347
  0.0        46.76       5.1211
  0.0        46.86       5.4508
  0.0        46.96       5.5658
  0.0        47.06       5.4976
  0.0        47.16       5.4480
  0.0        47.26       5.2330
  0.0        47.36       5.6591
  0.0        47.46       5.1763
  0.0        47.56       5.6270
  0.0        47.66       5.1827
  0.0        47.76       5.7172
  0.0        47.86       4.3639
  0.0        47.96       5.0489
  0.0        48.06       5.0491
  0.0        48.16       4.6385
  0.0        48.26       4.6465
  0.0        48.36       5.2292
  0.0        48.46       5.2663
  0.0        48.56       4.9511
  0.0        48.66       4.9698
  0.0        48.76       4.6704
  0.0        48.86       5.4408
  0.0        48.96       4.8534
  0.0        49.06       3.1523
  0.0        49.16       0.2263
  2.0        19.66       1.9040
  2.0        19.76       7.6805
  2.0        19.86       8.1605
  2.0        19.96       8.0334
  2.0        20.06       8.5658
  2.0        20.16       8.3767
  2.0        20.26       8.5437
  2.0        20.36       8.7291
  2.0        20.46       8.7874
  2.0        20.56       8.8218
  2.0        20.66       8.9460
  2.0        20.76       9.2494
  2.0        20.86       9.3093
  2.0        20.96       9.7929
  2.0        21.06       9.3180
  2.0        21.16       9.6206
  2.0        21.26       9.1634
  2.0        21.36       9.3998
  2.0        21.46       9.5941
  2.0        21.56       9.9803
  2.0        21.66      10.0507
  2.0        21.76       9.7550
  2.0        21.86       9.9803
  2.0        21.96       9.6846
  2.0        22.06       9.6363
  2.0        22.16       9.7634
  2.0        22.26      10.0613
  2.0        22.36       9.5143
  2.0        22.46       9.6920
  2.0        22.56       9.7327
  2.0        22.66       9.1130
  2.0        22.76       9.6370
  2.0        22.86       9.4789
  2.0        22.96       9.8467
  2.0        23.06       9.8725
  2.0        23.16       9.7830
  2.0        23.26       9.8013
  2.0        23.36       9.0360
  2.0        23.46       9.2912
  2.0        23.56       8.7142
  2.0        23.66       9.1807
  2.0        23.76       9.2756
  2.0        23.86       9.0803
  2.0        23.96       8.8996
  2.0        24.06       9.4110
  2.0        24.16       9.3076
  2.0        24.26       8.7596
  2.0        24.36       9.0243
  2.0        24.46       8.6872
  2.0        24.56       8.9879
  2.0        24.66       8.5489
  2.0        24.76       8.7574
  2.0        24.86       8.7465
  2.0        24.96       8.5968
  2.0        25.06       8.3829
  2.0        25.16       8.8942
  2.0        25.26       7.7679
  2.0        25.36       8.2865
  2.0        25.46       8.1722
  2.0        25.56       8.1457
  2.0        25.66       8.1863
  2.0        25.76       8.4433
  2.0        25.86       8.1618
  2.0        25.96       7.8061
  2.0        26.06       8.2530
  2.0        26.16       8.2329
  2.0        26.26       8.9467
  2.0        26.36       7.8800
  2.0        26.46       7.8049
  2.0        26.56       8.1162
  2.0        26.66       8.0612
  2.0        26.76       7.9457
  2.0        26.86       7.9174
  2.0        26.96       7.2633
  2.0        27.06       7.9831
  2.0        27.16       7.9593
  2.0        27.26       7.9015
  2.0        27.36       7.9536
  2.0        27.46       7.7821
  2.0        27.56       7.7419
  2.0        27.66       7.9172
  2.0        27.76       7.8354
  2.0        27.86       7.8031
  2.0        27.96       7.5456
  2.0        28.06       7.7808
  2.0        28.16       7.7937
  2.0        28.26       7.8728
  2.0        28.36       7.7625
  2.0        28.46       8.4029
  2.0        28.56       7.5117
  2.0        28.66       8.0892
  2.0        28.76       8.1447
  2.0        28.86       7.8188
  2.0        28.96       7.4480
  2.0        29.06       7.7102
  2.0        29.16       7.6621
  2.0        29.26       7.2923
  2.0        29.36       7.7112
  2.0        29.46       7.6951
  2.0        29.56       7.7826
  2.0        29.66       7.6130
  2.0        29.76       7.5409
  2.0        29.86       7.3568
  2.0        29.96       7.9856
  2.0        30.06       7.6807
  2.0        30.16       7.9511
  2.0        30.26       7.3776
  2.0        30.36       7.9090
  2.0        30.46       7.9747
  2.0        30.56       7.5144
  2.0        30.66       7.7186
  2.0        30.76       7.7813
  2.0        30.86       7.6066
  2.0        30.96       7.4187
  2.0        31.06       7.8901
  2.0        31.16       7.7969
  2.0        31.26       7.3377
  2.0        31.36       7.4948
  2.0        31.46       7.8710
  2.0        31.56       7.5136
  2.0        31.66       7.1855
  2.0        31.76       7.4041
  2.0        31.86       7.2670
  2.0        31.96       7.0187
  2.0        32.06       6.7401
  2.0        32.16       7.7298
  2.0        32.26       7.2680
  2.0        32.36       7.6217
  2.0        32.46       7.3454
  2.0        32.56       7.7751
  2.0        32.66       7.4537
  2.0        32.76       8.0106
  2.0        32.86       7.0301
  2.0        32.96       7.2152
  2.0        33.06       7.3994
  2.0        33.16       7.2864
  2.0        33.26       7.5997
  2.0        33.36       7.0274
  2.0        33.46       7.3778
  2.0        33.56       7.1575
  2.0        33.66       7.5265
  2.0        33.76       7.0740
  2.0        33.86       7.4254
  2.0        33.96       6.8053
  2.0        34.06       7.0925
  2.0        34.16       6.8325
  2.0        34.26       7.1000
  2.0        34.36       6.8928
  2.0        34.46       7.5964
  2.0        34.56       7.3382
  2.0        34.66       6.9515
  2.0        34.76       7.0873
  2.0        34.86       6.9208
  2.0        34.96       7.3530
  2.0        35.06       6.7832
  2.0        35.16       7.4172
  2.0        35.26       6.6278
  2.0        35.36       7.0160
  2.0        35.46       6.5242
  2.0        35.56       6.9823
  2.0        35.66       6.8083
  2.0        35.76       6.6060
  2.0        35.86       6.9138
  2.0        35.96       6.9528
  2.0        36.06       6.8633
  2.0        36.16       6.9461
  2.0        36.26       7.0960
  2.0        36.36       6.6496
  2.0        36.46       6.8757
  2.0        36.56       6.3039
  2.0        36.66       6.7644
  2.0        36.76       7.2869
  2.0        36.86       6.7627
  2.0        36.96       6.6427
  2.0        37.06       6.6633
  2.0        37.16       6.5406
  2.0        37.26       6.8816
  2.0        37.36       6.7188
  2.0        37.46       6.8482
  2.0        37.56       6.7017
  2.0        37.66       6.7874
  2.0        37.76       6.9369
  2.0        37.86       6.3190
  2.0        37.96       6.1700
  2.0        38.06       6.2412
  2.0        38.16       6.2362
  2.0        38.26       5.8674
  2.0        38.36       6.3128
  2.0        38.46       6.2610
  2.0        38.56       6.8249
  2.0        38.66       6.6529
  2.0        38.76       6.8216
  2.0        38.86       6.5864
  2.0        38.96       6.9168
  2.0        39.06       6.1138
  2.0        39.16       6.4219
  2.0        39.26       6.3772
  2.0        39.36       6.3522
  2.0        39.46       6.4300
  2.0        39.56       5.7420
  2.0        39.66       6.7971
  2.0        39.76       6.1683
  2.0        39.86       6.2888
  2.0        39.96       6.4333
  2.0        40.06       6.8987
  2.0        40.16       6.4511
  2.0        40.26       6.1167
  2.0        40.36       6.7304
  2.0        40.46       6.3502
  2.0        40.56       6.5490
  2.0        40.66       6.5847
  2.0        40.76       6.3706
  2.0        40.86       6.3264
  2.0        40.96       6.8073
  2.0        41.06       6.2206
  2.0        41.16       6.4751
  2.0        41.26       6.8549
  2.0        41.36       6.8392
  2.0        41.46       5.9029
  2.0        41.56       6.3366
  2.0        41.66       6.2360
  2.0        41.76       6.7076
  2.0        41.86       6.3420
  2.0        41.96       6.2744
  2.0        42.06       6.0013
  2.0        42.16       6.4355
  2.0        42.26       6.1671
  2.0        42.36       6.2783
  2.0        42.46       5.6359
  2.0        42.56       6.4082
  2.0        42.66       6.6127
  2.0        42.76       6.1093
  2.0        42.86       6.2099
  2.0        42.96       6.0560
  2.0        43.06       6.3477
  2.0        43.16       6.0773
  2.0        43.26       6.6823
  2.0        43.36       6.2176
  2.0        43.46       6.7537
  2.0        43.56       5.5197
  2.0        43.66       6.0141
  2.0        43.76       6.5778
  2.0        43.86       6.5056
  2.0        43.96       5.5772
  2.0        44.06       5.8077
  2.0        44.16       5.9140
  2.0        44.26       5.5692
  2.0        44.36       5.7752
  2.0        44.46       6.4970
  2.0        44.56       5.3239
  2.0        44.66       5.7760
  2.0        44.76       5.8126
  2.0        44.86       6.4342
  2.0        44.96       5.3606
  2.0        45.06       5.2552
  2.0        45.16       6.2070
  2.0        45.26       6.1542
  2.0        45.36       5.3147
  2.0        45.46       6.5173
  2.0        45.56       6.0092
  2.0        45.66       5.2327
  2.0        45.76       5.4166
  2.0        45.86       6.5170
  2.0        45.96       5.9631
  2.0        46.06       5.9507
  2.0        46.16       5.5727
  2.0        46.26       5.5514
  2.0        46.36       6.4196
  2.0        46.46       5.3514
  2.0        46.56       5.8486
  2.0        46.66       6.0597
  2.0        46.76       6.3582
  2.0        46.86       5.5147
  2.0        46.96       5.7978
  2.0        47.06       5.5861
  2.0        47.16       5.8426
  2.0        47.26       5.5824
  2.0        47.36       5.8786
  2.0        47.46       5.8786
  2.0        47.56       6.4461
  2.0        47.66       5.6981
  2.0        47.76       6.3148
  2.0        47.86       6.0221
  2.0        47.96       5.6781
  2.0        48.06       5.7616
  2.0        48.16       5.7484
  2.0        48.26       6.1227
  2.0        48.36       5.6907
  2.0        48.46       6.4521
  2.0        48.56       6.0763
  2.0        48.66       6.3854
  2.0        48.76       5.7299
  2.0        48.86       5.6989
  2.0        48.96       5.4128
  2.0        49.06       5.2798
  2.0        49.16       5.1013
  2.0        49.26       6.0124
  2.0        49.36       1.5590
ENDDATA            599
ENDSUBENT          607
SUBENT        C0806004   20050201              20050926       0000
BIB                  3          5
REACTION   (50-SN-124(HE3,T+N)51-SB-123,SEQ,DA/DA/DE,T/N/RSD)
            Low magnetic field run.
            ANG2 is mean angle of neutron detector.
ERR-ANALYS (ERR-S) Statistical uncertainty given.
HISTORY    (20040921A) Comment corrected.
ENDBIB               5
COMMON               1          3
ANG2
ADEG
110.
ENDCOMMON            3
DATA                 4         50
ANG1       Q-VAL      DATA       ERR-S
ADEG       MEV        MB/SR2/MEV MB/SR2/MEV
  0.0         7.9      1.8101E-01 5.4302E-03
  0.0         8.9      2.7195E-01 8.1584E-03
  0.0         9.9      1.8771E-01 5.6313E-03
  0.0        10.9      2.8812E-01 8.6435E-03
  0.0        11.9      3.6657E-01 1.0997E-02
  0.0        12.9      1.0026E+00 3.0078E-02
  0.0        13.9      5.6945E-01 1.7083E-02
  0.0        14.9      5.4030E-01 1.6209E-02
  0.0        15.9      4.6641E-01 1.3992E-02
  0.0        16.9      4.3808E-01 1.3142E-02
  0.0        17.9      3.9062E-01 1.1719E-02
  0.0        18.9      4.0673E-01 1.2202E-02
  0.0        19.9      4.1676E-01 1.2503E-02
  0.0        20.9      4.4539E-01 1.3362E-02
  0.0        21.9      4.4475E-01 1.3342E-02
  0.0        22.9      4.2099E-01 1.2630E-02
  0.0        23.9      4.0147E-01 1.2044E-02
  0.0        24.9      3.9371E-01 1.1811E-02
  0.0        25.9      3.7155E-01 1.1147E-02
  0.0        26.9      3.5378E-01 1.0613E-02
  0.0        27.9      3.4098E-01 1.0229E-02
  0.0        28.9      3.0055E-01 9.0164E-03
  0.0        29.9      2.8625E-01 8.5876E-03
  0.0        30.9      2.2684E-01 6.8051E-03
  0.0        31.9      4.4348E-03 1.3304E-04
  2.0         7.9      1.8048E-01 5.4144E-03
  2.0         8.9      1.5162E-01 4.5486E-03
  2.0         9.9      1.3410E-01 4.0231E-03
  2.0        10.9      1.7897E-01 5.3690E-03
  2.0        11.9      2.5818E-01 7.7454E-03
  2.0        12.9      4.3559E-01 1.3068E-02
  2.0        13.9      3.9172E-01 1.1751E-02
  2.0        14.9      4.8294E-01 1.4488E-02
  2.0        15.9      4.4651E-01 1.3395E-02
  2.0        16.9      3.5161E-01 1.0548E-02
  2.0        17.9      4.0739E-01 1.2222E-02
  2.0        18.9      4.7290E-01 1.4187E-02
  2.0        19.9      4.5828E-01 1.3748E-02
  2.0        20.9      5.0282E-01 1.5085E-02
  2.0        21.9      4.5188E-01 1.3557E-02
  2.0        22.9      4.6807E-01 1.4042E-02
  2.0        23.9      4.5933E-01 1.3780E-02
  2.0        24.9      3.8944E-01 1.1683E-02
  2.0        25.9      3.7379E-01 1.1214E-02
  2.0        26.9      3.4671E-01 1.0401E-02
  2.0        27.9      2.9177E-01 8.7532E-03
  2.0        28.9      3.2564E-01 9.7693E-03
  2.0        29.9      2.8584E-01 8.5751E-03
  2.0        30.9      3.0048E-01 9.0143E-03
  2.0        31.9      4.2892E-02 1.2868E-03
ENDDATA             52
ENDSUBENT           66
SUBENT        C0806005   20050201              20050926       0000
BIB                  3          5
REACTION   (50-SN-124(HE3,T+N)51-SB-123,SEQ,DA/DA/DE,T/N/RSD)
            High magnetic field run.
            ANG2 is mean angle of neutron detector.
ERR-ANALYS (ERR-S) Statistical uncertainty given.
HISTORY    (20040921A) Comment corrected.
ENDBIB               5
COMMON               1          3
ANG2
ADEG
110.
ENDCOMMON            3
DATA                 4         62
ANG1       Q-VAL      DATA       ERR-S
ADEG       MEV        MB/SR2/MEV MB/SR2/MEV
  0.0        19.9      1.9321E-01 5.7964E-03
  0.0        20.9      4.0290E-01 1.2087E-02
  0.0        21.9      4.2257E-01 1.2677E-02
  0.0        22.9      4.3711E-01 1.3113E-02
  0.0        23.9      3.9896E-01 1.1969E-02
  0.0        24.9      3.6767E-01 1.1030E-02
  0.0        25.9      3.4852E-01 1.0456E-02
  0.0        26.9      3.3931E-01 1.0179E-02
  0.0        27.9      3.0875E-01 9.2625E-03
  0.0        28.9      3.0003E-01 9.0008E-03
  0.0        29.9      2.8592E-01 8.5775E-03
  0.0        30.9      3.0084E-01 9.0253E-03
  0.0        31.9      2.8641E-01 8.5922E-03
  0.0        32.9      2.7290E-01 8.1871E-03
  0.0        33.9      2.7844E-01 8.3533E-03
  0.0        34.9      2.4635E-01 7.3906E-03
  0.0        35.9      2.3457E-01 7.0370E-03
  0.0        36.9      2.4036E-01 7.2109E-03
  0.0        37.9      2.3775E-01 7.1324E-03
  0.0        38.9      2.1660E-01 6.4981E-03
  0.0        39.9      2.2003E-01 6.6008E-03
  0.0        40.9      2.0827E-01 6.2481E-03
  0.0        41.9      1.9301E-01 5.7902E-03
  0.0        42.9      1.8261E-01 5.4784E-03
  0.0        43.9      1.7897E-01 5.3692E-03
  0.0        44.9      1.8065E-01 5.4195E-03
  0.0        45.9      1.7818E-01 5.3455E-03
  0.0        46.9      1.6930E-01 5.0790E-03
  0.0        47.9      1.6824E-01 5.0471E-03
  0.0        48.9      1.4200E-01 4.2599E-03
  0.0        49.9      4.0698E-02 1.2210E-03
  2.0        19.9      6.8820E-02 2.0646E-03
  2.0        20.9      4.4655E-01 1.3397E-02
  2.0        21.9      5.0198E-01 1.5059E-02
  2.0        22.9      4.8367E-01 1.4510E-02
  2.0        23.9      4.5289E-01 1.3587E-02
  2.0        24.9      4.0496E-01 1.2149E-02
  2.0        25.9      3.4549E-01 1.0365E-02
  2.0        26.9      3.3110E-01 9.9331E-03
  2.0        27.9      3.2345E-01 9.7034E-03
  2.0        28.9      2.9352E-01 8.8056E-03
  2.0        29.9      3.0152E-01 9.0455E-03
  2.0        30.9      2.8991E-01 8.6972E-03
  2.0        31.9      2.7857E-01 8.3570E-03
  2.0        32.9      2.7261E-01 8.1784E-03
  2.0        33.9      2.6563E-01 7.9690E-03
  2.0        34.9      2.6345E-01 7.9035E-03
  2.0        35.9      2.4047E-01 7.2141E-03
  2.0        36.9      2.4200E-01 7.2601E-03
  2.0        37.9      2.2907E-01 6.8720E-03
  2.0        38.9      2.2620E-01 6.7861E-03
  2.0        39.9      2.0715E-01 6.2144E-03
  2.0        40.9      2.0879E-01 6.2638E-03
  2.0        41.9      2.0482E-01 6.1447E-03
  2.0        42.9      1.9670E-01 5.9009E-03
  2.0        43.9      1.7947E-01 5.3841E-03
  2.0        44.9      1.8584E-01 5.5751E-03
  2.0        45.9      1.7243E-01 5.1728E-03
  2.0        46.9      1.6513E-01 4.9539E-03
  2.0        47.9      1.6951E-01 5.0852E-03
  2.0        48.9      1.6701E-01 5.0102E-03
  2.0        49.9      6.8799E-02 2.0640E-03
ENDDATA             64
ENDSUBENT           78
ENDENTRY             5
