ENTRY            22607   20050920   20060202                  2174
SUBENT        22607001   20050920   20060202                  2174
BIB                 10         18
INSTITUTE  (2ZZZGEL)
REFERENCE  (C,78HARWELL,,701,197809)
AUTHOR     (P.STAVELOZ,E.CORNELIS,L.MEWISSEN,F.POORTMANS,
            G.ROHR,R.SHELLEY,T.VAN DER VEEN)
TITLE      Neutron Resonance Parameters of Pd-105 and Pd-108.
FACILITY   (LINAC) Cbnm Linac,Euratom,Geel
METHOD     (TOF) Time of Flight
DETECTOR   (HE3SP) Helium-3 Gas Scintillators For Transmission
            And Scattering.
           Liquid Deuterated Benzene Detector Used For Capture
            Measurements.
ERR-ANALYS (ERR-S) Quoted Errors Due to Statistics.
           (ERR-1)  4% Systematic Uncertainty not Included.
STATUS     (PRELM)  By the authors
           (COREL,21684001)
HISTORY    (19790531C)  Compiled NNDC
           (19991217T)  Converted by S.M.
           (20050920A)  Restored by SM
ENDBIB              18
COMMON               1          3
ERR-1
PER-CENT
4.
ENDCOMMON            3
ENDSUBENT           25
SUBENT        22607002   20050920   20060202                  2174
BIB                  4         11
REACTION  1(46-PD-108(N,0),,EN)
          2(46-PD-108(N,EL),,WID,,2G)
          3(46-PD-108(N,G),,WID)
          4(46-PD-108(N,0),,L)
ANALYSIS   (MLA) Transmission Data was Analyzed with Multilevel
            Breit-Wigner Fitting Routine
           (AREA) Capture Data was Analyzed with a Modified
            Tacasi Area Analysis.
CORRECTION Capture Data was Corrected For Doppler and Resolution
            Effects, and Multiple Scattering.
HISTORY    (19991217T)  Converted from Subent 67035003
ENDBIB              11
NOCOMMON             0          0
DATA                 6         61
DATA      1DATA      2ERR-S     2DATA      3ERR-S     3DATA      4
EV         MILLI-EV   MILLI-EV   MILLI-EV   MILLI-EV   NO-DIM
   5.32E+01   1.17E+02         8.   9.15E+01     3.E-01
   9.09E+01  1.837E+02     7.E-01
  1.128E+02        2.3     3.E-02
    1.5E+02    1.6E-01     2.E-02                               1.
  3.035E+02       3.91     4.E-02
  4.118E+02     8.E-01     4.E-02
  4.278E+02  4.025E+02        4.1   7.71E+01     3.E-01
  4.813E+02    6.1E-01     5.E-02
  5.455E+02        5.9     8.E-02
  6.366E+02  4.621E+02    6.4E+01   7.62E+01     4.E-01
  6.432E+02       2.13     7.E-02
  7.994E+02       7.17    1.2E-01
  8.454E+02       1.55    1.1E-01                               1.
  9.062E+02   5.81E+02    1.2E+01
  9.569E+02  1.018E+03    1.5E+01
  9.624E+02   4.71E+01     4.E-01
 1.0849E+03    1.1E+01         5.                               1.
 1.2159E+03   4.18E+02    1.3E+01
 1.3633E+03    2.4E+01         3.                               1.
 1.4375E+03   1.39E+02         7.
   1.48E+03         5.        1.5
 1.5273E+03         2.        1.7
 1.6575E+03  1.558E+03    2.3E+01    7.8E+01         6.
 1.7156E+03   7.65E+01         9.
 2.0084E+03     1.E+01         3.
 2.0152E+03   8.13E+02    2.3E+01   7.67E+01         5.
  2.125E+03         8.         3.
  2.296E+03     5.E+01         7.                               1.
  2.457E+03
 2.5046E+03   8.23E+02     3.E+01   6.83E+01        5.7
 2.5296E+03   4.03E+01        1.7                               1.
 2.6653E+03
 2.7467E+03   5.27E+02     3.E+01     7.E+01         7.
  2.831E+03   4.34E+01        6.4
 2.8769E+03   4.53E+01        6.7                               1.
 2.9209E+03   3.72E+01        9.3
 3.0631E+03   2.83E+02     3.E+01   7.73E+01        8.7
  3.138E+03    9.8E+01    2.7E+01
  3.169E+03  1.207E+03    4.4E+01
 3.2284E+03         6.         5.
 3.2715E+03   1.19E+02    3.2E+01
 3.2995E+03    2.2E+02    3.2E+01    9.7E+01    1.2E+01
 3.5555E+03   3.35E+01    1.1E+01
 3.6264E+03   1.17E+03    5.5E+01   7.86E+01         9.
 3.7348E+03   1.04E+01         6.
 3.8337E+03
 3.8854E+03   1.09E+01         7.                               1.
 4.0105E+03
 4.0997E+03
 4.3949E+03  3.228E+03    9.9E+01   8.17E+01   1.45E+01
  4.424E+03
  4.494E+03   2.35E+02    5.8E+01   7.53E+01    1.4E+01
 4.5627E+03
  4.657E+03
 4.7016E+03    7.8E+02     8.E+01    8.4E+01     1.E+01
 4.7248E+03
 4.8159E+03                                                     1.
 4.8428E+03   2.07E+02    6.5E+01   7.57E+01   1.75E+01
 4.9819E+03
 5.0509E+03                                                     1.
 5.0871E+03  1.876E+03   1.02E+02   7.97E+01   1.45E+01
ENDDATA             63
ENDSUBENT           79
ENDENTRY             2
