ENTRY            22644   20010927   20030506
SUBENT        22644001   20010927   20030506
BIB                 10         36
TITLE      .Measurements of Neutron Induced Fission Cross-
            Section For 242M-Am from 0.003 eV to 10 KeV Using Lead
            Slowing-Down Spectrometer, Thermal Neutron Facility
            And Time-Of-Flight Method
AUTHOR     (T.KAI, K.KOBAYASHI, S.YAMAMOTO, H.-J.CHO, Y.FUJITA,
            I.KIMURA, Y.OHKAWACHI, T.WAKABAYASHI)
INSTITUTE  (2JPNKTO)  Kai, Kobayashi, Yamamoto, Cho, Fujita,
                      Research Reactor Institute.
                      .Kimura, Dept. Of Nuclear Engineering
           (2JPNPNC)  .Ohkawachi, Wakabayashi, Japan Nuclear
                       Cycle Development Institute
REFERENCE  (J,ANE,28,723,2001)  Main Reference
           ((S,JAERI-C-98-003,225,199711)=
           (S,INDC(JPN)-180/U,225,199711))
DETECTOR   (FISCH)  Back-To-Back Double Fission Chamber Made of
                    Aluminium, 40 mm in Diameter, 39 mm Length
             Filled with 97% Argon, 3% Nitrogen Gas at Pressure
             Aprx. 1 Atm
           (SIBAR,HPGE)  For Number-Of-Atoms in Am-242M and U-235
                         Samples Determination
PART-DET   (FF)     For Cross Section Measurement
           (A,G)    For Number-Of-Atoms in Am-242M and U-235
                    Samples Determination
SAMPLE     .Americium 242M was Electrodeposited on the Stainless
            Steel Disk 28 mm Diameter, 0.2 mm Thick, Radioactive
            Area is 20 mm Diameter, Am-242M Thickness 2.5 Micro-
            Gram/Cm2, Number of Atoms (2.04+-0.04)E+16.
            Am-242M Content is 85.25%, Am-241 Content is 14.22%,
            Am-243  Content is 0.53%
CORRECTION .Corrections were Made For Cm-242 Spontaneous Fission
            Produced from Beta-Decay of Am-242M, For Fission
            Cross Sections of Impurities Am-243 and Am-243,
            For Background Counting Rate
ERR-ANALYS (ERR-T)  Not Specified, Supposed Total by Compiler
HISTORY    (20010926C)  + +  Compiled by S.M.                 + +
           (20010927U) Last checking has been done.
ENDBIB              36
NOCOMMON
ENDSUBENT           39
SUBENT        22644002   20010927   20030506
BIB                  7          8
REACTION   (95-AM-242-M(N,F),,SIG,,MXW)
FACILITY   (REAC,2JPNKTO)  Kyoto University Research Reactor
MONITOR    (92-U-235(N,F),,SIG,,MXW)
SAMPLE     .Uranium Oxide, 99.91% Enrichment, Thickness 3.5 Micro-
            Gram/Cm2, Number of U-235 Nuclei is (2.80+-0.10)E+16
INC-SOURCE (THCOL)  Heavy Water Thermal Neutron Facility
INC-SPECT  .Thermal Neutrons, Cadmium Ration is 780
STATUS     (TABLE)  Data from Table 3 of Main Reference
ENDBIB               8
NOCOMMON
DATA                 3          1
EN-MEAN    DATA       ERR-T
EV         B          B
     0.0253   5.85E+03    2.5E+02
ENDDATA              3
ENDSUBENT           16
SUBENT        22644003   20010927   20030506
BIB                  8         15
REACTION   (95-AM-242-M(N,F),,SIG)
FACILITY   (LINAC,2JPNKTO)  46 MeV Electron Linear Accelerator,
             Pulse Repetition 200 Hz, Pulse Width 22 Ns, Electron
             Peak Current 1.5 Amperes, Electron Energy 31 MeV
METHOD     (SLODT)  Slowing-Down Time
MONITOR    (92-U-235(N,F),,SIG)
INC-SOURCE (PHOTO)  Photonuclear Source, Gamma-Quanta Produced by
                    Electrons Impinging Tantalum Target Placed in
             Lead Cube 1.5*1.5*1.5 M3 (APRX. 40 TONS)
SAMPLE     .Uranium Oxide, 99.91% Enrichment, Thickness 3.5 Micro-
            Gram/Cm2, Number of U-235 Nuclei is (2.80+-0.10)E+16
REL-REF    (N,,K.KOBAYASHI+,J,NIM/A,385,145,1997)  Details of
             Kyoto Lead Slowing-Down Spectrometer Properties
STATUS     (APRVD)  Data Obtained Via Internet, Tetsuya Kai,
                    2001-07-19
ENDBIB              15
NOCOMMON
DATA                 3        114
EN         DATA       ERR-T
EV         B          B
   2.82E-02   6.64E+03    2.8E+02
   3.35E-02   6.26E+03    2.7E+02
   3.76E-02   5.91E+03    2.6E+02
   4.22E-02   5.81E+03    2.5E+02
   4.73E-02   5.64E+03    2.3E+02
   5.31E-02   5.28E+03    2.3E+02
   5.96E-02   5.25E+03    2.4E+02
   6.68E-02   5.12E+03    2.3E+02
    7.5E-02   4.92E+03    2.2E+02
   8.41E-02   4.83E+03    2.2E+02
   9.44E-02   4.72E+03    2.1E+02
   1.06E-01   4.62E+03     2.E+02
   1.19E-01   4.45E+03     2.E+02
   1.33E-01   4.31E+03    1.9E+02
   1.49E-01   4.12E+03    1.9E+02
   1.68E-01   3.91E+03    1.8E+02
   1.89E-01   3.69E+03    1.7E+02
   2.12E-01   3.35E+03    1.6E+02
   2.37E-01   3.06E+03    1.4E+02
   2.66E-01   2.74E+03    1.3E+02
   2.99E-01   2.44E+03    1.2E+02
   3.35E-01   2.15E+03     1.E+02
   3.76E-01   1.92E+03    9.1E+01
   4.22E-01    1.7E+03    8.3E+01
   4.73E-01   1.52E+03    7.2E+01
   5.31E-01   1.35E+03    6.5E+01
   5.96E-01   1.22E+03     6.E+01
   6.68E-01    1.1E+03    5.4E+01
    7.5E-01   9.58E+02    4.7E+01
   8.41E-01   8.49E+02    4.2E+01
   9.44E-01   7.54E+02    3.6E+01
       1.06   6.72E+02    3.5E+01
       1.19   5.93E+02     3.E+01
       1.33   5.39E+02    2.6E+01
       1.49   4.89E+02    2.4E+01
       1.68    4.5E+02    2.4E+01
       1.89   4.11E+02     2.E+01
       2.12   3.68E+02    1.8E+01
       2.37   3.41E+02    1.7E+01
       2.66   3.26E+02    1.6E+01
       2.99   3.24E+02    1.6E+01
       3.35   3.12E+02    1.5E+01
       3.76   2.86E+02    1.4E+01
       4.22   2.58E+02    1.2E+01
       4.73   2.37E+02    1.2E+01
       5.31   2.24E+02    1.1E+01
       5.96   2.02E+02        9.8
       6.68   1.72E+02        8.8
        7.5   1.44E+02        7.2
       8.41   1.26E+02        6.1
       9.44   1.15E+02        5.5
   1.06E+01   1.17E+02        5.3
   1.19E+01   1.24E+02        5.5
   1.33E+01   1.29E+02        5.6
   1.49E+01   1.29E+02        5.7
   1.68E+01   1.26E+02        5.6
   1.89E+01   1.21E+02        5.5
   2.12E+01   1.11E+02        5.4
   2.37E+01   1.03E+02        4.8
   2.66E+01   9.78E+01        4.4
   2.99E+01   9.38E+01        4.2
   3.35E+01    8.7E+01        3.9
   3.76E+01   8.05E+01        3.8
   4.22E+01   7.32E+01        3.3
   4.73E+01    7.1E+01        3.2
   5.31E+01   6.95E+01         3.
   5.96E+01   6.56E+01         3.
   6.68E+01   6.11E+01        2.7
    7.5E+01   5.58E+01        2.6
   8.41E+01   5.23E+01        2.4
   9.44E+01   5.04E+01        2.2
   1.06E+02   4.64E+01        2.1
   1.19E+02   4.32E+01         2.
   1.33E+02   4.07E+01        1.8
   1.49E+02   3.86E+01        1.7
   1.68E+02   3.78E+01        1.6
   1.89E+02   3.69E+01        1.7
   2.12E+02   3.54E+01        1.6
   2.37E+02   3.38E+01        1.5
   2.66E+02   3.15E+01        1.4
   2.99E+02   3.04E+01        1.3
   3.35E+02   2.68E+01        1.3
   3.76E+02   2.36E+01        1.1
   4.22E+02   2.26E+01        1.1
   4.73E+02   2.12E+01    9.6E-01
   5.31E+02   2.05E+01    9.7E-01
   5.96E+02   1.93E+01    8.8E-01
   6.68E+02    1.8E+01    9.2E-01
    7.5E+02   1.73E+01    8.7E-01
   8.41E+02   1.62E+01    9.9E-01
   9.44E+02   1.53E+01    7.8E-01
   1.06E+03    1.4E+01    7.4E-01
   1.19E+03   1.38E+01    7.7E-01
   1.33E+03   1.28E+01    6.7E-01
   1.49E+03   1.18E+01    5.9E-01
   1.68E+03   1.11E+01    5.9E-01
   1.89E+03   1.03E+01    6.2E-01
   2.12E+03   1.01E+01    6.7E-01
   2.37E+03       9.81     5.E-01
   2.66E+03       8.64    4.3E-01
   2.99E+03       8.22    5.6E-01
   3.35E+03       8.05    3.6E-01
   3.76E+03       8.29    4.3E-01
   4.22E+03       8.17    4.3E-01
   4.73E+03       7.41    3.9E-01
   5.31E+03       6.81    3.8E-01
   5.96E+03       6.39    3.5E-01
   6.68E+03       5.82    4.6E-01
    7.5E+03       5.84    3.3E-01
   8.41E+03       5.15    3.7E-01
   9.44E+03       4.95    4.2E-01
   1.06E+04       4.82    4.7E-01
   1.19E+04       4.91    2.6E-01
   1.33E+04       5.17    2.2E-01
ENDDATA            116
ENDSUBENT          136
SUBENT        22644004   20010927   20030506
BIB                 10         23
REACTION   (95-AM-242-M(N,F),,SIG)
FACILITY   (LINAC,2JPNKTO)  46 MeV Electron Linear Accelerator,
             Pulse Repetition 80 Hz, Pulse Width 2 Micro-Sec,
             Electron Peak Current 0.7 Milli-Amperes, Electron
             Energy 31 MeV
METHOD     (TOF)  Time-Of-Flight, Flight Path is 5.1+-0.02 M
MONITOR    (92-U-235(N,F),,SIG)
           (5-B-10(N,A)3-LI-7,,SIG)  Below 1 KeV
DETECTOR   (BF3)
ANALYSIS   .Result was Normalized to the Absolute Value Obtained
            With Back-To-Back Fission Chamber in the Neutron
            Energy Region 200 - 1000 eV with Those Obtained with
            Boron Counter For Energy Region Below 1 KeV
SAMPLE     .Uranium Oxide, 99.91% Enrichment, Thickness 41 Micro-
            Gram/Cm2, Number of U-235 Nuclei is (3.28+-0.04)E+17
INC-SOURCE (PHOTO)  Photonuclear Source, Gamma-Quanta Produced by
                    Electrons Impinging Tantalum Target Placed in
             Light-Water Tank (ALUMINIUM, 50*50*50 CM3)
INC-SPECT  .Energy Calibration was Performed with the Metal Plates
            Resonance Filters of Samarium (0.5 MM THICK), Silver
            (0.5 MM THICK), Indium (0.2 MM THICK)
STATUS     (APRVD)  Data Obtained Via Internet, Tetsuya Kai,
                    2001-07-19
ENDBIB              23
NOCOMMON
DATA                 3         84
EN         DATA       ERR-T
EV         B          B
  2.661E-03   1.69E+04    1.8E+03
  2.985E-03    1.7E+04    1.6E+03
   3.35E-03    1.4E+04    1.2E+03
  3.758E-03   1.38E+04    9.6E+02
  4.217E-03   1.34E+04    8.1E+02
  4.732E-03    1.2E+04    6.4E+02
  5.309E-03   1.17E+04     5.E+02
  5.957E-03   1.06E+04    4.1E+02
  6.683E-03   9.72E+03    3.3E+02
  7.499E-03   9.77E+03    2.7E+02
  8.414E-03   8.87E+03    2.2E+02
  9.441E-03   8.58E+03    1.8E+02
  1.059E-02   8.76E+03    1.6E+02
  1.189E-02    8.3E+03    1.4E+02
  1.333E-02    7.7E+03    1.1E+02
  1.496E-02   7.26E+03    9.9E+01
  1.679E-02    7.1E+03    8.6E+01
  1.884E-02   7.07E+03    7.8E+01
  2.114E-02   6.72E+03    6.8E+01
  2.371E-02   6.42E+03    6.1E+01
  2.661E-02   6.22E+03    5.6E+01
  2.985E-02   6.02E+03    5.1E+01
   3.35E-02   5.86E+03    4.8E+01
  3.758E-02   5.64E+03    4.5E+01
  4.217E-02   5.56E+03    4.3E+01
  4.732E-02   5.46E+03    4.2E+01
  5.309E-02   5.34E+03    4.2E+01
  5.957E-02   5.27E+03    4.2E+01
  6.683E-02   5.14E+03    4.3E+01
  7.499E-02   5.24E+03    4.6E+01
  8.414E-02   5.15E+03    4.8E+01
  9.441E-02   4.93E+03    5.1E+01
  1.059E-01   4.98E+03    5.8E+01
  1.189E-01   4.85E+03    6.5E+01
  1.333E-01   4.79E+03    7.5E+01
  1.496E-01   4.59E+03    8.5E+01
  1.679E-01   4.41E+03    9.7E+01
  1.884E-01   4.37E+03    1.1E+02
  2.113E-01   3.86E+03    1.2E+02
  2.371E-01   3.47E+03    1.2E+02
  2.661E-01   2.89E+03    1.2E+02
  2.985E-01   2.53E+03    1.1E+02
   3.35E-01   2.13E+03    1.1E+02
  3.758E-01    1.6E+03    9.8E+01
  4.217E-01   1.48E+03    9.4E+01
  4.732E-01   1.18E+03    8.7E+01
  5.309E-01   9.76E+02    8.3E+01
  5.957E-01    1.1E+03    8.4E+01
  6.683E-01   1.13E+03    8.5E+01
  7.499E-01   8.09E+02    7.6E+01
  8.414E-01   7.56E+02    7.4E+01
  9.441E-01   7.44E+02    7.3E+01
      1.059   6.22E+02    7.1E+01
      1.189   4.77E+02    6.5E+01
      1.334   4.15E+02    6.2E+01
      1.496   4.58E+02    6.2E+01
      1.679   3.96E+02    5.8E+01
      1.884   3.35E+02    5.6E+01
      2.114   3.51E+02    5.4E+01
      2.371   2.74E+02    5.2E+01
      2.661   1.64E+02    4.7E+01
      2.985   2.76E+02     5.E+01
       3.35   4.69E+02    5.5E+01
      3.758   2.16E+02    4.7E+01
      4.217   2.28E+02    4.6E+01
      4.732   1.48E+02     4.E+01
      5.309   1.44E+02    4.2E+01
      5.957   1.67E+02     4.E+01
      6.683   1.21E+02    3.8E+01
      7.499   9.07E+01    3.4E+01
      8.414    5.9E+01    3.1E+01
      9.441     1.E+02    3.3E+01
  1.059E+01   1.12E+02    3.3E+01
  1.189E+01   1.98E+02    3.6E+01
  1.334E+01   1.06E+02    3.2E+01
  1.496E+01    1.2E+02    3.2E+01
  1.679E+01   1.18E+02    3.2E+01
  1.884E+01    1.4E+02    3.2E+01
  2.114E+01   8.64E+01    2.9E+01
  2.371E+01   1.36E+02    3.1E+01
  2.661E+01   9.58E+01    2.8E+01
  2.985E+01   8.23E+01    2.9E+01
   3.35E+01    7.9E+01    2.5E+01
  3.758E+01   5.96E+01    2.5E+01
ENDDATA             86
ENDSUBENT          114
ENDENTRY             4
