ENTRY            22743   20070716   20070924   20070920       2186
SUBENT        22743001   20070716   20070924   20070920       2186
BIB                 10         24
TITLE       Development of Charged-Particle Emission DDX
            Spectrometer with SSD Telescope and Pencil-Beam DT
            Neutron Source.
AUTHOR     (I.MURATA, T.KONDO, S.TAKAGI, H.MIYAMARU, A.TAKAHASHI,
           K.OCHIAI, T.NISHITANI)
REFERENCE  (C,2004SANTA,1,769,2004)  Main reference, graphs given
INSTITUTE  (2JPNOSA)  Murata, Kondo, Takagi, Miyamaru, Takahashi
           (2JPNJAE)  Ochiai, Nishitani
FACILITY   (CCW,2JPNJAE)  The intense 14MeV neutron source at FNS
INC-SOURCE (D-T) Pencil-beam (2 cm diameter)neutron source.
            Water-coold roating tritium target.
            D+ Beam Intensity of 1.E+12 n/sec.
            Average Neutron Intensity 1.E+06 n/sec/cm**2 at exit
            of collimator.
DETECTOR   (TELES,SISD) Detector includes two silicon SSDs of
            deltaE and E detectors of thickness 9.6 and 700.microm
            respectively.Energy resolution, relying on deltaE
            detector, is about 100.keV for Am-241 peak.
            Signal to noice ration over 10.
METHOD     (EDE)
           (PHD) Pulse height spectra of coincidence and anti-
                 coincidence events were measured.
CORRECTION  Correction Of Energy Loss in the Sample.
HISTORY    (20070716C)   M.M.
ENDBIB              24
COMMON               1          3
EN
MEV
  14.
ENDCOMMON            3
ENDSUBENT           31
SUBENT        22743002   20070716   20070924   20070920       2186
BIB                  4          6
REACTION   (13-AL-27(N,TOT),,SIG,,,DERIV)
ERR-ANALYS (ERR-S)      Statistical error
SAMPLE      No Information
STATUS     (PRELM) Preliminary Results.
           (DEP,22743003) Total c-s was obtained from Legendre
            fitting of angular differential c-s
ENDBIB               6
NOCOMMON             0          0
DATA                 2          1
DATA       ERR-S
MB         MB
 137.       2.
ENDDATA              3
ENDSUBENT           14
SUBENT        22743003   20070716   20070924   20070920       2186
BIB                  3          4
REACTION   (13-AL-27(N,X)1-H-1,,DA)
ERR-ANALYS (COS-ERR-D)  Digitizing error of Cosine
           (ERR-DIG)    Digitizing error  of DATA
STATUS     (CURVE) Fig.4 of Main Reference
ENDBIB               4
COMMON               3          3
ANG-RSL    COS-ERR-D  ERR-DIG
ADEG       NO-DIM     PER-CENT
 25.        1.8573E-03 3.7175E-03
ENDCOMMON            3
DATA                 2          4
COS        DATA
NO-DIM     MB/SR
-.71131     9.1176
-.34129     9.6286
0.33779     10.832
0.70419     14.507
ENDDATA              6
ENDSUBENT           19
SUBENT        22743004   20070716   20070924   20070920       2186
BIB                  4          6
REACTION   (4-BE-9(N,X)2-HE-4,,DA/DE)
SAMPLE       No Information.
ERR-ANALYS (E-ERR-DIG)  Digitizing error of E
           (ERR-DIG)    Digitizing error of DATA
           (DATA-ERR)   Error-bar on Fig.5
STATUS     (CURVE) Fig.5 of Main Reference.
ENDBIB               6
COMMON               3          3
ANG-RSL    E-ERR-DIG  ERR-DIG
ADEG       MEV        PER-CENT
 25.        1.0663E-02 1.4159E-02
ENDCOMMON            3
DATA                 4         70
ANG        E          DATA       DATA-ERR
ADEG       MEV        MB/SR/MEV  MB/SR/MEV
 15.        1.3822     3.77  E-03 8.3715E-02
 15.        1.8026     1.2407     0.9751
 15.        2.1876    11.836      2.8194
 15.        2.6320    49.498     11.802
 15.        3.0087    61.089     12.278
 15.        3.4036    38.514      7.7323
 15.        3.8199    27.430      6.5278
 15.        4.2170    29.956      3.8902
 15.        4.6137    29.853      4.9222
 15.        5.0306    24.767      4.0836
 15.        5.4266    20.551      4.9002
 15.        5.8232    19.865      3.2753
 15.        6.2397    15.038      3.5789
 15.        6.6360    13.264      3.1596
 15.        7.0334    15.398      2.5388
 15.        7.4296    13.581      2.7266
 15.        7.8261    12.733      2.5591
 15.        8.2226    11.938      1.9682
 15.        8.5983    11.541      1.9029
 15.        9.0148     8.7368     1.4405
 15.        9.4098     5.6790     0.93635
 15.        9.8281     6.5913     0.85596
 15.       10.205      9.1912     1.8453
 15.       10.600      5.9743     0.98377
 15.       10.992      1.7033     0.28047
 15.       11.405      0.56556    0.11367
 15.       11.823      0.53014    0.10667
 15.       12.218      0.41385    0.11446
 15.       12.630      9.2407E-02 4.9293E-02
 15.       12.999      1.7187E-02 1.8562E-02
 30.        0.95592    0.2648E-03 2.7141E-02
 30.        1.3835     0.3033E-02 3.5176E-02
 30.        1.7873     2.9049     0.8079
 30.        2.1937    31.306      6.2920
 30.        2.5919    43.646      8.7722
 30.        3.0076    27.512      6.5536
 30.        3.3820    19.012      3.8212
 30.        3.7984    13.960      2.2988
 30.        4.2155    12.311      2.9325
 30.        4.6124    12.649      3.0159
 30.        5.0294    10.819      2.5772
 30.        5.4261    10.782      2.1670
 30.        5.8227    10.422      2.0946
 30.        6.2180     7.2004     1.4472
 30.        6.5934     6.3520     1.2781
 30.        6.9892     5.1124     1.2190
 30.        7.4057     3.8702     0.63976
 30.        7.8229     3.4130     0.94399
 30.        8.2191     3.0103     0.49698
 30.        8.6161     3.1888     0.64090
 30.        9.0125     2.8997     0.69139
 30.        9.4289     2.1292     0.42840
 30.        9.8245     1.6122     0.38440
 30.       10.199      1.1486     0.27335
 30.       10.635      0.62143    0.14803
 30.       11.027      0.17184    2.8333E-02
 30.       11.394      2.4284E-02 1.1821E-02
 30.       11.825      0.3758E-02 0.4553E-02
105.        1.7822     0.49261    0.26264
105.        2.1873     3.7947     0.62566
105.        2.5880    10.043      1.3042
105.        3.0029     5.1128     0.49029
105.        3.3977     3.1265     0.51550
105.        3.8147     2.6742     0.53748
105.        4.1491     2.9222     0.37828
105.        4.6063     1.6802     0.27739
105.        5.0224     1.1607     0.19162
105.        5.3959     0.64777    0.15416
105.        5.7920     0.55417    0.11138
105.        6.2047     0.16286    0.5813E-01
ENDDATA             72
ENDSUBENT           87
ENDENTRY             4
