ENTRY            22761   20070927   20071206   20071125       2187
SUBENT        22761001   20070927   20071206   20071125       2187
BIB                 13         37
TITLE      .Measurements of (n,xp), n,xd) double differential
            cross sections of Al and C for neutrons at 75 and
            65 MeV.
AUTHOR     (Yasushi NAUCHI, Mamoru BABA, Tomohiko IWASAKI,
           Toshiya SANAMI, Takashi TABEI, Takanori SUZUKI,
           Masanobu IBARAKI, Susumu TANAKA, Hiroshi NAKASHIMA,
           Shim-ichiro MEIGO, Hiroshi TAKADA, Nortaki NAKAO,
           Takashi NAKAMURA, Yukinobu WATANABE, Masahide HARADA,
           Tomoya NUNOMIYA, Naohiro HIRAKAWA)
INSTITUTE  (2JPNTOH)  Nauchi, Baba, Iwasaki, Sanami, Tabei,
             Suzuki, Ibaraki, Nunomiya, Hirakawa. Dept. of Quantum
             Science and Energy Engineering.
                      Nakamura.  Cyclotron Radioisotope Center
           (2JPNJAE)  Tanaka. Takasaki Esteblishment.
                      Nakashima, Meigo, Takada. Tokai Establishm.
           (2JPNKYU)  Watanabe, Harada. Dept.of Energy Conversion
                      Engineering
           (2JPNKEK)  Nakao. Tanashi Branch, High Energy
             Accelerator Research Organization
REFERENCE  (S,JAERI-C-98,270,199903)  Main reference, graphs
             are given. Exact ref: JAERI-C-98-003, p.270, 1999
FACILITY   (ISOCY,2JPNJAE)  AVF neutron source facility,
                            Takasaki establishment
METHOD     (EDE)
DETECTOR   (TELES,SCIN,NAICR) "SCIN" detector is a SSD one,
             900 mm2 area, 150 micro-meter thick. "NAICR" detector
             is Na-I(TL) disk, 5.08 cm diameter, 3 cm thick.
INC-SOURCE (P-LI7)  99.9% pure Li-7 target
PART-DET   (P,D)  Detected by E-DE counter telescope
ADD-RES    (THEO,COMP)  Calculation with GNASH code and
                        comparison with experiment
ERR-ANALYS (E-ERR-DIG)  Secondary neuron energy digitizing error
           (ERR-DIG)    Data digitizing error
           (DATA-ERR)   Error from the graphic bars
STATUS     (PRELM)      By compiler
           (COREL,23015001)
HISTORY    (20070908C)  SM
ENDBIB              37
NOCOMMON             0          0
ENDSUBENT           40
SUBENT        22761002   20070910   20071206   20071125       2187
BIB                  3          8
REACTION   (13-AL-27(N,X)1-H-1,,DA/DE)
SAMPLE     .For angles  below 25  degrees a disk-shaped sample
            was used, 7 cm diameter, 160 mg/cm2 thick.
            For 12 and 25 degree angle an annular sample was used
            as a disk with inner diameter 6 cm, outer diameter
            9.6 cm
STATUS     (CURVE)    Fig. 3 of main reference
           (COREL,22830010)  Data in 22830010 given by authors
ENDBIB               8
COMMON               4          3
EN         EN-RSL     E-ERR-DIG  ERR-DIG
MEV        MEV        MEV        PER-CENT
  75.        3.4       9.7491E-02 9.8928E-03
ENDCOMMON            3
DATA                 4        168
ANG        E          DATA       DATA-ERR
ADEG       MEV        MB/SR/MEV  MB/SR/MEV
        12.     11.291     1.1438     0.4103
        12.     12.832     1.1491    0.44138
        12.     14.254    0.65559    0.32564
        12.     15.654     0.6855    0.36727
        12.     17.194    0.71707    0.23827
        12.     18.736     0.7204    0.34289
        12.     20.134     0.7843    0.21655
        12.     21.665     1.0454    0.25745
        12.     23.195     1.4508    0.31223
        12.     24.605     1.1434    0.34847
        12.     26.272     1.7211    0.37039
        12.     27.842     0.8027    0.22163
        12.     29.361      1.478    0.27026
        12.     30.768     1.2628    0.31099
        12.     32.313     1.1702     0.3209
        12.     33.714     1.1752    0.38397
        12.     35.244      1.631    0.35099
        12.     36.793     1.3389    0.32974
        12.     38.332     1.4583     0.3596
        12.     39.748    0.97786    0.32465
        12.     41.276      1.413    0.30409
        12.     42.819     1.3634    0.37387
        12.     44.352     1.7454    0.31915
        12.     45.755     1.6834    0.30781
        12.     47.306     1.2747    0.41648
        12.     48.846     1.3334    0.36564
        12.     50.383     1.5122    0.32542
        12.     51.935     1.1451    0.24642
        12.     53.464     1.6546    0.30256
        12.     54.869      1.472    0.40365
        12.     56.411     1.4789     0.2593
        12.     57.947     1.7462     0.2605
        12.     59.495     1.4336    0.26214
        12.     61.047     1.0855    0.23361
        12.     62.457    0.85552    0.23621
        12.     63.865    0.73097    0.20182
        12.     65.416    0.55352    0.16869
        12.     66.829    0.40238    0.14423
        12.     68.386    0.26993    0.12271
        25.     12.638    0.98835    0.24563
        25.     14.334    0.71663    0.19886
        25.     15.608    0.51895    0.14457
        25.     17.146    0.61382    0.23703
        25.     18.676     0.9275    0.23051
        25.     20.232    0.64534    0.21306
        25.     21.625    0.86238     0.1592
        25.     23.318    0.67848    0.18827
        25.     24.575    0.80183     0.2225
        25.     26.267    0.65712
        25.     26.278    0.47406
        25.     27.667    0.71602    0.15553
        25.     29.212    0.69057       0.15
        25.     30.756    0.69377     0.1507
        25.     32.162    0.64208    0.21518
        25.     33.723    0.39526    0.16275
        25.     35.257    0.52842    0.16245
        25.      36.66    0.53065    0.16314
        25.     38.194    0.70941    0.15409
        25.     39.876    0.74271    0.13172
        25.     41.281    0.71601     0.1621
        25.     42.823     0.7493    0.18622
        25.     44.358    0.96166    0.14486
        25.     45.757     1.0915    0.19358
        25.     47.307    0.93139    0.16518
        25.      48.71    0.93531    0.21175
        25.     50.254    0.93965    0.21273
        25.     51.938    0.94441    0.17434
        25.     53.347    0.80553    0.20019
        25.     54.888     0.8781     0.1988
        25.     56.434    0.81302    0.20205
        25.     57.842    0.72235    0.16354
        25.     59.389    0.66881    0.16622
        25.     60.931    0.69991    0.12921
        25.     62.479    0.62212    0.17331
        25.     64.024        0.6
        25.     65.433    0.51177  7.7090E-2
        25.     66.858    0.27862  6.0520E-2
        25.     68.426    0.13985  6.4066E-2
        55.     12.825     1.0697    0.16063
        55.     14.242    0.74502    0.11187
        55.     15.645    0.74824
        55.      17.19    0.72184
        55.     18.743    0.56821     0.1004
        55.      20.14    0.67151
        55.     21.693    0.52859  9.3397E-2
        55.     23.231    0.62495    0.13534
        55.     24.782    0.51237  9.0531E-2
        55.     26.187    0.49407  8.7298E-2
        55.     27.732    0.47664     0.1075
        55.     29.269    0.56353
        55.     30.822    0.44359  7.8379E-2
        55.     32.367    0.42794  7.5614E-2
        55.     33.764    0.50573  9.3072E-2
        55.      35.31    0.48789  8.9788E-2
        55.     36.859     0.4166  7.3610E-2
        55.     38.265    0.38571  8.6995E-2
        55.     39.812    0.35727
        55.     41.217    0.34452  6.0873E-2
        55.     42.902     0.3325  7.4993E-2
        55.     44.307    0.32063
        55.     45.851    0.32216
        55.     47.118    0.28626
        55.      47.96      0.287
        55.     48.805    0.26527  4.8818E-2
        55.      50.35     0.2559  5.5418E-2
        55.     51.894    0.25712
        55.     52.738    0.24752
        55.     53.445     0.2108  3.8795E-2
        55.     54.989    0.21181  5.2483E-2
        55.     56.534    0.20433  3.6104E-2
        55.     57.942    0.18164  3.9336E-2
        55.     59.491     0.1551  2.3290E-2
        55.      60.91    0.10371  2.8809E-2
        55.     62.446    0.12771  2.8804E-2
        55.     63.854    0.11353  2.5606E-2
        55.     65.406  8.9368E-2  2.4703E-2
        55.     66.817  7.3237E-2  1.0997E-2
        55.     68.246  3.6837E-2  1.0183E-2
        55.     72.817  4.1529E-3  1.8333E-3
        55.     74.226  3.5445E-3  1.1846E-3
        70.      12.67    0.72336  9.3006E-2
        70.     14.362    0.59377  7.6345E-2
        70.     15.628     0.5721
        70.     17.035    0.55141    0.11848
        70.     18.588    0.43458    0.11894
        70.     20.135    0.41901  9.3587E-2
        70.     21.685     0.3727  8.3243E-2
        70.     23.233    0.34514  6.0403E-2
        70.     24.633    0.40696
        70.     26.188    0.30807  8.4312E-2
        70.     27.729    0.36337  7.8079E-2
        70.      28.44    0.27449
        70.     29.143    0.27497
        70.     30.829    0.27612  7.5447E-2
        70.     32.236    0.26614  7.2837E-2
        70.     33.505    0.22721  2.9213E-2
        70.      35.33    0.24741
        70.     35.617    0.20238  3.5417E-2
        70.     36.736    0.23846  4.3536E-2
        70.     38.145    0.21203  4.7356E-2
        70.     39.841    0.15421  3.7921E-2
        70.     40.261    0.16734  2.9286E-2
        70.     40.824    0.16095
        70.     41.388    0.14869  3.3210E-2
        70.     42.512    0.15524
        70.     42.934    0.14926  2.7251E-2
        70.     44.199    0.14973
        70.     45.045    0.13842  2.4167E-2
        70.     45.752    0.11801  3.2348E-2
        70.     47.295    0.13369  2.3397E-2
        70.     47.859     0.1235
        70.     48.849     0.1012  2.7742E-2
        70.     49.549    0.10989
        70.     50.257  9.3687E-2  3.0550E-2
        70.     51.942  9.7949E-2
        70.     53.213  8.0318E-2  1.7939E-2
        70.      54.76  7.7440E-2  2.9477E-2
        70.     56.303  8.4265E-2  1.5385E-2
        70.      57.85  8.1246E-2  1.4219E-2
        70.     59.402  6.6667E-2  1.4325E-2
        70.     60.809  6.4256E-2  1.5801E-2
        70.     62.354  6.7156E-2  1.6514E-2
        70.      63.92  3.3968E-2  7.2990E-3
        70.     65.482  2.0189E-2  6.5832E-3
        70.     66.756  1.4668E-2  5.5835E-3
        70.      68.33  5.8252E-3  2.8927E-3
        70.     69.876  5.8476E-3  1.9068E-3
        70.     71.295  3.7659E-3  1.8701E-3
ENDDATA            170
ENDSUBENT          187
SUBENT        22761003   20070910   20071206   20071125       2187
BIB                  3          8
REACTION   (13-AL-27(N,X)1-H-2,,DA/DE)
SAMPLE     .For angles  below 25  degrees a disk-shaped sample
            was used, 7 cm diameter, 160 mg/cm2 thick.
            For 12 and 25 degree angle an annular sample was used
            as a disk with inner diameter 6 cm, outer diameter
            9.6 cm
STATUS     (CURVE)    Fig.4 of main reference
           (COREL,22830011)  Data given by authors
ENDBIB               8
COMMON               4          3
EN         EN-RSL     E-ERR-DIG  ERR-DIG
MEV        MEV        MEV        PER-CENT
  75.        3.4       7.0394E-02 1.9704E-02
ENDCOMMON            3
DATA                 4        124
ANG        E          DATA       DATA-ERR
ADEG       MEV        MB/SR/MEV  MB/SR/MEV
        12.     17.213    0.17111    0.14907
        12.     21.702    0.16605    0.14784
        12.     26.306    0.40617    0.22433
        12.     27.849    0.39154    0.20906
        12.     29.396    0.33458      0.226
        12.      30.79    0.46289    0.25565
        12.     32.331    0.50339    0.20482
        12.     35.423    0.39833    0.17137
        12.     36.981    0.22775    0.20964
        12.     38.508    0.40112    0.22159
        12.     39.909     0.4189    0.19865
        12.     41.447    0.49366    0.18885
        12.     42.981     0.6832    0.18781
        12.     44.528     0.5838    0.14313
        12.     45.924    0.74533    0.18273
        12.     47.479    0.48075    0.21762
        12.     48.871    0.69239    0.19034
        12.     50.548    0.88452    0.16099
        12.     51.957    0.69725    0.21174
        12.     53.359    0.69947    0.19228
        12.     54.901     0.7307    0.17915
        12.     56.435     1.0112    0.24793
        12.     57.976     1.0564      0.259
        12.     59.363       1.86    0.33854
        12.     60.906     1.8665     0.5131
        12.     62.311     1.6598    0.24644
        12.     63.846     2.2066    0.40163
        12.     65.396       1.74    0.31669
        25.     15.702    0.29644    0.13539
        25.     17.376    0.44702  9.6797E-2
        25.     18.782    0.41347    0.10244
        25.     20.331    0.36732  9.1011E-2
        25.     21.874    0.38398  8.3148E-2
        25.     23.281    0.35517  8.7999E-2
        25.     24.825    0.37127  9.1989E-2
        25.     26.367    0.40422  8.7530E-2
        25.     27.907    0.47738     0.1035
        25.      29.31    0.51957    0.11251
        25.     30.859    0.44319    0.10981
        25.     32.402    0.48251  8.8791E-2
        25.      33.95    0.42866  9.2823E-2
        25.     35.356    0.39649  8.5857E-2
        25.     37.042    0.39809  9.8633E-2
        25.     38.447     0.3835  9.5018E-2
        25.     39.994    0.35484  8.7918E-2
        25.     41.555    0.20153    0.10062
        25.     42.954     0.2478  8.2809E-2
        25.     44.493     0.3048  6.6002E-2
        25.     45.906    0.23005  8.2982E-2
        25.     47.443    0.29471  8.1857E-2
        25.     48.998    0.21364  7.7063E-2
        25.     50.396     0.2627  8.0526E-2
        25.     51.829  9.5347E-2  7.6608E-2
        25.     53.343    0.28697  9.5897E-2
        25.     55.018    0.41548  7.6455E-2
        25.     56.423    0.40025    0.11117
        25.     57.965    0.45386  9.8279E-2
        25.      59.37    0.43723    0.10833
        25.     60.927    0.29219    0.11999
        25.      62.45    0.63515    0.11688
        25.     63.854    0.63727    0.11727
        25.      65.42    0.30759  4.6183E-2
        25.     66.855    0.10292  4.9232E-2
        55.     17.306  7.7577E-2  2.1422E-2
        55.       18.7    0.11185  2.4073E-2
        55.     20.246  9.1629E-2  2.2568E-2
        55.      21.65  8.1362E-2  2.4799E-2
        55.     23.325    0.11272  2.4260E-2
        55.     24.728    0.10851  2.3354E-2
        55.     26.272  9.6370E-2  2.0742E-2
        55.     27.811    0.10907  2.6863E-2
        55.     29.357  8.5812E-2  2.1135E-2
        55.     30.899  8.6032E-2  1.8517E-2
        55.     32.304  7.0463E-2  2.3416E-2
        55.     33.844  7.9746E-2  2.2021E-2
        55.     35.402  3.4231E-2  1.6295E-2
        55.     36.935  5.3519E-2  1.4788E-2
        55.     38.478  4.9493E-2  9.0513E-3
        55.     40.011  7.7380E-2  1.6655E-2
        55.     41.426  3.9031E-2  1.4993E-2
        55.     42.966  4.2424E-2  1.5220E-2
        55.     44.374  3.0781E-2  1.1043E-2
        55.     45.905  5.2175E-2  1.5903E-2
        55.     47.459  2.8539E-2  1.1663E-2
        55.     48.861  2.8605E-2  1.1686E-2
        55.     50.404  2.6453E-2  1.1426E-2
        55.     53.348  2.5531E-2  1.1602E-2
        55.     54.888  2.7750E-2  9.2219E-3
        55.     56.429  2.7822E-2  8.4799E-3
        55.     57.981  1.7179E-2  7.4200E-3
        55.     59.388  1.2978E-2  5.6056E-3
        55.     60.941  7.3912E-3  3.9612E-3
        70.     17.266    0.25156  4.6445E-2
        70.     18.671    0.25231  4.6583E-2
        70.     20.218    0.23329  3.5146E-2
        70.     21.765    0.21571  3.9826E-2
        70.      23.31    0.20776  3.8358E-2
        70.     24.717    0.19204  3.5456E-2
        70.     26.263    0.18497  3.4150E-2
        70.     27.809    0.17815  3.8702E-2
        70.     29.351    0.19394  2.9218E-2
        70.     30.763    0.14617  2.6987E-2
        70.     32.306    0.15913  2.9379E-2
        70.     33.987    0.18802  2.8326E-2
        70.     35.397    0.15377  2.3165E-2
        70.     36.935    0.19709  2.9692E-2
        70.     38.499  9.4834E-2  1.7509E-2
        70.     39.896    0.12658  2.7498E-2
        70.     41.437    0.14952  2.7605E-2
        70.     42.849    0.10818  3.5783E-2
        70.     44.396    0.10003  2.1730E-2
        70.     45.796    0.11812  2.5661E-2
        70.     47.491  8.2097E-2  2.0405E-2
        70.     48.895  8.2342E-2  2.2941E-2
        70.     50.434    0.10554  2.2928E-2
        70.     51.843  8.9908E-2  1.9532E-2
        70.     53.381    0.11524  2.1276E-2
        70.     54.929    0.10229  2.5424E-2
        70.     56.336  9.4551E-2  2.3501E-2
        70.     58.014    0.12628  2.3314E-2
        70.     59.421    0.11205  1.6881E-2
        70.     60.976  7.4742E-2  1.6237E-2
        70.     62.399  3.5954E-2  1.3007E-2
        70.     63.825  1.5301E-2  1.0805E-2
ENDDATA            126
ENDSUBENT          143
SUBENT        22761004   20070813   20071206   20071125       2187
BIB                  3          6
REACTION   (6-C-0(N,X)1-H-1,,DA/DE)
SAMPLE     .For angles  40 and 70 degrees a disk-shaped sample
            was used, 7 cm diameter, 110 mg/cm2 thick.
            For 12 degree angle an annular sample was used as a
            disk with inner diameter 6 cm, outer diam. 9.6 cm
STATUS     (CURVE)  Fig.5 of main reference
ENDBIB               6
COMMON               4          3
EN         EN-RSL     E-ERR-DIG  ERR-DIG
MEV        MEV        MEV        PER-CENT
  64.5        2.6      0.10005    1.3132E-02
ENDCOMMON            3
DATA                 4        134
ANG        E          DATA       DATA-ERR
ADEG       MEV        MB/SR/MEV  MB/SR/MEV
        12.     10.418    0.81526    0.22512
        12.     11.525    0.78619     0.2615
        12.     12.393    0.61894    0.17111
        12.     13.477     1.1861    0.21691
        12.     14.345    0.93374    0.22998
        12.     15.452    0.90044    0.22178
        12.     16.313    0.86754    0.21367
        12.     17.419    0.87109    0.21455
        12.     18.403    0.83964     0.2068
        12.     19.385    0.87743    0.21611
        12.     20.366    0.91692    0.19735
        12.     21.342     1.1262    0.24239
        12.     22.331    0.92359    0.22748
        12.     23.432       1.09    0.19934
        12.     24.416     1.0506    0.22613
        12.     25.398     1.0545    0.28919
        12.     26.383     1.0164    0.22748
        12.     27.369    0.90367     0.1945
        12.     28.472    0.98371    0.22016
        12.     29.331     1.0275    0.22997
        12.     30.425     1.4253    0.26066
        12.     31.419     1.0355    0.23175
        12.     32.522     1.1272    0.25227
        12.      33.51    0.96249    0.31452
        12.     34.493    0.96598    0.26493
        12.     35.466     1.2863    0.28789
        12.     36.456     1.0549    0.28931
        12.     37.436     1.1478    0.25689
        12.     38.536     1.3546    0.30317
        12.     39.401     1.1562    0.20274
        12.     40.384     1.1604     0.2597
        12.     41.368     1.1185    0.30675
        12.     42.461     1.6154    0.24101
        12.     43.441     1.7577    0.26224
        12.     44.544     1.9134    0.28547
        12.     45.537     1.4473    0.26469
        12.     46.522     1.3399    0.24503
        12.     47.511     1.1441    0.28179
        12.      48.51    0.70717    0.19528
        12.     49.504    0.51376    0.15659
        12.     50.602    0.63131    0.11545
        12.     51.578    0.77541    0.11569
        12.     52.562    0.74742    0.11151
        12.     53.564    0.42613  9.1715E-2
        12.     54.617  5.4504E-2  3.9553E-2
        12.     57.537    0.12869  6.6494E-2
        12.     58.514    0.15181  8.1343E-2
        12.     59.448  1.7194E-2  1.3344E-3
        12.     60.503  7.6953E-2  5.8985E-2
        12.     63.465  5.1942E-2  3.0593E-2
        40.     10.523    0.21435  7.7003E-2
        40.     11.493    0.34919  8.6135E-2
        40.     12.475    0.35006    0.15379
        40.      13.45    0.44735  7.8596E-2
        40.     14.553    0.48641  8.9217E-2
        40.      15.54     0.3825    0.11675
        40.     16.523    0.35363    0.13518
        40.     17.511    0.26706  8.8874E-2
        40.     18.482    0.43507  9.7562E-2
        40.     19.468    0.35626  9.7899E-2
        40.      20.45    0.34297     0.1311
        40.      21.43     0.3728    0.12207
        40.      22.53    0.43952    0.19309
        40.     23.516    0.37476    0.14325
        40.     24.498    0.36079    0.15851
        40.     25.479    0.37661    0.14487
        40.     26.583    0.37766    0.16592
        40.     27.568    0.32202    0.10723
        40.     28.546    0.37953    0.11584
        40.     29.527    0.39617    0.13184
        40.     30.508    0.39715    0.13004
        40.     31.489    0.41457    0.13575
        40.     32.594    0.39924  9.8480E-2
        40.     33.575    0.40022    0.15299
        40.     34.556    0.41778    0.18354
        40.     35.542     0.3421    0.11385
        40.     36.401    0.34284    0.12316
        40.     37.511    0.26968  8.9746E-2
        40.     38.497    0.22083  8.4943E-2
        40.     39.466    0.39008    0.12981
        40.     40.571    0.37565      0.123
        40.     41.551    0.39213    0.17227
        40.     42.536    0.34816    0.10627
        40.     43.519    0.32189  9.8250E-2
        40.     44.615    0.46459    0.10015
        40.     45.472    0.50484  9.2470E-2
        40.     46.569      0.672    0.10042
        40.     47.708    0.15078  5.4198E-2
        40.     48.566    0.15735  7.8481E-2
        40.     49.539    0.22704  5.6003E-2
        40.     50.655    0.14009  5.3915E-2
        40.     53.524  1.7917E-2  5.9624E-3
        40.     56.589  2.0385E-2  7.3234E-3
        40.     57.564  2.7127E-2  2.4426E-2
        40.     60.545  5.6397E-3  3.3249E-3
        70.     10.468    0.21785    0.10769
        70.     11.449    0.22738  6.8903E-2
        70.     12.424    0.30191  6.4579E-2
        70.     13.412    0.23797  9.0042E-2
        70.     14.397    0.21156    0.10441
        70.      15.37    0.30437  7.4514E-2
        70.      16.48    0.24982  6.7978E-2
        70.     17.459    0.27142  7.3857E-2
        70.     18.451    0.18968  5.2070E-2
        70.      19.47  4.4880E-2
        70.     20.409    0.23307  6.3422E-2
        70.     21.401    0.16288  6.9991E-2
        70.     22.384     0.1569  5.9369E-2
        70.     23.367    0.15114  6.5716E-2
        70.     24.346    0.16421  6.2134E-2
        70.     25.446     0.2013  4.4707E-2
        70.     26.436    0.14644  6.6207E-2
        70.      27.42    0.13551  6.6992E-2
        70.     28.519    0.17292  3.8404E-2
        70.     29.392  9.8849E-2  4.2475E-2
        70.      30.49    0.13129  4.9678E-2
        70.     31.469    0.14849  4.0405E-2
        70.      32.46    0.10377  5.7248E-2
        70.     33.466  4.1359E-2  3.8865E-2
        70.      34.44  5.4915E-2  3.7756E-2
        70.     35.422  5.5064E-2  3.4871E-2
        70.     36.404  5.5214E-2  3.4959E-2
        70.     37.394  4.0166E-2  3.2093E-2
        70.      38.39  2.3909E-2
        70.     40.463  4.0507E-2  3.2036E-2
        70.     41.431  6.8420E-2  3.3824E-2
        70.     42.516    0.14706  4.0370E-2
        70.     43.387  9.4821E-2  3.3808E-2
        70.      44.51  4.6201E-2  2.7085E-2
        70.     45.528  1.1379E-2
        70.     47.736  1.2405E-2
        70.     52.555  3.6248E-3
        70.     54.635  4.6378E-3
        70.     55.493  4.8390E-3
ENDDATA            136
ENDSUBENT          151
SUBENT        22761005   20070813   20071206   20071125       2187
BIB                  3          6
REACTION   (6-C-0(N,X)1-H-2,,DA/DE)
SAMPLE     .For angles  40 and 70 degrees a disk-shaped sample
            was used, 7 cm diameter, 110 mg/cm2 thick.
            For 12 degree angle an annular sample was used as a
            disk with inner diameter 6 cm, outer diam. 9.6 cm
STATUS     (CURVE)    Fig.6 of main reference
ENDBIB               6
COMMON               4          3
EN         EN-RSL     E-ERR-DIG  ERR-DIG
MEV        MEV        MEV        PER-CENT
  64.5        2.6      6.2012E-02 1.9916E-02
ENDCOMMON            3
DATA                 4        110
ANG        E          DATA       DATA-ERR
ADEG       MEV        MB/SR/MEV  MB/SR/MEV
        12.     13.441    0.28127    0.24582
        12.     14.536    0.37482    0.23338
        12.     15.544    0.11575
        12.     16.526    0.10274
        12.      17.49    0.19725     0.1886
        12.     18.457    0.33527    0.20355
        12.     19.441    0.27437    0.20539
        12.     20.548    0.22461    0.19851
        12.      21.51     0.4491    0.20486
        12.     22.492    0.41514    0.18944
        12.     23.462    0.59983    0.20018
        12.     24.566    0.55465    0.18522
        12.     25.556    0.35575    0.19128
        12.     26.522    0.62974    0.19277
        12.     27.503    0.58211     0.2097
        12.      28.49    0.42174     0.1729
        12.     29.584    0.58531    0.19546
        12.     30.568    0.49885    0.17971
        12.     31.543    0.58834    0.19635
        12.     32.528    0.46231    0.17831
        12.     33.512    0.39402    0.18826
        12.     34.499    0.28547    0.18611
        12.     35.594    0.38042    0.18176
        12.     36.566    0.50679    0.20785
        12.     37.662    0.64847    0.17986
        12.     38.645    0.57558    0.19209
        12.     39.618    0.73627    0.20421
        12.       40.6    0.65351    0.16169
        12.     41.712    0.43668    0.18943
        12.     42.561    0.60565     0.1854
        12.     43.532    0.87509    0.21651
        12.      44.63     1.0324     0.1897
        12.     45.724     1.4328    0.21481
        12.     46.583     1.2714     0.2749
        12.     47.563     1.2746    0.31536
        12.     48.761     3.8276    0.57383
        12.     49.729     6.2469
        12.     50.715     4.7135
        12.     51.607     1.0951    0.33524
        40.     13.513    0.19282  8.3755E-2
        40.     14.485    0.26765    0.10992
        40.     15.468    0.22803  9.9005E-2
        40.     16.458    0.14031  9.3522E-2
        40.     17.431    0.17954  9.9975E-2
        40.     18.438  5.3119E-2
        40.     19.503    0.26028    0.10053
        40.     20.492     0.1668  9.2883E-2
        40.      21.46    0.27244  9.1050E-2
        40.     22.458    0.12107  8.6771E-2
        40.     23.448  7.4493E-2
        40.     24.525     0.2151  8.3078E-2
        40.     25.514    0.13785  9.1884E-2
        40.     26.484    0.20756  9.0118E-2
        40.     27.595    0.13305  8.4928E-2
        40.     28.556    0.28891  8.8569E-2
        40.     29.536    0.27808  8.5251E-2
        40.     30.517      0.257  9.2659E-2
        40.     31.492    0.30316  7.5120E-2
        40.     32.594    0.30401  7.5331E-2
        40.     33.583    0.19482  9.7252E-2
        40.     34.557    0.23936  9.2447E-2
        40.     35.531    0.30628  9.3896E-2
        40.      36.64    0.21298  8.2260E-2
        40.     37.618    0.23161  9.5121E-2
        40.     38.594    0.26232  8.7670E-2
        40.     39.575    0.24243  7.4320E-2
        40.      40.57    0.11686  9.6538E-2
        40.     41.536    0.20705  7.9969E-2
        40.     42.638    0.20763  8.5311E-2
        40.       43.5    0.16302  9.6404E-2
        40.     44.598     0.1847  9.5885E-2
        40.     45.564    0.32724    0.10032
        40.      46.66    0.41887  9.0711E-2
        40.     47.626    0.74213    0.13658
        40.     48.609    0.60706    0.13147
        40.     49.619    0.15898     0.1081
        70.     13.578    0.14712  6.3563E-2
        70.      14.56    0.10244  5.0891E-2
        70.     15.543  6.5799E-2  4.9140E-2
        70.     16.393  9.1032E-2  4.7036E-2
        70.     17.491  9.4960E-2  4.3153E-2
        70.     18.468  8.7734E-2  3.7896E-2
        70.     19.444  9.1501E-2  4.7278E-2
        70.     20.431  4.6121E-2  4.0915E-2
        70.      21.52  8.4695E-2  3.2535E-2
        70.     22.618  9.1991E-2  2.8052E-2
        70.     23.474  8.1610E-2  3.3340E-2
        70.     24.455  6.1610E-2  3.6277E-2
        70.     25.553  6.1724E-2  3.0663E-2
        70.     26.545  2.2521E-2  2.5703E-3
        70.     27.508  5.4860E-2  3.4053E-2
        70.     28.486  4.8679E-2  2.8662E-2
        70.      29.59  3.3904E-2  3.1349E-2
        70.     30.562  4.5058E-2  2.5767E-2
        70.     31.539  4.5132E-2  3.0568E-2
        70.     32.522  2.7841E-2  2.4822E-2
        70.      33.61  5.5427E-2  2.3948E-2
        70.     34.468  4.3560E-2  2.7038E-2
        70.      35.56  6.8056E-2  2.6143E-2
        70.     36.546  3.5718E-2  2.5912E-2
        70.     37.641  4.7478E-2  2.4537E-2
        70.     38.496  4.3856E-2  2.5819E-2
        70.     39.591  5.5988E-2  2.6652E-2
        70.     40.568  5.3860E-2  2.3264E-2
        70.      41.55  3.7505E-2  2.6784E-2
        70.      42.52  5.8585E-2  2.6623E-2
        70.      43.49  8.4409E-2  2.5728E-2
        70.     44.586  9.9395E-2  2.7447E-2
        70.     45.562    0.10794  3.2899E-2
        70.     46.546  6.3946E-2  2.7621E-2
ENDDATA            112
ENDSUBENT          127
ENDENTRY             5
