ENTRY            22771   20061201   20070306   20070214       2181
SUBENT        22771001   20061201   20070306   20070214       2181
BIB                 10         20
TITLE      .Nuclear structure of 126-Te studied with the
            (n,gamma) reaction
AUTHOR     (T. von Egidy, C.DOLL, J.JOLIE, N.V.WARR, J.KERN,
           M.GRITTIN, L.GENILLOUD)
INSTITUTE  (2GERMUN)  von Egidy, Doll - Physik Departement
           (2SWTFRS)  Jolie, Warr, Kern, Grittin, Genilloud
           (2SWTPSI)  Experimental site
REFERENCE  (J,NP/A,714,355,2003)  Main reference, data  are given
           (J,NIM/A,449,221,2000) Experimental details
FACILITY   (ACCEL,2SWTPSI)  Not specified accelerator
INC-SOURCE (SPALL)  Spallation neutron source SINQ of the Paul
                    Scherrer institute
INC-SPECT  .Cold neutrons, flux 2.8E+8 n/cm2/sec obtained using
            a capillary neutron lens
DETECTOR   (HPGE,NAICR)  High purity germanium detector applied
             with Compton-suppression Na-I(TL) detector. Energy
             resolution is 1.43 keV at 122 keV gamma energy and
             2.13 keV at 1.3 MeV
SAMPLE     .130 milligram of enriched to 91.4% TE-125
HISTORY    (20061201C)   SM
ENDBIB              20
COMMON               1          3
EN-DUMMY
EV
   0.025
ENDCOMMON            3
ENDSUBENT           27
SUBENT        22771002   20061201   20070306   20070214       2181
BIB                  5          8
REACTION   (52-TE-125(N,G)52-TE-126,,SPC,,MXW)
ASSUMED    (ASSUM,52-TE-125(N,G)52-TE-126,,SIG,,MXW) Value
            obtained by averaging of data from REL-REF
EN-SEC     .LVL-INI, LVL-FIN are initial and final levels of
            52-TE-126
REL-REF    (R,,J.HONSATKO+,J,CZJ,44,11,1994)
           (R,,C.T.ZWANG+,J,NP/A,628,386,1998)
ERR-ANALYS (DATA-ERR)  Relative error deltaI/I, percent
ENDBIB               8
COMMON               2          3
ASSUM      ASSUM-ERR
B          B
   1.14       0.21
ENDCOMMON            3
DATA                 6        746
E          E-ERR      DATA       DATA-ERR   LVL-INI    LVL-FIN
KEV        KEV        PC/REAC    PER-CENT   KEV        KEV
  107.28       15.E-02      0.40       35.
  112.24        6.E-02      0.58       35.
  137.66       17.E-02      0.03       36.       2534.      2396.
  149.51        3.E-02      0.19       35.       3008.      2859.
  167.62        3.E-02      0.58       35.       2386.      2218.
  169.02       13.E-02      0.03       34.       2972.      2803.
  176.20        5.E-02      0.25       35.
  180.21        5.E-02      0.16       35.
  181.85       15.E-02      0.90       35.       3015.      2834.
  195.33       14.E-02      0.02       33.       2877.      2682.
  198.31        5.E-02      0.22       35.       2877.      2679.
  199.33       20.E-02      0.35       35.       2586.      2386.
  201.44        7.E-02      0.05       35.       2386.      2184.
  204.1         5.E-01      0.18       35.       2218.      2013.
  208.92       14.E-02      0.01       37.       2975.      2766.
  217.04        5.E-02      0.04       35.       2803.      2586.
  217.04        5.E-02      0.04       35.       3349.      3132.
  232.33        3.E-02      0.22       35.
  236.09       17.E-02      0.01       35.       2013.      1777.
  245.24        3.E-02      0.09        5.       4172.      3927.
  249.13       15.E-02      0.02       23.       2783.      2534.
  257.49        3.E-02      0.45        5.       2386.      2128.
  263.21        5.E-02      0.05        9.
  264.78        4.E-02      0.06        6.
  267.06       12.E-02      0.01       29.       2783.      2515.
  276.26        3.E-02      0.11        5.
  282.67        9.E-02      0.04       43.       3349.      3066.
  287.89        8.E-02      0.04       31.       3262.      2975.
  290.48        3.E-02      0.31        6.       3262.      2972.
  293.42        4.E-02      0.09       14.       3309.      3015.
  297.10       15.E-02      0.17       40.       2515.      2218.
  300.49        3.E-02      0.25        5.
  359.06        4.E-02      0.03        8.       2863.      2504.
  365.91       12.E-02      0.03       12.       3045.      2679.
  370.52        3.E-02      0.10        5.
  372.71        3.E-02      0.69        5.       2386.      2013.
  380.40        3.E-02      0.37        5.
  392.81       10.E-02      0.03        8.       2814.      2421.
  394.84       17.E-02      0.01       21.       2898.      2504.
  396.81        3.E-02      0.05        5.       2783.      2386.
  401.01        5.E-02      0.03        8.       3132.      2731.
  408.00        3.E-02      0.24        5.       2421.      2013.
  414.80       17.E-02      0.18       37.       1777.      1361.
  418.00        4.E-02      0.08        5.
  427.85       20.E-02      0.29        5.       2814.      2386.
  429.94        3.E-02      0.09        5.       3015.      2586.
  440.64        3.E-02      0.22        5.       3019.      2578.
  443.49        3.E-02      0.41        5.
  445.16        3.E-02      0.09        6.
  497.46        3.E-02      0.13        5.       3760.      3262.
  520.55        6.E-02      0.02       19.       2534.      2013.
  532.57        5.E-02      0.05        7.       2309.      1777.
  532.57        5.E-02      0.05        7.       2578.      2045.
  536.03        3.E-02      0.15        5.       3603.      3066.
  537.78        3.E-02      0.20        5.
  543.16        3.E-02      0.15        5.
  546.61        3.E-02      0.15        5.       3132.      2586.
  552.00        6.E-02      0.08       11.
  553.19       10.E-02      0.04       28.       2863.      2309.
  553.19       10.E-02      0.04       28.       2975.      2421.
  555.20       10.E-02      0.04       19.       4880.      4325.
  560.47       10.E-02      0.05       15.
  561.77        4.E-02      0.11        7.
  565.43       10.E-02      0.08        7.       2679.      2114.
  565.43       10.E-02      0.08        7.       3045.      2480.
  590.47        3.E-02      0.05        5.
  592.84        5.E-02      0.03       10.       2013.      1420.
  595.94        6.E-02      0.04       10.       4172.      3576.
  597.52        9.E-02      0.12       19.       3019.      2421.
  598.47       20.E-02      0.06       34.       2783.      2184.
  600.23       22.E-02      0.08       49.
  606.51        4.E-02      0.07        5.
  610.14        3.E-02      0.04        5.
  622.84        3.E-02      0.21        5.
  624.93        3.E-02      0.34        5.       2045.      1420.
  629.63        5.E-02      0.04        6.       3015.      2386.
  633.64        3.E-02      0.08        5.       2679.      2045.
  636.00        3.E-02      0.15        5.
  643.86        6.E-02      0.05        7.
  649.22       18.E-02      0.01       24.       2834.      2184.
  651.62        6.E-02      1.29        8.       2013.      1361.
  654.38        5.E-02      0.07        6.       2783.      2128.
  663.72       10.E-02      0.34       19.       3144.      2480.
  663.72       10.E-02      0.34       19.       3249.      2586.
  663.72       10.E-02      0.34       19.       3807.      3144.
  666.35        4.E-02     67.00        5.        666.         0.
  669.40        4.E-02      0.13        8.
  671.36        4.E-02      0.06        7.
  673.26        5.E-02      0.15        5.       3923.      3249.
  677.27        3.E-02      0.10        5.       2859.      2182.
  680.47        3.E-02      0.04        8.       3066.      2386.
  685.77       10.E-02      0.07        9.       2731.      2045.
  695.02        3.E-02      6.57        5.       1361.       666.
  699.1         3.E-01      0.01       41.       2812.      2114.
  701.36        3.E-02      0.06        5.
  708.16        3.E-02      1.34        5.       2128.      1420.
  710.73        4.E-02      0.10        7.       3973.      3262.
  721.20        7.E-02      0.04       50.       2498.      1777.
  726.10        4.E-02      0.11       13.
  729.24        3.E-02      0.05        6.       4652.      3923.
  731.01        3.E-02      0.07        5.       2744.      2013.
  733.19        3.E-02      0.09        5.
  739.04        5.E-02      0.02       10.       2515.      1777.
  748.60        4.E-02      0.07        5.       4325.      3576.
  753.81        8.E-02     14.63        5.       1420.       666.
  757.15        9.E-02      0.02       14.       2534.      1777.
  761.31        3.E-02      0.19        5.       2182.      1420.
  762.51        4.E-02      0.12        6.
  764.05        6.E-02      0.04       11.       2184.      1420.
  766.98        3.E-02      0.39        5.       2128.      1361.
  768.73        4.E-02      0.06        5.       2814.      2045.
  768.73        4.E-02      0.06        5.       3603.      2834.
  780.25       10.E-02      0.07        5.       3799.      3019.
  782.39        3.E-02      0.13        5.
  794.24        3.E-02      0.11        5.       4767.      3973.
  807.28       21.E-02      0.03       24.       2936.      2128.
  816.61        6.E-02      0.05        9.       3202.      2386.
  827.85        3.E-02      0.08        5.
  832.69       10.E-02      0.05       37.       3807.      2975.
  840.75       14.E-02      0.03       37.       3973.      3132.
  841.94       10.E-02      0.05       18.
  846.05       21.E-02      0.02       31.       2859.      2013.
  847.47        5.E-02      0.08        8.       4157.      3309.
  849.58        3.E-02      0.12        5.       2863.      2013.
  856.82        3.E-02      0.84        5.       2218.      1361.
  878.43        3.E-02      0.06        5.
  884.83        8.E-02      0.02       21.       3066.      2182.
  889.01        3.E-02      0.37        5.       2309.      1420.
  906.85        3.E-02      0.05        6.       3973.      3066.
  922.99        3.E-02      0.17        5.       3309.      2386.
  922.99        3.E-02      0.17        5.       4172.      3249.
  925.67        3.E-02      0.20        5.
  937.70        3.E-02      0.20        5.
  944.25        3.E-02      0.19        5.       3953.      3008.
  947.79        3.E-02      0.37        5.       2309.      1361.
  962.07        3.E-02      0.11        5.
  965.60        3.E-02      0.16        5.       2386.      1420.
  989.86        5.E-02      0.02        6.       2766.      1777.
  999.63        7.E-02      0.79        5.       3309.      2309.
 1024.46       19.E-02      0.13       29.       2386.      1361.
 1031.31        5.E-02      0.06        5.
 1035.17        8.E-02      0.04        7.       2396.      1361.
 1037.09        9.E-02      0.03        9.       3973.      2936.
 1050.18        4.E-02      0.10        5.
 1054.50        3.E-02      0.17        5.
 1065.14       10.E-02      0.03        9.       3249.      2184.
 1066.76        4.E-02      0.05        6.
 1073.90        4.E-02      0.04        5.       3202.      2128.
 1075.94        3.E-02      0.07        5.       4884.      3807.
 1083.23        9.E-02      0.02       15.       2504.      1420.
 1088.78        9.E-02      0.05        9.       3202.      2114.
 1088.78        9.E-02      0.05        9.       3923.      2834.
 1090.60        7.E-02      0.05       11.
 1099.23        6.E-02      0.05        7.       3882.      2783.
 1099.23        6.E-02      0.05        7.       4449.      3349.
 1107.68        3.E-02      0.13        5.
 1113.74       11.E-02      0.02       12.       2534.      1420.
 1118.48       10.E-02      0.19        5.       2480.      1361.
 1120.84        6.E-02      0.05        6.
 1124.25       10.E-02      0.07        5.       3927.      2803.
 1124.25       10.E-02      0.07        5.       4700.      3576.
 1128.56        6.E-02      0.06        7.       3807.      2679.
 1131.48        3.E-02      0.09        5.
 1141.15       10.E-02      0.05       24.       4157.      3015.
 1147.98        3.E-02      0.30        5.
 1154.07        4.E-02      0.03        9.       2515.      1361.
 1157.54        5.E-02      0.05        6.       2578.      1420.
 1159.32       20.E-02      0.04        6.       3973.      2814.
 1172.56        3.E-02      0.18        5.       2534.      1361.
 1183.84        4.E-02      0.07        5.
 1185.83        6.E-02      0.09        9.
 1189.46       14.E-02      0.01       22.       3202.      2013.
 1195.31        3.E-02      0.40        5.       3309.      2114.
 1207.00        7.E-02      1.48        5.       1873.       666.
 1214.04        3.E-02      0.35        5.
 1216.44        3.E-02      0.44        5.       2578.      1361.
 1220.02       16.E-02      0.01       15.       2640.      1420.
 1222.18        4.E-02      0.07        5.
 1224.19        3.E-02      0.15        5.       2586.      1361.
 1247.06        4.E-02      0.04        5.
 1254.22        5.E-02      0.07        6.
 1255.86        4.E-02      0.11        5.
 1258.59        3.E-02      0.19        5.       2679.      1420.
 1261.77        3.E-02      0.48        5.       2682.      1420.
 1264.09       10.E-02      0.06        9.
 1265.67       10.E-02      0.04       15.
 1270.56        5.E-02      0.04        6.       3953.      2682.
 1275.29        6.E-02      0.04        6.
 1289.60        3.E-02      0.13        5.
 1300.91       13.E-02      0.09       13.
 1304.08        7.E-02      0.03        9.       3349.      2045.
 1311.03        3.E-02      0.35        5.       2731.      1420.
 1317.50        3.E-02      0.47        5.       2679.      1361.
 1320.37       20.E-02      0.02       10.       2682.      1361.
 1322.95        3.E-02      0.09        5.
 1327.33        4.E-02      0.07        5.       3807.      2480.
 1344.33        5.E-02      0.08        5.
 1346.83        5.E-02      0.55        5.       2013.       666.
 1367.40        3.E-02      0.25        5.
 1369.85        3.E-02      0.29        5.       2731.      1361.
 1378.83       16.E-02      0.72       21.       2045.       666.
 1382.59       12.E-02      0.07       13.       2744.      1361.
 1393.10       20.E-02      0.39        7.       2814.      1420.
 1395.76       10.E-02      0.08        7.
 1413.52       20.E-02      1.00        5.       2834.      1420.
 1416.85        8.E-02      0.04        8.
 1420.14       15.E-02      0.91        5.       1420.         0.
 1425.16        9.E-02      0.06        7.
 1435.56       11.E-02      0.08       16.       3309.      1873.
 1436.86        6.E-02      0.22        5.
 1438.70       20.E-02      0.15        5.       2859.      1420.
 1441.16        5.E-02      0.24        6.       2803.      1361.
 1442.30       10.E-02      0.09       17.       2863.      1420.
 1447.21        3.E-02      1.12        5.       2114.       666.
 1450.15        6.E-02      0.04        5.
 1452.23        4.E-02      0.07        5.
 1454.59        6.E-02      0.05        5.
 1456.35        6.E-02      0.04        6.
 1462.03        3.E-02      0.41        5.       2128.       666.
 1477.71        5.E-02      0.14        5.       2898.      1420.
 1486.38       16.E-02      0.03       33.       4505.      3019.
 1488.83       21.E-02      0.35       18.       3603.      2114.
 1493.77       10.E-02      0.07        5.       4172.      2679.
 1496.02        8.E-02      0.04        9.
 1497.83       10.E-02      0.06        7.
 1501.41       10.E-02      0.06        6.       2863.      1361.
 1507.06        3.E-02      0.16        5.
 1509.33       10.E-02      0.04       10.
 1515.14        9.E-02      2.12        5.       2182.       666.
 1518.03       23.E-02      2.45        5.       2184.       666.
 1530.94        4.E-02      0.04        5.
 1535.27       10.E-02      0.06       26.
 1547.24        5.E-02      0.05        5.
 1549.61       20.E-02      0.08        5.
 1551.63        5.E-02      0.17        5.       2972.      1420.
 1553.32        4.E-02      0.24        5.
 1556.79       11.E-02      0.04       19.       4700.      3144.
 1594.77       10.E-02      0.04        5.       4172.      2578.
 1614.45       10.E-02      0.28        5.       3799.      2184.
 1637.85        4.E-02      0.08        5.
 1643.64        8.E-02      0.05       11.
 1646.2         3.E-01      0.64        8.       3008.      1361.
 1662.58        9.E-02      0.04        8.
 1691.15        3.E-02      0.16        5.
 1693.76        8.E-02      0.04       13.       3807.      2114.
 1696.9         5.E-01      0.05       50.       3882.      2184.
 1700.4         3.E-01      0.09       25.       3882.      2182.
 1700.40        3.E-02      0.09       25.       4767.      3066.
 1705.88        7.E-02      0.21        7.
 1709.25        6.E-02      0.05        7.
 1713.32       12.E-02      0.04       32.
 1716.51        5.E-02      0.05        6.       4919.      3202.
 1719.54        3.E-02      1.72        5.       2386.       666.
 1723.47        3.E-02      0.17        5.       3144.      1420.
 1747.36        5.E-02      0.22        5.
 1752.90        6.E-02      0.10        8.
 1754.85        5.E-02      1.27        5.       2421.       666.
 1760.67        5.E-02      0.03        8.       4505.      2744.
 1769.43        5.E-02      0.05        5.       4449.      2679.
 1775.16        4.E-02      0.11        5.       4919.      3144.
 1782.05        3.E-02      0.13        5.       3202.      1420.
 1804.91        4.E-02      0.15        5.
 1813.39        7.E-02      0.10        5.       2480.       666.
 1817.99        6.E-02      0.05        5.       4652.      2834.
 1826.23       11.E-02      0.03       10.       4505.      2679.
 1829.26        3.E-02      0.14        5.       3249.      1420.
 1834.16        6.E-02      0.09        5.
 1837.14        3.E-02      0.99        5.       2504.       666.
 1840.07        7.E-02      0.07        5.       4776.      2936.
 1851.82        5.E-02      0.08        5.
 1854.79        4.E-02      0.11        5.
 1864.72        7.E-02      0.05        8.       4884.      3019.
 1866.62       10.E-02      0.05        6.       4700.      2834.
 1873.71        4.E-02      0.04        5.       4919.      3045.
 1877.64        3.E-02      0.08        5.
 1881.97        6.E-02      0.02        9.       3927.      2045.
 1888.57       15.E-02      0.60        5.       3309.      1420.
 1891.22        3.E-02      0.19        5.
 1901.41        4.E-02      0.07        5.
 1905.47        5.E-02      0.03        7.       4880.      2975.
 1911.39       13.E-02      0.72        5.       2578.       666.
 1913.39        8.E-02      0.06       11.       4776.      2863.
 1919.06        9.E-02      2.34        5.       2586.       666.
 1927.06        5.E-02      0.05        6.       4505.      2578.
 1927.06        5.E-02      0.05        6.       4672.      2744.
 1934.30        6.E-02      0.02       33.       3807.      1873.
 1944.04        4.E-02      0.05        5.       4880.      2936.
 1956.77        5.E-02      0.08        5.
 1973.49        3.E-02      0.42        5.       2640.       666.
 1975.18       10.E-02      0.04       13.       4157.      2182.
 1978.77        5.E-02      0.06        5.       4024.      2045.
 1981.06        5.E-02      0.05        6.
 1998.10        5.E-02      0.16        5.
 2000.96       22.E-02      0.03       23.       4505.      2504.
 2012.60        6.E-02      0.04        5.       2679.       666.
 2015.71        3.E-02      0.96        5.       2682.       666.
 2023.83        6.E-02      0.06        6.
 2029.93        4.E-02      0.05        5.
 2045.17        3.E-02      1.52        5.       2045.         0.
 2048.92        4.E-02      0.06        7.
 2053.68        5.E-02      0.05        7.       3927.      1873.
 2058.64        5.E-02      0.05        7.       4172.      2114.
 2064.6         3.E-01      0.20        5.       2731.       666.
 2071.68        4.E-02      0.14        5.
 2077.49       15.E-02      0.07       22.       2744.       666.
 2078.83       10.E-02      0.09       17.
 2083.21        5.E-02      0.05        6.
 2086.83        6.E-02      0.04        5.
 2102.49        5.E-02      0.04        7.
 2106.30        7.E-02      0.05        7.
 2108.55        8.E-02      0.04        6.
 2116.40        3.E-02      0.91        5.       2783.       666.
 2136.12        5.E-02      0.04        5.       2803.       666.
 2145.54       12.E-02      0.21        5.
 2147.72       12.E-02      0.27        5.       2814.       666.
 2163.75        5.E-02      0.04        7.
 2167.44        3.E-02      0.35        5.       2834.       666.
 2181.67       17.E-02      0.38        5.       2182.         0.
 2192.37        5.E-02      0.18        6.       2859.       666.
 2194.07       15.E-02      0.08        9.
 2196.01       22.E-02      0.04       14.       2863.       666.
 2197.94        9.E-02      0.05       11.
 2204.36        6.E-02      0.06        6.       4884.      2679.
 2206.57       10.E-02      0.06        9.
 2210.94        4.E-02      0.22        5.       2877.       666.
 2215.22        4.E-02      0.08        5.
 2231.86        4.E-02      0.17        5.       4748.      2515.
 2256.74        9.E-02      0.11       13.
 2260.60        5.E-02      0.12        5.       4776.      2515.
 2262.86        8.E-02      0.07        8.
 2269.55        6.E-02      0.06        5.       2936.       666.
 2280.07        6.E-02      0.05        6.
 2297.35        6.E-02      0.04        6.
 2305.39        4.E-02      0.22        5.       2972.       666.
 2308.15        4.E-02      0.28        5.       2975.       666.
 2311.63       12.E-02      0.05       11.       4325.      2013.
 2313.85        9.E-02      0.06        9.
 2326.92       20.E-02      0.23        5.       4748.      2421.
 2342.01       20.E-02      0.10        5.       3008.       666.
 2345.94        6.E-02      0.04        5.       4767.      2421.
 2345.94        6.E-02      0.04        5.       4880.      2534.
 2349.42        5.E-02      0.08        5.       4884.      2534.
 2366.14        8.E-02      0.07        5.
 2368.28        5.E-02      0.10        5.
 2371.92        4.E-02      0.08        5.
 2379.48       20.E-02      0.34        5.       3045.       666.
 2385.71        7.E-02      0.12        5.
 2397.66        6.E-02      0.06        7.
 2399.91        4.E-02      0.14        5.       3066.       666.
 2403.44       10.E-02      0.06        5.       4449.      2045.
 2403.44       10.E-02      0.06        5.       4884.      2480.
 2406.42        7.E-02      0.05        7.
 2409.24        6.E-02      0.05        7.
 2414.91        8.E-02      0.05       11.       4919.      2504.
 2421.31       12.E-02      0.07       21.       2421.         0.
 2434.82        6.E-02      0.05        7.
 2451.11       15.E-02      0.04        8.       4325.      1873.
 2453.78       14.E-02      0.05       11.
 2458.73       12.E-02      0.05        8.       4880.      2421.
 2461.07       11.E-02      0.07        6.
 2465.84       10.E-02      0.05        7.       3132.       666.
 2474.61        6.E-02      0.05        5.
 2477.33        4.E-02      0.14        5.       3144.       666.
 2487.28       10.E-02      0.02       11.       4672.      2184.
 2492.51        4.E-02      0.07        5.
 2501.28        7.E-02      0.11        5.
 2503.55        5.E-02      0.21        5.       2504.         0.
 2506.08        7.E-02      0.05        6.
 2516.04        5.E-02      0.09        5.       4700.      2184.
 2535.65       10.E-02      0.07        5.       3202.       666.
 2546.14       12.E-02      0.05       27.
 2557.34        5.E-02      0.09        5.
 2572.89        6.E-02      0.04        6.
 2575.55        5.E-02      0.04        6.
 2583.15        6.E-02      0.09        9.       3249.       666.
 2583.15        6.E-02      0.09        9.       4767.      2184.
 2593.56       13.E-02      0.04       11.
 2596.07        5.E-02      0.09        5.       3262.       666.
 2603.58        5.E-02      0.08        5.       4024.      1420.
 2617.88        6.E-02      0.04        5.
 2631.89        6.E-02      0.08        5.
 2638.78        6.E-02      0.08        5.       4652.      2013.
 2638.78        6.E-02      0.08        5.       4767.      2128.
 2642.57        4.E-02      1.42        5.       3309.       666.
 2645.40        6.E-02      0.10        5.
 2657.04       10.E-02      0.05        7.
 2666.48        9.E-02      0.05        5.
 2670.01        9.E-02      0.07        7.
 2678.82        4.E-02      0.40        5.       2679.         0.
 2682.79        4.E-02      0.59        5.       3349.       666.
 2704.81       16.E-02      0.07        7.
 2720.16        4.E-02      0.30        5.
 2730.56       10.E-02      0.06        7.       4776.      2045.
 2734.05        9.E-02      0.07       10.
 2736.07       14.E-02      0.04       14.       4157.      1420.
 2741.94        7.E-02      0.04        8.
 2746.98        4.E-02      0.34        5.
 2756.71        5.E-02      0.07        5.
 2767.14        5.E-02      0.09        5.
 2783.39        6.E-02      0.07        5.
 2792.53        5.E-02      0.09        5.
 2795.54        7.E-02      0.08        5.
 2802.30       10.E-02      0.05        5.       2803.         0.
 2812.41       15.E-02      1.10        5.       2812.         0.
 2818.94        5.E-02      0.10        5.
 2825.69        5.E-02      0.10        5.
 2828.65        5.E-02      0.18        5.
 2834.65        5.E-02      0.07        5.       4880.      2045.
 2842.67       12.E-02      0.05        8.
 2854.60        6.E-02      0.05        5.
 2859.97        5.E-02      0.14        5.
 2873.96        9.E-02      0.14       12.
 2877.25        5.E-02      0.31        5.       2877.         0.
 2897.62       12.E-02      0.77        5.       2898.         0.
 2900.67       12.E-02      0.04       11.
 2903.35        9.E-02      0.05        8.
 2909.89        5.E-02      0.53        5.       3576.       666.
 2935.72        9.E-02      0.37       10.       2936.         0.
 2955.80        7.E-02      0.06        8.
 2958.03        5.E-02      0.14        5.
 2974.4         5.E-01      1.90        5.       2975.         0.
 2992.12        8.E-02      0.05        7.
 2994.55        7.E-02      0.06        6.
 3009.67        5.E-02      0.10        5.       4884.      1873.
 3015.29        6.E-02      0.69        6.       3015.         0.
 3018.50        6.E-02      0.09        5.       3019.         0.
 3028.3         7.E-01      0.03       53.       4449.      1420.
 3039.08        5.E-02      0.19        5.
 3044.6         3.E-01      0.18       17.       3045.         0.
 3057.03        9.E-02      0.04        8.
 3066.28       20.E-02      0.05        6.       3066.         0.
 3080.56       10.E-02      0.04        6.
 3084.47        7.E-02      0.06        5.       4505.      1420.
 3090.5         3.E-01      0.22        5.       4511.      1420.
 3093.8         4.E-01      0.01       24.       3760.       666.
 3097.24       10.E-02      0.04        6.
 3100.51       12.E-02      0.04        6.
 3106.55        9.E-02      0.05        5.
 3110.00       11.E-02      0.05        6.
 3124.97        5.E-02      0.09        5.
 3132.34       20.E-02      0.41       10.       3799.       666.
 3140.8         4.E-01      0.85        5.       3807.       666.
 3152.99        9.E-02      0.06        8.
 3155.04       14.E-02      0.04       10.
 3161.01        9.E-02      0.06        5.
 3170.41       11.E-02      0.07        5.
 3175.14       10.E-02      0.08        9.
 3181.72        9.E-02      0.05        5.
 3215.85        5.E-02      0.23        5.       3882.       666.
 3220.58        6.E-02      0.08        5.
 3223.51        5.E-02      0.22        5.
 3230.61        7.E-02      0.04        6.
 3240.72       19.E-02      0.04       20.
 3246.28       10.E-02      0.05        5.
 3249.37        5.E-02      0.26        5.       3249.         0.
 3256.13        6.E-02      0.10        5.       3923.       666.
 3262.26        5.E-02      0.18        5.       3262.         0.
 3269.06        6.E-02      0.08        5.
 3279.37       24.E-02      0.15       22.
 3291.04        9.E-02      0.09        5.
 3294.22        9.E-02      0.06        5.
 3298.47        5.E-02      0.30        5.
 3306.75        6.E-02      0.10        5.       3973.       666.
 3309.45        7.E-02      0.09        5.
 3322.12        6.E-02      0.11        5.
 3329.04        7.E-02      0.10        5.
 3335.40       11.E-02      0.05       10.
 3349.20       20.E-02      0.45        5.       3349.         0.
 3353.33        9.E-02      0.05        5.
 3357.14        6.E-02      0.18        5.
 3364.33        6.E-02      0.17        5.
 3368.63        7.E-02      0.05        5.
 3373.13        6.E-02      0.07        5.
 3384.22       10.E-02      0.07        6.
 3390.59       19.E-02      0.04       13.
 3428.09        8.E-02      0.05        6.
 3441.45        7.E-02      0.05        5.
 3450.44        6.E-02      0.09        5.
 3459.30       20.E-02      0.05        5.       4880.      1420.
 3463.13        9.E-02      0.07        6.       4884.      1420.
 3479.36        7.E-02      0.05        5.
 3491.09       11.E-02      0.05        8.
 3495.53        8.E-02      0.05        5.
 3498.73       19.E-02      0.03        9.       4919.      1420.
 3505.90       11.E-02      0.10        5.       4172.       666.
 3514.22       20.E-02      0.07        5.       4935.      1420.
 3527.22       12.E-02      0.06       11.
 3529.37       10.E-02      0.07       10.
 3534.74        7.E-02      0.06        5.
 3543.40        7.E-02      0.09        5.
 3547.49        6.E-01      0.10        5.
 3563.63        9.E-02      0.05        5.
 3566.17        7.E-02      0.11        5.
 3576.41        7.E-02      0.17        5.       3576.         0.
 3578.81       11.E-02      0.06        7.
 3592.63       11.E-02      0.06        5.
 3602.9         3.E-01      0.01       38.       3603.         0.
 3614.84        7.E-02      0.06        7.
 3636.77        7.E-02      0.06        8.
 3652.90        7.E-02      0.05        7.
 3658.39        6.E-02      0.09        5.       4325.       666.
 3665.02       11.E-02      0.05        7.
 3668.46        8.E-02      0.07        5.
 3676.18        7.E-02      0.09        5.
 3683.87        6.E-02      0.72        5.
 3689.90        7.E-02      0.05        5.
 3705.99        9.E-02      0.09        5.
 3713.16        7.E-02      0.65        5.
 3716.12        9.E-02      0.11        5.
 3725.83        6.E-02      0.21        5.
 3734.08       10.E-02      0.07        6.
 3736.79        9.E-02      0.07        6.
 3742.19       10.E-02      0.04        8.
 3745.24        7.E-02      0.11        5.
 3749.25        7.E-02      0.07        6.
 3759.62        7.E-02      0.11        5.       3760.         0.
 3772.72        6.E-02      0.14        5.
 3782.25       10.E-02      0.12        6.       4449.       666.
 3792.57       16.E-02      0.05        8.
 3794.97       12.E-02      0.06        8.
 3798.63       20.E-02      0.06        5.       3799.         0.
 3819.19        7.E-02      0.21        5.
 3830.77        6.E-02      0.13        5.
 3835.63        9.E-02      0.07        5.
 3838.38        6.E-02      0.27        5.       4505.       666.
 3844.29        6.E-02      0.42        5.       4511.       666.
 3864.20        7.E-02      0.06        5.
 3878.50        7.E-02      0.10        5.
 3882.06        7.E-02      0.31        5.       3882.         0.
 3890.43        6.E-02      0.35        5.
 3910.32        8.E-02      0.05       10.
 3915.96        7.E-02      0.07        6.
 3921.88        6.E-02      0.31        5.
 3926.81       20.E-02      0.21        5.       3927.         0.
 3938.29        8.E-02      0.06        6.
 3946.14       10.E-02      0.05       10.
 3952.51       13.E-02      0.07       17.       3953.         0.
 3960.94        8.E-02      0.07        5.
 3966.50       13.E-02      0.29        6.
 3968.80       11.E-02      0.10       11.
 3984.6         3.E-01      0.06       12.       4652.       666.
 3988.83        8.E-02      0.07        5.
 3996.11        8.E-02      0.07        5.
 4005.46       20.E-02      0.07        5.       4672.       666.
 4009.02        9.E-02      0.07        5.
 4012.49        9.E-02      0.05        5.
 4017.29        7.E-02      0.10        5.
 4023.90       11.E-02      0.13        5.       4024.         0.
 4038.74        7.E-02      0.11        5.
 4042.25        9.E-02      0.05        5.
 4050.75        7.E-02      0.13        5.
 4053.73        7.E-02      0.12        5.
 4067.00        6.E-02      0.17        5.
 4071.78        7.E-02      0.08        5.
 4075.94        6.E-02      0.20        5.
 4081.08        6.E-02      0.37        5.       4748.       666.
 4084.68        8.E-02      0.15        5.
 4091.60        8.E-02      0.22        5.
 4100.91       21.E-02      0.09       15.       4767.       666.
 4102.74       19.E-02      0.07       22.
 4109.50        8.E-02      0.09        5.       4776.       666.
 4112.41        9.E-02      0.06        5.
 4117.62        9.E-02      0.04        5.
 4126.54        7.E-02      0.06        5.
 4137.35        8.E-02      0.18        5.
 4142.11       10.E-02      0.20        9.
 4143.69       20.E-02      0.07       26.
 4151.30        7.E-02      0.12        5.
 4155.92        9.E-02      0.06        5.
 4159.04        7.E-02      0.13        5.
 4171.81       16.E-02      0.12       13.       4172.         0.
 4178.85       16.E-02      0.55        5.       9114.      4935.
 4189.28       10.E-02      0.05        5.
 4194.88        7.E-02      0.39        5.       9114.      4919.
 4209.32        7.E-02      0.15        5.
 4213.66       20.E-02      0.33        5.       4880.       666.
 4217.20       20.E-02      0.18        5.       4884.       666.
 4221.04       10.E-02      0.07        6.
 4224.90        7.E-02      0.29        5.
 4230.12        7.E-02      0.45        5.       9114.      4884.
 4233.9         4.E-01      0.25       18.       9114.      4880.
 4258.15        7.E-02      0.25        5.
 4262.26        8.E-02      0.07        5.
 4267.87       16.E-02      0.32        5.       4935.       666.
 4270.43       19.E-02      0.04       23.
 4275.80       12.E-02      0.04        8.
 4279.23        7.E-02      0.15        5.
 4283.69        8.E-02      0.10        5.
 4287.00        9.E-02      0.07        6.
 4297.38       14.E-02      0.04        8.
 4305.48        7.E-02      0.16        5.
 4324.82        7.E-02      0.12        5.       4325.         0.
 4330.98        7.E-02      0.14        5.
 4337.64        7.E-02      0.44        5.       9114.      4776.
 4346.34        9.E-02      0.41        5.       9114.      4767.
 4365.86        8.E-02      0.53        5.       9114.      4748.
 4391.28        9.E-02      0.09        5.
 4395.67        7.E-02      0.20        5.
 4400.56       11.E-02      0.06        7.
 4413.23        9.E-02      0.60        5.       9114.      4700.
 4434.8         3.E-01      0.47       14.
 4438.34       15.E-02      0.06        7.
 4442.25        7.E-02      0.43        5.       9114.      4672.
 4445.44       11.E-02      0.06        7.
 4462.0         3.E-01      0.19        5.       9114.      4652.
 4478.28        8.E-02      0.14        5.
 4480.60       13.E-02      0.05       11.
 4492.02        9.E-02      0.06        5.
 4495.64        8.E-02      0.07        5.
 4505.05       17.E-02      0.44        5.       4505.         0.
 4512.5         3.E-01      0.07       15.
 4519.92       17.E-02      0.07       26.
 4521.56       17.E-02      0.08       24.
 4526.22        7.E-02      0.14        5.
 4531.60        8.E-02      0.06        5.
 4537.06        7.E-02      0.12        5.
 4541.57       11.E-02      0.05        6.
 4545.15       23.E-02      0.17       16.
 4547.57       18.E-02      0.04       16.
 4552.17        7.E-02      0.16        5.
 4568.67        8.E-02      0.06        5.
 4573.53        7.E-02      0.15        5.
 4592.73        8.E-02      0.06        5.
 4603.06        7.E-02      0.81        5.       9114.      4511.
 4608.77        7.E-02      0.78        5.       9114.      4505.
 4612.65        8.E-02      0.11        5.
 4618.17        7.E-02      0.21        5.
 4626.8         5.E-01      0.12       21.
 4635.25       11.E-02      0.05        9.
 4651.50       14.E-02      0.19        9.       4652.         0.
 4665.23        7.E-02      0.24        5.       9114.      4449.
 4671.26        9.E-02      0.24        5.       4672.         0.
 4682.07       20.E-02      0.10       11.
 4695.20       10.E-02      0.07       50.
 4700.3         5.E-01      0.35       19.       4700.         0.
 4711.98       17.E-02      0.06        8.
 4718.41        8.E-02      0.20        5.
 4721.67       10.E-02      0.05        5.
 4738.48       12.E-02      0.07        5.
 4741.75       15.E-02      0.04        6.
 4745.97        7.E-02      0.19        5.
 4766.13        9.E-02      0.10        5.
 4782.87        8.E-02      0.27        5.
 4788.74        7.E-02      0.25        5.       9114.      4325.
 4809.12        8.E-02      0.16        5.
 4815.45        8.E-02      0.09        5.
 4823.16       11.E-02      0.05        5.
 4826.34        9.E-02      0.14        5.
 4830.27       10.E-02      0.05        5.
 4843.54        8.E-02      0.08        5.
 4855.15        9.E-02      0.05        5.
 4869.35       10.E-02      0.16        5.
 4880.4         3.E-01      0.04        9.       4880.         0.
 4883.18        8.E-02      0.18        5.       4884.         0.
 4893.51        9.E-02      0.05        5.
 4899.25        8.E-02      0.27        5.
 4914.48        8.E-02      0.24        5.
 4918.48        8.E-02      0.17        5.       4919.         0.
 4941.14       12.E-02      0.16        5.       9114.      4172.
 4945.51        8.E-02      1.00        5.
 4957.18        8.E-02      0.30        5.       9114.      4157.
 5011.52        8.E-02      0.06        5.
 5027.3         4.E-01      0.06       24.
 5029.5         3.E-01      0.09       18.
 5042.62       17.E-02      0.27        7.
 5045.38       21.E-02      0.04        9.
 5075.1         4.E-01      0.11       21.
 5082.92        8.E-02      0.09        5.
 5089.96        8.E-02      0.52        5.       9114.      4024.
 5106.85       11.E-02      0.10        6.
 5140.48        8.E-02      0.25        5.       9114.      3973.
 5149.8         3.E-01      0.04        7.
 5160.86        8.E-02      0.18        5.       9114.      3953.
 5167.90        9.E-02      0.05        5.
 5186.47        8.E-02      0.16        5.       9114.      3927.
 5191.25        8.E-02      0.24        5.       9114.      3923.
 5231.40        8.E-02      0.40        5.       9114.      3882.
 5235.24       11.E-02      0.05        5.
 5249.74        8.E-02      0.14        5.
 5272.65       15.E-02      0.05        5.
 5288.86       14.E-02      0.05        7.
 5306.30        8.E-02      0.98        5.       9114.      3807.
 5314.12       21.E-02      0.65        5.       9114.      3799.
 5321.15       14.E-02      0.05        8.
 5436.98       11.E-02      0.05        5.
 5458.32       17.E-02      0.04        6.
 5511.18        8.E-02      0.33        5.       9114.      3603.
 5537.30        9.E-02      0.40        5.       9114.      3576.
 5668.06        9.E-02      0.10        5.
 5675.29       16.E-02      0.06       11.
 5678.5         5.E-01      0.05       13.
 5726.05       24.E-02      0.19       17.
 5728.33       16.E-02      0.07       11.
 5751.42       22.E-02      0.12       15.
 5764.39        9.E-02      0.43        5.       9114.      3349.
 5784.50       15.E-02      0.06        8.
 5787.27       24.E-02      0.05        8.
 5790.95       11.E-02      0.09        5.
 5804.42       10.E-02      2.82        5.       9114.      3309.
 5811.24       12.E-02      0.05        5.
 5815.11        9.E-02      0.14        5.
 5839.11        9.E-02      0.19        5.
 5851.08        9.E-02      0.70        5.       9114.      3262.
 5864.20        9.E-02      0.72        5.       9114.      3249.
 5880.71       10.E-02      0.07        5.
 5889.95       12.E-02      0.06        7.
 5903.18       10.E-02      0.04        5.
 5969.50       21.E-02      0.17        5.       9114.      3144.
 5981.37       10.E-02      0.08        5.       9114.      3132.
 6047.20        9.E-02      0.15        5.       9114.      3066.
 6068.25       10.E-02      0.06        5.       9114.      3045.
 6089.2         3.E-01      0.12       10.
 6095.1         3.E-01      0.02        7.       9114.      3019.
 6098.36       22.E-02      0.02        9.       9114.      3015.
 6121.46       15.E-02      0.05        5.
 6125.73       11.E-02      0.04        5.
 6138.9         3.E-01      1.07        5.       9114.      2975.
 6144.75       11.E-02      0.04        5.
 6177.83       14.E-02      0.02        8.       9114.      2936.
 6186.13       10.E-02      0.06        5.
 6211.35       11.E-02      0.07        5.
 6215.54       10.E-02      0.16        5.       9114.      2898.
 6236.40       10.E-02      0.08        5.       9114.      2877.
 6255.08       16.E-02      0.02        7.       9114.      2859.
 6279.68       10.E-02      0.10        5.       9114.      2834.
 6287.74       10.E-02      0.08        5.
 6300.03       22.E-02      0.13        5.       9114.      2814.
 6330.77       10.E-02      0.33        5.       9114.      2783.
 6393.0         3.E-01      0.05       10.
 6430.7         4.E-01      0.03        9.       9114.      2682.
 6434.53       10.E-02      0.15        5.       9114.      2679.
 6474.14       17.E-02      0.06        5.       9114.      2640.
 6533.9         4.E-01      0.16        5.
 6569.35       10.E-02      0.05        5.
 6579.36       15.E-02      0.01        5.       9114.      2534.
 6610.7         3.E-01      0.03        5.       9114.      2504.
 6692.13       16.E-02      0.01        5.       9114.      2421.
 6750.15       10.E-02      0.06        5.
 6929.50       22.E-02      0.11       30.       9114.      2184.
 6932.30       22.E-02      0.07       50.       9114.      2182.
 6999.97       11.E-02      0.18        5.       9114.      2114.
 7068.31       11.E-02      0.07        5.       9114.      2045.
 7240.09       11.E-02      0.09        5.       9114.      1873.
 7693.24       12.E-02      0.33        5.       9114.      1420.
 8447.01       13.E-02      0.10        5.       9114.       666.
 9113.30       14.E-02      0.42        5.       9114.         0.
ENDDATA            748
ENDSUBENT          765
SUBENT        22771003   20061201   20070306   20070214       2181
BIB                  2          2
REACTION   (52-TE-125(N,G)52-TE-126,,SIG,,MXW)
ERR-ANALYS (DATA-ERR)  Not specified
ENDBIB               2
NOCOMMON             0          0
DATA                 2          1
DATA       DATA-ERR
B          B
  1.09       0.17
ENDDATA              3
ENDSUBENT           10
ENDENTRY             3
