ENTRY            L0067   20050421   20050707                  L007
SUBENT        L0067001   20050421   20050707                  L007
BIB                 10         14
INSTITUTE  (1USANMS,1USAARK,1USAWSA)
REFERENCE  (J,PR/C,16,2296,1977)
AUTHOR     (J.C.Hogan,A.E.Richardson,J.L.Meason,H.L.Wright)
TITLE      Photofission of 232Th with 9, 15, and 38 MeV peak
            bremsstrahlung
FACILITY   No information
INC-SPECT  Target irradiated with bremsstrahlung beam produced by
            9, 15 or 38 MeV electrons impinging on a thin,
            water-cooled platinum target
DETECTOR   Nuclear Diode detectors
SAMPLE     Pure 232Th target, 1.3 cm diameter disk, 0.38g,
            wrapped in pure aluminum
METHOD     Gamma-ray spectra measured after irradiation
HISTORY    (20050421C) DR
ENDBIB              14
NOCOMMON             0          0
ENDSUBENT           17
SUBENT        L0067002   20050421   20050707                  L007
BIB                  4          4
REACTION   (90-TH-232(N,F)MASS,CHN,FY,,REL)
ERR-ANALYS (DATA-ERR) Statistical and systematic errors
COMMENT    Data are normalized to 140Ba
STATUS     Data taken from Table 5.
ENDBIB               4
NOCOMMON             0          0
DATA                 4         69
EN         MASS       DATA       DATA-ERR
MEV        NO-DIM     ARB-UNITS  ARB-UNITS
 9.         83.       1.52       0.16
 9.         85.       6.75       0.75
 9.         87.       7.87       0.65
 9.         88.       6.09       0.55
 9.         89.       7.81       0.71
 9.         91.       6.75       0.32
 9.         92.       5.99       0.39
 9.         93.       7.21       0.65
 9.         94.       5.42       0.54
 9.         97.       2.90       0.14
 9.         99.       1.09       0.10
 9.        131.       0.95       0.08
 9.        132.       1.69       0.10
 9.        133.       3.22       0.18
 9.        134.       7.90       0.72
 9.        135.       5.48       0.49
 9.        138.       6.09       0.50
 9.        139.       6.62       0.71
 9.        140.       7.81
 9.        141.       9.06       0.51
 9.        142.       7.87       0.71
 9.        143.       8.53       0.41
 9.        146.       3.57       0.41
15.         83.       2.15       0.18
15.         85.       5.75       0.53
15.         87.       7.43       0.55
15.         88.       6.00       0.49
15.         89.       8.25       0.85
15.         91.       6.61       0.31
15.         92.       5.88       0.48
15.         93.       7.03       0.60
15.         97.       3.26       0.18
15.         99.       1.73       0.09
15.        131.       2.20       0.20
15.        132.       3.20       0.18
15.        133.       4.53       0.25
15.        134.       6.75       0.61
15.        135.       6.08       0.55
15.        138.       6.00       0.54
15.        139.       6.70       0.77
15.        140.       7.81
15.        141.       8.26       0.61
15.        142.       7.20       0.71
15.        143.       7.89       0.37
38.         83.       2.24       0.16
38.         85.       5.50       0.50
38.         87.       7.20       0.53
38.         88.       6.16       0.48
38.         89.       7.92       0.80
38.         91.       8.37       0.40
38.         92.       7.33       0.60
38.         93.       8.02       0.53
38.         94.       6.10       0.88
38.         95.       5.39       0.60
38.         97.       3.88       0.21
38.         99.       2.40       0.13
38.        129.       1.04       0.16
38.        131.       2.74       0.18
38.        132.       3.71       0.21
38.        133.       5.61       0.37
38.        134.       6.46       0.38
38.        135.       6.70       0.55
38.        138.       7.16       0.76
38.        139.       6.75       0.70
38.        140.       7.81
38.        141.       8.40       0.62
38.        142.       6.86       0.57
38.        143.       7.30       0.42
38.        146.       2.80       0.40
ENDDATA             71
ENDSUBENT           80
ENDENTRY             2
