ENTRY            20269   19840416              20050926       0000
SUBENT        20269001   19840416              20050926       0000
BIB                 11         17
INSTITUTE  (2JPNYOK)
REFERENCE  (P,EANDC(J)-10,39,6811)  DATA FROM REFERENCE.
AUTHOR     (M.HATTORI, T.NAGAHARA, K.KITAO)
TITLE      -GAMMA-RAYS FROM AG-107(N,GAMMA)AG-108-
INC-SOURCE (REAC )    TRIGA-II REACTOR, THERMAL NEUTRON
            FLUX = 10E+5 NEUTRONS/CM*CM*SEC. AT THE
            TARGET POSITION.
INC-SPECT  .THERMAL REACTOR SPECTRUM.
SAMPLE      200 MILLIGR. HIGHLY AG-107 ENRICHED.
DETECTOR   (GELI )    8 CM**3 PLANAR GE(LI), RESOLUTION 2.5 KEV
            (FWHM) AT 122 KEV.
STATUS     (PRELM)    PRELIMINARY DATA.
HISTORY    (711010C)
           (740626E)
           (840106U) A.P.T. JAPAN CODE CHANGED TO JPN
           (840106E)
ERR-ANALYS .NO INFORMATION.
ENDBIB              17
COMMON               1          3
EN-DUMMY
MEV
 2.5300E-08
ENDCOMMON            3
ENDSUBENT           24
SUBENT        20269002   19831122              20050926       0000
BIB                  2          3
REACTION   (47-AG-107(N,G)47-AG-108,,SPC,,SPA)
HISTORY    (711010C)
           (740626E)
ENDBIB               3
NOCOMMON             0          0
DATA                 2         47
E          DATA
MEV        GAM/100N
 7.9200E-02 2.0000E+01
 1.0230E-01 1.1000E+00
 1.1420E-01 2.2000E+00
 1.1800E-01 3.5000E+00
 1.4930E-01 8.0000E-01
 1.5650E-01 4.0000E-01
 1.7130E-01 1.0000E-01
 1.7920E-01 2.0000E-01
 1.9420E-01 6.6000E+00
 2.0190E-01 3.0000E+00
 2.0760E-01 1.0000E+01
 2.1620E-01 4.0000E+00
 2.2820E-01 2.0000E-01
 2.3780E-01 8.0000E-01
 2.4000E-01 9.0000E-01
 2.5020E-01 2.0000E-01
 2.6050E-01 4.0000E+00
 2.6950E-01 5.0000E-01
 2.9550E-01 5.9000E+00
 3.0170E-01 3.0000E+00
 3.1850E-01 3.0000E-01
 3.2700E-01 9.0000E-01
 3.3040E-01 1.7000E+00
 3.5020E-01 4.0000E-01
 3.6370E-01 1.0000E-01
 3.7250E-01 2.0000E-01
 3.8200E-01 4.0000E-01
 3.8600E-01 4.0000E-01
 4.2500E-01 4.0000E-01
 4.2980E-01 8.0000E-01
 4.3900E-01 1.2000E+00
 4.5500E-01 2.0000E-01
 4.6600E-01 7.0000E-01
 4.9650E-01 5.0000E-01
 5.0140E-01 4.0000E-01
 5.2640E-01 5.0000E-01
 5.4000E-01 3.0000E-01
 5.5380E-01 4.0000E-01
 5.6500E-01 7.0000E-01
 5.7400E-01 5.0000E-01
 5.8120E-01 4.0000E-01
 5.8760E-01 4.0000E-01
 6.0040E-01 1.1000E+00
 6.1720E-01 1.2000E+00
 6.2760E-01 1.2000E+00
 6.3480E-01 1.2000E+00
 6.3900E-01 6.0000E-01
ENDDATA             49
ENDSUBENT           57
ENDENTRY             2
