ENTRY            22980   20080123   20080402   20080318       2192
SUBENT        22980001   20080123   20080402   20080318       2192
BIB                 13        159
REFERENCE  (C,2005NOTRED,,318,2005)  Main reference, graphs given
           (C,2004SANTA,,1442,2004)  Experimental details.Raw data
TITLE      .Neutron capture cross section measurements at n-TOF
            of 237Np, 240Pu and 243Am for the transmutation of
            nuclear waste.
AUTHOR     (D.Cano-Ott,U.Abbondanno,G.Aerts,H.Alvarez,
           F.Alvarez-Velarde,S.Andriamonje,J.Andrejewski,
           P.Assimakopoulos,L.Audouin,G.Badurek,P.Baumann,
           F.Becvar,E.Berthoumieux,F.Calvino,R.Capote,
           A.Carrillo De Albornoz,P.Cennini,V.Chepel,
           E.Chiaveri, N.Colonna,G.Cortes,A.Couture,J.Cox,
           M.Dahlfors, S.David,I.Dillmann,R.Dolfini,
           C.Domingo-Pardo,W.Dridi,I.Duran, C.Eleftheriadis,
           M.Embid-Segura,L.Ferrant,A.Ferrari,
           R.Ferreira-Marques,L.Fitzpatrick,H.Frais-Koelbl,
           K.Fujii,W.Furman,R.Gallino,I.Goncalves,
           E.Gonzalez-Romero, A.Goverdovski,F.Gramegna,
           E.Griesmayer,C.Guerrero,F.Gunsing, B.Haas,R.Haight,
           M.Heil,A.Herrera-Martinez,M.Igashira,S.Isaev,
           E.Jericha,Y.Kadi,F.Kaeppeler,D.Karamanis,D.Karadimos,
           M.Kerveno, V.Ketlerov,P.Koehler,V.Konovalov,
           E.Kossionides, M.Krticka,S.Lamboudis,H.Leeb,
           A.Lindote,I.Lopes,M.Lozano, S.Lukic,J.Marganiec,
           S.Margues,S.Marrone,T.Martinez, P.Mastinu,A.Mengoni,
           P.M.Milazzo,C.Moreau,M.Mosconi,F.Neves, H.Oberhummer,
           S.Obrien,M.Oshima,J.Pancin,C.Papachristodoulou,
           C.Papadopoulos,C.Paradela,N.Patronis, A.Pavlik,
           P.Pavlopoulos,L.Perrot,R.Plag,A.Plompen,A.Plukis,
           A.Poch,C.Pretel,J.Quesada,T.Rauscher,R.Reifarth,
           M.Rosetti, C.Rubbia,G.Rudolf,P.Rullhusen,J.Salgado,
           L.Sarchiapone,I.Savvidis,C.Stephan,G.Tagliente,
           J.L.Tain, L.Tassan-Got,L.Tavora,R.Terlizzi,G.Vannini,
           P.Vaz,A.Ventura, D.Villamarin,M.C.Vincente,
           V.Vlachoudis,R.Vlastou,F.Voss, S.Walter,H.Wendler,
           M.Wiescher,K.Wisshak)
INSTITUTE  (2ZZZCER) CERN, Geneva, Switzerland. P.Cennini,
              E.Chiaveri, M.Dahlfors, A.Ferrari, L.Fitzpatrick,
              A.Herrera-Martinez, Y.Kadi, V.Ketlerov,
              V.Konovalov, A.Mengoni, L.Sarchiapone, V.Vlachoudis,
              H.Wendler. Experimental site.
           (2ZZZGEL) CEC-JRC-IRMM, Geel, Belgium. A.Plompen,
             P.Rullhusen
           (3ZZZIAE) International Atomic Energy Agency (IAEA),
             Nuclear Data Section, Vienna, Austria. R.Capote,
             H.Frais-Koelbl, E.Griesmayer, A.Mengoni.
           (4ZZZDUB) Joint Institute for Nuclear Research, Frank
             Laboratory of Neutron Physics, Dubna, Russia.
             W.Furman, V.Konovalov
           (1USALAN) Los Alamos National Laboratory, New Mexico,
             USA. R.Haight, R.Reifarth
           (1USANOT) University of Notre Dame, Notre Dame, USA.
             A.Couture, S.O'Brien, M.Wiescher
           (1USAORL) Oak Ridge National Laboratory, Physics
              Division, Oak Ridge, USA. P.Koehler
           (2AUSPVI) 2 Institut fur Isotopenforschung und Kern-
             physik, Universitat Wien, Austria. A.Pavlik
           (2AUSTHV) Atominstitut der Osterreichischen Universi-
             taeten,Technische Universitat Wien, Austria.
             G.Badurek, J.Cox, E.Jericha, H.Leeb, H.Oberhummer
           (2FR BOR) Centre National de la Recherche Scientifique
             /IN2P3 - CENBG, Bordeaux, France. B.Haas
           (2FR PAR) Centre National de la Recherche Scientifique/
             IN2P3 - IPN, Orsay, France. S.David, L.Ferrant,
             S.Isaev, C.Stephan, L.Tassan-Got
           (2FR SAC) CEA/Saclay - DSM, Gif-sur-Yvette, France.
             G.Aerts, S.Andriamonje, E.Berthoumieux, W.Dridi,
             F.Gunsing, J.Pancin, L.Perrot, A.Plukis
           (2FR STR) Centre National de la Recherche Scientifique/
             IN2P3 - IReS, Strasbourg, France. P.Baumann,
             M.Kerveno, S.Lukic, G.Rudolf
           (2GERKFK) Forschungszentrum Karlsruhe GmbH (FZK),
             Institut fur Kernphysik, Germany. L.Audouin,
             I.Dillmann, M.Heil, F.Kappeler, M.Mosconi, R.Plag,
             F.Voss, S.Walter, K.Wisshak
           (2GRCARU) Aristotle University of Thessaloniki, Greece.
             C.Eleftheriadis, I.Savvidis
           (2GRCATH) NCSR, Athens, Greece. E.Kossionides
           (2GRCIOA) University of Ioannina, Greece.
             P.Assimakopoulos, D.Karamanis, D.Karadimos,
             C.Lamboudis, N.Patronis, C.Papachristodoulou
           (2GRCTUA) National Technical University of Athens,
             Greece. C.Papadopoulos, R.Vlastou
           (2ITYBAU) Istituto Nazionale di Fisica Nucleare, Bari,
             Italy. N.Colonna, S.Marrone, G.Tagliente, R.Terlizzi
           (2ITYBOL) ENEA, Bologna, Italy. M.Rosetti, A.Ventura
           (2ITYPAD) Istituto Nazionale di Fisica Nucleare(INFN),
             Laboratori Nazionali di Legnaro, Italy. F.Gramegna,
             P.Mastinu.
           (2ITYPAV) Universita degli Studi Pavia, Pavia, Italy.
              R.Dolfini, C.Rubbia
           (2ITYTRI) Istituto Nazionale di Fisica Nucleare,
             Trieste, Italy. U.Abbondanno, K.Fujii, P.M.Milazzo,
             C.Moreau
           (2ITYTUR) Dipartimento di Fisica, Universita di Torino
             and Sezione INFN di Torino, Italy. R.Gallino
           (2ITYUBO) Dipartimento di Fisica, Universita di
             Bologna, and Sezione INFN di Bologna, Italy.
             G.Vannini
           (2JPNJAE) Japan Atomic Energy Research Institute,
             Tokai-mura, Japan. M.Oshima
           (2JPNTIT) Tokyo Institute of Technology, Tokyo, Japan.
             M.Igashira
           (2PRTLIS) Instituto Tecnologico e Nuclear(ITN), Lisbon,
             Portugal. A.Carrillo de Albornoz, L.Marques,
             J.Salgado, L.Tavora, P.Vaz
           (2SPNPCM) Universidad Politecnica de Madrid, Spain.
             F.Calvino
           (2SPNSAU) Universidade de Santiago de Compostela,
             Spain. H.Alvarez, I.Duran, C.Paradela
           (2SPNSEU) Universidad de Sevilla, Spain. R.Capote,
              M.Lozano, J.Quesada
           (2SPNVAL) Instituto de Fisica Corpuscular, CSIC-
             Universidad de Valencia, Spain. C.Domingo-Pardo,
             J.L.Tain
           (2SWTBAS) Department of Physics and Astronomy -
              University of Basel, Basel, Switzerland. T.Rauscher
           (3CZRCHU) Charles University, Prague, Czech Republic.
             F.Becvar, M.Krticka
           (3POLLOU) University of Lodz, Lodz, Poland .
             J.Andrzejewski, J.Marganiec
           (4RUSFEI) Institute of Physics and Power Engineering,
             Kaluga region, Obninsk, Russia. A.Goverdovski,
             V.Ketlerov
           (2AUSAUS)=Fachhochschule Wiener Neustadt, Wiener
              Neustadt, Austria. J.Cox
           (2FR FR ) Pole Universitaire Leonard de Vinci, Paris
             La Defense, France. P.Pavlopoulos
           (2PRTPRT)=LIP - Coimbra & Departamento de Fisica da
             Universidade de Coimbra, Portugal. V.Chepel,
             R.Ferreira-Marques, I.Goncalves, A.Lindote, I.Lopes,
             F.Neves
           (2SPNSPN)=Centro de Investigaciones Energeticas Medio-
             ambientales y Technologicas, Madrid, Spain.
             F.Alvarez-Velarde, M.C. Vincente, D.Cano-Ott -
             Correspomding author:  e-mail: daniel.cano@ciemat.es,
             M.Embid-Segura, E.Gonzalez-Romero, C.Guerrero,
             T.Martinez, D.Villamarin
                    =Universitat Politecnica de Catalunya,
             Barcelona, Spain. G.Cortes, A.Poch, C.Pretel>>>
            ==>
            D.Cano-Ott - Correspomding author, e-mail: -
            daniel.cano@ciemat.es.
FACILITY   (SYNCH,2ZZZCER) Proton synchrotron - PS - of CERN,
             3-4 proton pulses for a PS supercycle of 16.4 sec
INC-SOURCE (SPALL)
INC-SPECT  ,1.E+5 neutrons/pulse in the enrgy range 0.1 eV -
            20 GeV. 4 cm diameter neutron beam spot
METHOD     (TOF)   Flight base is 185 m
DETECTOR   (SCIN) Segmented Total Absorption Calorimeter (TAC)
                  made of 40 Ba-F2 crystals with B-10 loaded
              carbon fibre capsules placed at 185 m from
              spallation neutron source
MONITOR    (79-AU-197(N,G)79-AU-198,,SIG)
SAMPLE     .Radioactive samples were placed in the geometric
            center of the TAC and surrounded by C12-H20-O3(6Li)2
            neutron absorber
CORRECTION .For background
HISTORY    (20070917C)   SM
           (20080123A)   SM.
ENDBIB             159
NOCOMMON             0          0
ENDSUBENT          162
SUBENT        22980002   20080123   20080402   20080318       2192
BIB                  5         11
REACTION   (93-NP-237(N,G)93-NP-238,,SIG,,REL) Ptoportional to
             number of counts normalized to the flux monitor rate
SAMPLE     .Radioactive material (43.3 milligram, 1.29MBq) was
            sandwiched between two thin, total mass < 75 milliG,
            AL layers and canned inside a 0.35 mm thick Titanum
            canning
ERR-ANALYS (EN-ERR-DIG) Incident neutron energy digitizing error
           (ERR-DIG)    Data digitizing error
STATUS     (CURVE) Fig. 2 of main reference
           (PRELM)   By compiler
HISTORY    (20080123A)   Data re-digitized
ENDBIB              11
COMMON               2          3
EN-ERR-DIG ERR-DIG
PER-CENT   PER-CENT
 3.1967E-03 5.0973E-03
ENDCOMMON            3
DATA                 2        869
EN         DATA
EV         ARB-UNITS
     10.063 5.4922E-05
     10.104 6.0606E-05
     10.144 6.3144E-05
     10.222 6.0602E-05
     10.225 7.3798E-05
     10.266 8.1436E-05
     10.308 9.5179E-05
     10.388 8.9861E-05
     10.426 7.5012E-05
     10.465 6.5240E-05
     10.508 7.8151E-05
     10.592 9.4387E-05
     10.639 1.3997E-04
     10.732 2.9784E-04
     10.784 6.1334E-04
     10.828 6.9941E-04
     10.911 6.5493E-04
     10.957 8.1741E-04
     11.002 9.9538E-04
     11.043 8.5162E-04
     11.077 4.3086E-04
     11.116 3.2861E-04
     11.165 5.0771E-04
     11.214 7.1671E-04
     11.261 9.4742E-04
     11.302 7.5286E-04
     11.341 5.3770E-04
     11.345 3.5669E-04
     11.371 1.9751E-04
     11.407 1.1679E-04
     11.408 1.0759E-04
      11.49 7.4358E-05
     11.534 6.9061E-05
     11.579 6.6282E-05
     11.622 6.0558E-05
     11.712 6.4666E-05
     11.714 5.6243E-05
     11.805 6.3610E-05
     11.849 5.3099E-05
     11.943 6.0054E-05
     11.987 5.0131E-05
     12.036 6.0546E-05
     12.081 5.2229E-05
     12.128 5.3092E-05
     12.228 7.0760E-05
     12.277 8.1355E-05
     12.331 1.1868E-04
     12.378 1.1113E-04
     12.424 9.3532E-05
     12.466 6.5713E-05
     12.517 7.5553E-05
      12.57 9.7444E-05
     12.625 1.3983E-04
     12.681 2.1605E-04
     12.746 5.8812E-04
     12.799 7.2803E-04
     12.846 5.8329E-04
     12.884 2.8793E-04
      12.92 1.1768E-04
     12.965 8.4045E-05
     13.009 6.1019E-05
      13.11 5.2635E-05
     13.163 6.0021E-05
     13.268 7.1898E-05
     13.319 6.9005E-05
     13.371 6.6229E-05
     13.418 5.0512E-05
     13.469 5.3939E-05
     13.472 4.6914E-05
     13.626 5.0924E-05
     13.629 4.4291E-05
     13.735 5.0505E-05
     13.786 4.3211E-05
     13.843 5.1762E-05
     13.894 4.5019E-05
     14.115 5.3047E-05
     14.223 4.6899E-05
     14.276 4.1807E-05
     14.335 5.0080E-05
     14.445 4.3199E-05
     14.557 4.1460E-05
     14.559 4.8458E-05
     14.617 5.0075E-05
     14.785 4.1799E-05
     14.902 4.6504E-05
     15.016 4.0445E-05
     15.077 4.6121E-05
     15.252 4.0441E-05
     15.254 4.6118E-05
     15.431 4.1108E-05
     15.433 4.6114E-05
     15.553 4.3896E-05
     15.555 5.0057E-05
     15.674 4.4256E-05
     15.739 5.3015E-05
     15.867 7.0079E-05
     15.938 1.0651E-04
     16.002 1.2146E-04
     16.203 2.2479E-04
     16.212 3.4731E-04
     16.287 6.1697E-04
     16.411 5.2785E-04
     16.453 1.9074E-04
     16.506 1.0737E-04
     16.557 5.8008E-05
      16.62 5.2565E-05
     16.746 4.5717E-05
     16.815 5.3872E-05
     16.885 6.4534E-05
     16.963 1.1654E-04
     17.036 1.6050E-04
     17.107 2.0197E-04
     17.171 1.7857E-04
     17.215 5.9931E-05
     17.345 5.0439E-05
     17.477 4.1759E-05
     17.547 4.6081E-05
     17.619 5.4302E-05
     17.702 1.0645E-04
     17.779 1.4661E-04
     17.849 1.5528E-04
     17.973 7.9206E-05
     18.036 5.7036E-05
     18.173 4.9199E-05
     18.313 4.5320E-05
     18.454 4.0068E-05
     18.601 4.6446E-05
     18.742 3.8453E-05
     18.746 4.5314E-05
     18.815 3.9089E-05
     18.966 4.6061E-05
     19.048 6.2921E-05
      19.12 5.7961E-05
     19.274 7.1748E-05
     19.433 9.8816E-05
     19.506 8.8086E-05
     19.642 4.6052E-05
     19.791 3.9400E-05
     19.795 4.5300E-05
     19.947 4.0381E-05
     20.108 5.0813E-05
     20.195 7.0561E-05
      20.28 9.0263E-05
     20.427 5.7940E-05
     20.531 1.4892E-04
     20.631 3.2480E-04
     20.726 5.6758E-04
     20.863 2.2082E-04
     20.928 1.2028E-04
     20.991 5.9375E-05
     21.068 4.8358E-05
     21.158 6.4983E-05
     21.248 8.8044E-05
     21.346 1.5386E-04
     21.364 2.9914E-04
      21.52 2.0505E-04
     21.581 8.7317E-05
     21.737 5.4685E-05
     21.816 4.4539E-05
     21.992 5.3791E-05
     22.085 6.9949E-05
     22.182 1.0373E-04
     22.306 4.0855E-04
     22.403 5.7201E-04
     22.556 2.6878E-04
     22.609 7.7180E-05
     22.691 6.1836E-05
      22.77 4.4528E-05
     22.864 5.3340E-05
     22.955 5.8860E-05
     23.054 8.1068E-05
     23.079 1.9195E-04
     23.174 2.2993E-04
     23.336 1.1923E-04
      23.42 9.3969E-05
     23.492 4.8329E-05
     23.588 5.6485E-05
     23.686 6.9922E-05
     23.905 2.1352E-04
     24.019 4.3254E-04
     24.126 6.7379E-04
     24.201 3.5810E-04
     24.357 1.2217E-04
     24.448 1.0891E-04
     24.528 6.6549E-05
     24.615 5.0341E-05
     24.811 5.6934E-05
     25.014 7.6506E-05
     25.128 1.2623E-04
     25.273 5.6695E-04
       25.4 1.3758E-03
      25.57 5.7630E-04
     25.636 1.9987E-04
     25.903 7.0463E-05
     25.999 6.0286E-05
     26.199 5.4628E-05
      26.31 7.2214E-05
     26.531 1.1529E-04
     26.644 1.5366E-04
     26.889 4.6160E-04
     27.017 9.1234E-04
     27.104 5.3071E-04
     27.184 2.5351E-04
      27.26 1.0619E-04
     27.353 7.1608E-05
     27.557 5.9774E-05
      27.56 5.3723E-05
     27.768 4.8682E-05
       28.1 5.6895E-05
     28.202 4.6338E-05
     28.318 5.5508E-05
     28.644 4.6334E-05
     28.763 5.5503E-05
     28.887 7.8351E-05
     28.995 6.8144E-05
     29.102 5.8302E-05
     29.345 8.9340E-05
      29.56 6.1240E-05
     29.664 4.5946E-05
      30.03 7.2160E-05
     30.136 5.4585E-05
      30.25 4.9464E-05
     30.622 7.7050E-05
     30.792 2.8653E-04
     30.959 9.6556E-04
     31.155 2.9607E-04
     31.255 1.7222E-04
     31.362 1.1806E-04
     31.454 5.5476E-05
     31.857 1.2920E-04
     31.973 1.0523E-04
     32.076 6.1716E-05
     32.195 5.3238E-05
     32.439 4.4440E-05
      32.57 4.9851E-05
     32.819 4.3356E-05
     32.954 5.1090E-05
     33.201 4.0266E-05
     33.208 4.7841E-05
     33.592 4.1607E-05
     33.731 5.0252E-05
     33.879 7.4519E-05
     33.912 1.6253E-04
      34.02 9.0743E-05
     34.131 5.5907E-05
     34.308 1.5219E-04
      34.67 6.0685E-05
      34.79 4.2636E-05
     35.073 5.5442E-05
     35.232 9.2227E-05
      35.34 4.7433E-05
     35.499 7.5732E-05
      35.66 1.2702E-04
     35.909 6.6407E-05
     36.034 4.7819E-05
     36.306 3.8627E-05
     36.457 4.7816E-05
     36.745 5.1059E-05
     36.755 6.3728E-05
      36.91 8.0855E-05
     37.177 5.1901E-05
     37.331 6.2685E-05
      37.52 1.5980E-04
     37.845 3.1324E-04
     37.942 1.0775E-04
     38.053 4.9807E-05
      38.37 7.5080E-05
     38.742 3.3446E-04
     38.851 1.4010E-04
     39.109 5.5865E-05
     39.311 1.5208E-04
      39.65 2.9326E-04
     39.782 1.8367E-04
     40.058 9.2161E-05
     40.183 5.0203E-05
     40.398 1.5973E-04
     40.696 1.1222E-04
     40.808 4.5864E-05
     41.119 3.8918E-05
     41.286 4.5114E-05
     41.625 6.1626E-05
     41.837 1.5970E-04
     42.053 4.3474E-04
     42.177 2.0261E-04
     42.268 5.1440E-05
     42.745 3.6139E-05
     43.107 6.0611E-05
     43.259 4.5103E-05
     43.612 5.9620E-05
     43.927 3.7034E-05
     44.318 8.7682E-05
     44.465 5.6285E-05
     44.791 3.8582E-05
     44.974 4.4724E-05
     45.136 3.5249E-05
     45.322 4.1880E-05
     45.843 3.4672E-05
     46.215 4.3989E-05
     46.456 1.2477E-04
     46.665 2.0250E-04
     47.081 4.8339E-04
     47.338 7.5610E-05
     47.495 4.7745E-05
     47.884 6.4687E-05
     48.176 3.6562E-04
     48.442 6.0572E-05
     48.618 4.8929E-05
     48.794 3.9202E-05
     49.196 5.4885E-05
     49.403 7.0209E-05
     49.627 1.1584E-04
     49.958 4.7342E-05
     50.419 1.4576E-04
     50.647 2.3657E-04
     50.907 6.3873E-04
     51.135 1.0115E-03
     51.229 1.9586E-04
     51.404 1.3316E-04
     51.559 6.6819E-05
     51.738 4.7722E-05
     52.128 3.8234E-05
     52.347 4.8909E-05
     52.783 7.3123E-05
     53.237 1.3758E-04
     53.397 6.7911E-05
      53.59 5.4410E-05
     54.188 3.4640E-05
     54.448 7.0171E-05
     54.677 8.9763E-05
     54.863 6.1028E-05
     55.474 3.7598E-05
     55.741 7.8063E-05
     55.938 5.8568E-05
     56.341 3.6083E-05
     56.651 1.2879E-04
      56.91 2.1958E-04
     57.059 7.9999E-05
     57.462 4.4663E-05
     57.666 3.3785E-05
     57.904 4.0471E-05
     58.573 3.4910E-05
     58.822 4.6528E-05
     59.109 1.0148E-04
     59.503 6.9562E-05
     59.543 4.0799E-05
      60.05 1.2256E-04
     60.335 2.4025E-04
     60.824 3.0232E-04
     61.153 4.5015E-05
     61.755 2.2680E-04
     61.916 8.0621E-05
     62.113 4.6134E-05
     62.375 5.9015E-05
     62.837 4.3199E-05
     63.459 2.2308E-04
     63.942 1.9243E-04
     64.083 5.0072E-05
     64.565 4.0116E-05
     64.858 6.6187E-05
     65.058 3.4604E-05
     65.623 6.9524E-05
     65.933 1.3297E-04
     66.114 5.3902E-05
     66.543 4.1618E-04
     66.936 9.2654E-05
     67.135 4.4624E-05
     67.645 3.7556E-05
     68.215 6.0954E-05
     68.394 4.9036E-04
     68.602 2.5014E-04
     68.837 1.7288E-04
     69.031 7.3014E-05
     69.546 5.5230E-05
     70.035 3.0085E-05
     70.613 4.2817E-05
     70.748 1.9550E-04
     71.006 1.5923E-04
     71.758 6.5073E-05
     72.175 2.9468E-04
      72.44 2.4802E-04
     72.577 5.0037E-05
     73.107 3.3740E-05
     73.406 3.9434E-05
     73.963 3.2917E-05
     74.272 4.1084E-05
     74.581 5.0857E-05
     75.265 1.4906E-04
     75.479 6.4522E-05
     75.742 4.6462E-05
     76.022 3.9752E-05
     76.592 3.1073E-05
      76.91 3.7839E-05
     77.534 4.8403E-05
     77.865 6.4511E-05
     78.126 4.2096E-05
     78.413 3.5140E-05
     79.052 4.6071E-05
     79.194 1.9220E-04
     79.676 4.9196E-05
     80.129 2.0189E-04
     80.892 3.5424E-05
     81.608 8.0497E-05
     81.847 3.7516E-05
     82.554 7.1753E-05
     82.908 9.8017E-05
     83.463 4.0721E-05
     83.836 6.3957E-05
     84.285 2.0349E-04
     84.687 4.0551E-04
     85.253 1.6709E-04
     85.438 4.2422E-05
     85.823 6.8852E-05
     86.218 1.2032E-04
     86.796 4.9987E-05
     87.233 1.2331E-04
     87.692 3.6439E-04
     87.826 5.5612E-05
     88.672 2.3390E-04
     88.937 1.1358E-04
     89.215 6.1870E-05
     90.433 2.7788E-04
     90.935 4.6797E-05
     91.339 7.1712E-05
     91.862 3.0661E-04
     92.075 8.7324E-05
     92.736 5.3360E-05
     93.153 8.5194E-05
     93.439 4.4541E-05
      94.31 1.4645E-04
     94.587 6.8252E-05
     95.288 4.9961E-05
     96.072 6.9376E-05
     96.387 4.2393E-05
     96.787 5.2049E-05
     97.206 7.3474E-05
     97.908 4.6016E-05
     98.484 2.2253E-04
      99.21 1.5763E-04
     99.845 5.1615E-05
      100.3 8.8727E-05
     100.75 1.4283E-04
     101.23 2.7543E-04
     101.46 7.4673E-05
     102.43 2.9653E-04
     102.73 1.4165E-04
     103.08 9.7097E-05
     103.79 4.7537E-05
     104.73 1.2218E-04
     105.04 6.0310E-05
     105.89 7.5270E-05
     106.86 2.0490E-04
      107.5 5.2019E-05
     107.99 8.2374E-05
     108.76 4.9515E-05
     109.21 5.9315E-05
      109.7 9.3160E-05
      110.2 1.5884E-04
     110.48 5.3747E-05
     111.47 1.3368E-04
     112.38 1.8111E-04
     112.78 1.3700E-04
     113.13 7.5863E-05
     113.96 5.0322E-05
     114.52 1.1720E-04
     115.04 1.9497E-04
     115.31 5.6912E-05
      115.9 1.4272E-04
     116.22 6.0276E-05
     116.79 1.3146E-04
     117.09 4.6349E-05
     118.07 6.9867E-05
     118.63 1.3923E-04
     119.39 4.6344E-05
     119.98 1.0445E-04
     120.84 6.4883E-05
      122.2 4.3393E-05
     123.21 6.3298E-05
     123.63 4.2683E-05
     123.66 5.2406E-05
     124.61 4.7488E-05
     125.15 6.5944E-05
     125.63 6.1247E-05
     126.74 1.3918E-04
     127.57 5.3265E-05
     128.11 6.9264E-05
     129.54 4.3736E-05
     130.67 8.7153E-05
     131.07 4.4824E-05
     131.56 4.1290E-05
     132.71 8.3641E-05
     133.65 4.8255E-05
     134.41 2.0130E-04
     135.25 5.5935E-05
     135.72 4.1623E-05
      136.8 4.6309E-05
     137.91 5.6855E-05
      138.6 1.4258E-04
     139.13 1.3572E-04
     140.18 1.0873E-04
     140.63 6.3251E-05
     141.14 5.1094E-05
     142.36 9.9338E-05
     142.82 5.7313E-05
     143.87 4.0266E-05
     145.84 1.8084E-04
     146.14 4.2643E-05
     147.41 8.7094E-05
     148.01 9.8505E-05
     148.43 4.2291E-05
     149.11 7.5126E-05
     150.18 4.3700E-05
     151.61 1.7497E-04
     151.93 4.1257E-05
     152.72 1.1702E-04
     154.28 3.6176E-05
      154.5 1.0779E-04
     156.12 4.1934E-05
      156.9 9.7667E-05
     157.95 3.9916E-05
     159.44 1.4482E-04
     159.79 3.8624E-05
     160.63 1.0955E-04
     161.33 1.6245E-04
     162.33 4.5886E-05
     163.05 6.9741E-05
     163.83 1.3560E-04
     164.38 9.0688E-05
     164.86 4.1578E-05
     165.03 9.5265E-05
     166.78 3.9577E-05
     167.72 1.5085E-04
     168.07 3.7366E-05
     170.12 1.4838E-04
     170.34 5.2313E-05
     171.64 1.2905E-04
     172.04 3.6752E-05
     173.58 9.0661E-05
     174.74 3.7052E-05
     176.35 1.1315E-04
     177.82 1.7196E-04
     179.54 3.3571E-05
     180.59 1.5970E-04
     182.39 3.9883E-05
     183.18 5.5841E-05
     184.85 1.5326E-04
     185.24 3.7963E-05
     186.03 5.0184E-05
      187.4 3.6137E-05
     188.25 5.8171E-05
      189.3 2.2354E-04
     190.38 4.2931E-05
     192.16 1.4000E-04
     192.57 3.4395E-05
     194.33 1.0081E-04
     195.65 4.4358E-05
     197.61 2.5486E-04
      197.9 3.7949E-05
     201.21 8.4828E-05
     202.55 3.3548E-05
     203.44 5.0989E-05
     204.96 3.8255E-05
     205.99 9.2832E-05
     206.65 5.4894E-05
     207.75 1.6902E-04
     208.96 3.4948E-05
      211.8 1.5065E-04
     212.22 3.3265E-05
     214.09 7.2552E-05
     215.56 3.5230E-05
     217.69 1.8044E-04
     221.53 3.7003E-05
     222.62 8.4087E-05
     224.12 3.6398E-05
      225.3 1.0494E-04
      226.8 4.2539E-05
     227.79 6.1043E-05
     228.13 2.0571E-04
      229.7 9.7459E-05
     230.46 6.1039E-05
     232.15 2.0738E-04
     232.62 4.2185E-05
     234.17 8.6159E-05
     235.87 5.5762E-05
     236.72 4.3948E-05
     237.82 7.8070E-05
     238.88 1.2465E-04
     239.73 9.5849E-05
     240.46 4.8097E-05
     241.45 5.6214E-05
     242.26 3.7289E-05
     244.27 5.5295E-05
     245.12 3.8849E-05
     246.16 5.1355E-05
     247.27 8.4037E-05
     248.05 4.6919E-05
     248.95 3.7591E-05
     250.25 1.0838E-04
     251.05 6.1513E-05
     253.27 1.4093E-04
     254.11 8.7545E-05
     255.81 3.6671E-05
     257.99 6.3037E-05
     258.15 1.0316E-04
     259.27 1.4925E-04
     260.96 5.2618E-05
     261.92 4.4650E-05
     262.85 3.3776E-05
     263.96 4.4648E-05
     265.23 9.1943E-05
     266.01 4.2851E-05
     266.97 3.3497E-05
     268.19 5.7111E-05
     270.12 3.5768E-05
     271.73 1.8022E-04
     272.29 4.2148E-05
     272.41 6.0982E-05
      274.6 7.3049E-05
     276.53 3.9143E-05
     277.99 1.1567E-04
      278.8 5.3910E-05
     279.74 3.4891E-05
     281.01 5.8041E-05
     282.37 1.2453E-04
     283.17 5.3905E-05
     284.26 8.6775E-05
     284.45 5.1313E-05
     285.28 3.9784E-05
     287.71 7.0671E-05
     288.59 3.5755E-05
     290.93 4.5737E-05
     292.33 9.5743E-05
     293.27 5.5238E-05
     294.56 8.1913E-05
     295.43 3.8491E-05
     296.72 5.6612E-05
     298.19 1.3185E-04
     299.07 6.1452E-05
     301.66 1.1948E-04
      303.7 5.3007E-05
     304.74 3.6038E-05
     306.03 4.7639E-05
     307.72 1.7003E-04
     309.53 3.7545E-05
     310.85 5.0040E-05
     312.38 1.1278E-04
     313.58 1.0648E-04
     314.67 7.7947E-05
     315.61 3.7850E-05
     317.13 7.6675E-05
     318.11 4.0418E-05
     319.55 6.7235E-05
     320.56 3.7847E-05
     323.47 1.0303E-04
     325.53 3.2645E-05
     327.17 8.1195E-05
     329.39 3.6320E-05
     331.09 9.7260E-05
       332. 3.9750E-05
     334.84 7.1193E-05
     336.19 7.9861E-05
     337.39 6.0909E-05
     338.57 4.4222E-05
     341.26 4.9605E-05
     342.43 3.4284E-05
     345.08 3.2368E-05
     345.37 6.2934E-05
     348.15 7.6008E-05
     349.38 5.6560E-05
     352.26 7.9840E-05
     354.75 4.4210E-05
     358.81 3.5130E-05
     359.03 5.7961E-05
     363.14 4.6056E-05
     364.92 1.0128E-04
     367.39 4.4933E-05
     370.21 4.0053E-05
     372.15 1.1739E-04
      373.2 4.9989E-05
     375.18 1.5141E-04
     377.46 3.8755E-05
     379.27 7.8508E-05
     380.44 4.1725E-05
      380.7 7.1141E-05
     382.48 1.3167E-04
     383.49 4.9167E-05
     386.61 9.9598E-05
     386.83 6.3412E-05
     387.96 4.6039E-05
     392.87 9.4028E-05
     394.05 4.6415E-05
     395.42 3.3423E-05
     398.68 4.7180E-05
     400.33 5.6517E-05
      403.5 6.1349E-05
     406.75 7.5321E-05
     407.97 3.6877E-05
     409.81 5.9363E-05
     412.81 4.0359E-05
     416.37 7.7189E-05
     417.65 4.0689E-05
     419.58 7.1689E-05
     420.96 4.4168E-05
     423.04 1.0120E-04
     424.58 8.2419E-05
      425.8 3.6566E-05
     427.87 7.9101E-05
     429.25 4.6393E-05
     430.83 3.8726E-05
     434.37 5.3337E-05
     435.82 3.4520E-05
     439.63 7.1670E-05
     446.14 3.6258E-05
     448.28 7.4054E-05
     451.51 4.5624E-05
     453.71 1.0033E-04
      456.8 8.4439E-05
     457.16 4.5248E-05
     460.35 4.3785E-05
     462.24 5.1596E-05
      464.2 6.7647E-05
     467.53 4.1336E-05
     469.52 5.4643E-05
     473.56 1.0281E-04
      476.6 3.3941E-05
     478.74 5.5087E-05
      480.4 3.8703E-05
     482.68 7.6495E-05
     486.18 4.9102E-05
     490.36 9.0878E-05
     491.85 4.6357E-05
     493.68 3.9989E-05
     500.06 1.0277E-04
     503.44 4.4487E-05
     505.95 1.0533E-04
     507.48 5.2422E-05
     511.32 4.3401E-05
     513.77 8.7919E-05
     517.22 3.7131E-05
     519.74 8.0985E-05
     523.37 4.1994E-05
     526.02 1.0618E-04
     527.56 4.9484E-05
     532.23 1.1153E-04
     533.66 4.3036E-05
     536.11 7.3980E-05
     540.41 8.7176E-05
      542.3 6.3814E-05
     546.21 3.9966E-05
     548.56 5.5045E-05
     551.02 8.7885E-05
     552.61 3.9313E-05
     555.03 5.7820E-05
     559.65 8.5740E-05
     561.72 7.3961E-05
      563.7 5.5037E-05
     566.02 6.5389E-05
     567.86 3.9307E-05
     572.89 8.9320E-05
     574.74 5.2818E-05
     576.79 4.0283E-05
     579.26 5.5028E-05
     583.57 4.1285E-05
     586.32 7.8317E-05
     588.79 1.0101E-04
      593.2 7.8311E-05
     595.03 4.0943E-05
     597.62 5.9237E-05
     601.99 3.9618E-05
     604.51 5.0265E-05
     609.08 4.0938E-05
     612.01 8.4996E-05
      616.3 4.5172E-05
     621.46 7.0367E-05
     623.35 3.5894E-05
     628.39 4.4432E-05
      633.7 7.3307E-05
     633.87 9.1495E-05
     636.25 8.1561E-05
     638.18 9.1490E-05
      640.9 4.0927E-05
     641.31 5.4547E-05
     643.17 4.1602E-05
     648.77 8.3585E-05
      653.5 5.5444E-05
     655.87 4.4788E-05
     658.22 3.5010E-05
      661.4 7.3893E-05
      666.1 4.2283E-05
     669.23 7.9554E-05
     676.64 4.7428E-05
     682.31 7.4489E-05
     684.42 3.8945E-05
     693.02 7.5097E-05
     695.17 3.9912E-05
      698.5 8.0851E-05
     703.81 6.9173E-05
     708.78 3.7990E-05
     712.35 9.3715E-05
     717.43 5.4962E-05
     722.78 4.1918E-05
     723.16 6.3191E-05
     728.53 4.6637E-05
     731.75 7.0882E-05
     734.27 4.9393E-05
       737. 4.2958E-05
     740.22 6.2153E-05
     745.59 4.0225E-05
     749.09 7.5683E-05
     754.61 5.3610E-05
      760.8 7.3232E-05
     763.26 4.3304E-05
     766.31 4.6623E-05
     769.11 3.8601E-05
     772.61 6.4742E-05
     778.25 4.3299E-05
     784.85 7.3219E-05
      787.4 4.3653E-05
     790.79 6.0619E-05
     796.76 5.5839E-05
     796.88 4.9370E-05
     799.64 3.9555E-05
     806.24 5.6296E-05
     809.44 5.9137E-05
     813.04 9.1368E-05
     819.21 7.6897E-05
     822.08 5.6290E-05
     825.17 5.0591E-05
     831.26 3.6132E-05
     835.01 5.8643E-05
     838.12 5.1004E-05
      841.3 4.6983E-05
     844.41 4.0197E-05
     848.02 5.4462E-05
     848.15 6.1095E-05
     857.53 3.6126E-05
     857.96 5.3572E-05
     861.52 6.5236E-05
     867.92 4.8543E-05
     871.09 3.9862E-05
     875.31 8.4826E-05
      878.4 6.3122E-05
     881.44 4.4713E-05
     888.92 7.6234E-05
     891.77 4.3983E-05
     895.59 6.0082E-05
       899. 7.1972E-05
     899.29 5.5802E-05
     902.41 5.1403E-05
     909.13 3.8565E-05
     916.54 5.0561E-05
     920.55 7.3757E-05
     927.01 5.8609E-05
     927.47 3.9522E-05
     935.07 7.9405E-05
     937.84 3.7930E-05
     945.86 6.7934E-05
     952.69 4.2897E-05
     952.96 5.3540E-05
     959.94 3.6400E-05
     964.62 7.9391E-05
     971.22 3.7000E-05
      975.9 7.6822E-05
     978.98 7.1349E-05
     979.62 4.2540E-05
     983.16 6.5188E-05
     983.32 5.7164E-05
     986.53 3.9508E-05
     990.82 5.6231E-05
     994.15 3.6996E-05
ENDDATA            871
ENDSUBENT          891
SUBENT        22980003   20080123   20080402   20080318       2192
BIB                  5         11
REACTION   (94-PU-240(N,G)94-PU-241,,SIG,,REL) Proportional to
            number of counts normalized to the flux monitor rate
SAMPLE     .Radioactive material (51.2 milligram, 458 MBq) was
            sandwiched between two thin, total mass < 75 milliG,
            AL layers and canned inside a 0.35 mm thick Titanum
            canning
ERR-ANALYS (EN-ERR-DIG) Incident neutron energy digitizing error
           (ERR-DIG)    Data digitizing error
STATUS     (CURVE)   Fig. 3 of main reference
           (PRELM)   By compiler
HISTORY    (20080123A)  Curve re-digitized
ENDBIB              11
COMMON               2          3
EN-ERR-DIG ERR-DIG
PER-CENT   PER-CENT
 3.2613E-03 3.8030E-03
ENDCOMMON            3
DATA                 2        904
EN         DATA
EV         ARB-UNITS
     10.089 5.7779E-05
     10.127 5.3679E-05
     10.165 5.1265E-05
     10.208 5.8841E-05
     10.245 5.3671E-05
     10.286 5.7234E-05
     10.365 5.3662E-05
     10.448 5.9365E-05
     10.487 5.6695E-05
      10.53 6.1581E-05
     10.569 5.7740E-05
     10.613 6.3880E-05
     10.655 6.7498E-05
     10.698 7.1980E-05
     10.744 8.3379E-05
     10.791 1.0300E-04
     10.837 1.1607E-04
     10.888 1.6308E-04
     10.936 2.0146E-04
     10.984 2.4887E-04
     11.028 2.5818E-04
     11.111 2.3765E-04
     11.151 2.1282E-04
     11.187 1.6604E-04
     11.225 1.3563E-04
     11.302 9.5637E-05
     11.385 7.9568E-05
     11.426 7.5294E-05
     11.427 7.1912E-05
     11.469 6.8050E-05
     11.511 6.4395E-05
     11.557 6.7420E-05
       11.6 6.2064E-05
     11.648 6.9297E-05
     11.691 6.3208E-05
     11.738 6.8027E-05
     11.787 7.5956E-05
     11.838 9.0445E-05
     11.893 1.2362E-04
     11.946 1.5698E-04
     12.003 2.2260E-04
      12.09 1.7851E-04
     12.125 1.2133E-04
     12.202 6.9891E-05
     12.289 5.4025E-05
     12.334 4.9278E-05
     12.431 5.2066E-05
     12.477 4.8372E-05
     12.527 5.1112E-05
     12.621 4.5769E-05
     12.674 5.1576E-05
     12.725 5.5000E-05
      12.82 4.8354E-05
     12.874 5.5499E-05
      12.92 4.9700E-05
      13.02 4.9240E-05
     13.073 5.2509E-05
      13.12 4.7023E-05
     13.175 5.3478E-05
     13.221 4.6161E-05
     13.276 5.1541E-05
     13.325 4.7447E-05
     13.434 5.5465E-05
      13.49 6.3079E-05
     13.549 7.6505E-05
       13.6 7.3064E-05
     13.647 6.2491E-05
     13.697 5.6478E-05
     13.749 5.4437E-05
     13.797 4.7423E-05
     13.854 5.2466E-05
     13.904 4.6984E-05
     13.964 5.5946E-05
     14.013 4.8738E-05
     14.072 5.4921E-05
     14.128 5.7501E-05
     14.247 7.4370E-05
     14.375 1.1775E-04
     14.489 1.2672E-04
     14.533 9.1853E-05
     14.541 1.1348E-04
     14.583 7.7130E-05
     14.738 2.3238E-04
     14.804 2.9510E-04
     14.864 3.1470E-04
     14.972 2.6424E-04
     15.055 1.0833E-04
     15.156 7.1622E-05
     15.211 6.4731E-05
     15.266 5.8503E-05
     15.388 6.4128E-05
     15.445 6.0129E-05
      15.51 6.8382E-05
     15.626 6.1799E-05
     15.691 6.8371E-05
      15.75 6.5296E-05
     15.806 5.7939E-05
     15.931 6.1217E-05
      15.99 5.6874E-05
     16.049 5.2839E-05
     16.114 5.5832E-05
     16.116 5.9542E-05
     16.171 4.9998E-05
     16.238 5.4809E-05
     16.358 4.7307E-05
     16.425 5.1859E-05
     16.548 4.5592E-05
     16.616 5.0440E-05
     16.742 4.6430E-05
     16.811 5.1842E-05
     16.872 4.6854E-05
     17.006 4.9962E-05
     17.066 4.3927E-05
     17.136 4.7713E-05
     17.265 4.3518E-05
     17.337 4.8590E-05
     17.469 4.5977E-05
     17.543 5.2289E-05
     17.616 5.8922E-05
     17.728 1.5754E-04
     17.882 2.2337E-04
     18.009 1.7267E-04
     18.114 8.0507E-05
     18.233 5.0838E-05
     18.296 4.3084E-05
     18.372 4.7229E-05
     18.509 4.1905E-05
     18.657 4.6358E-05
     18.796 4.0383E-05
     18.874 4.5090E-05
     18.943 4.1128E-05
     19.169 4.5916E-05
     19.242 4.4256E-05
      19.31 3.8910E-05
     19.394 4.7192E-05
     19.538 4.0734E-05
     19.619 4.5065E-05
     19.766 4.1103E-05
     19.773 4.6748E-05
     19.922 4.3031E-05
     19.928 4.8493E-05
      20.08 4.5050E-05
     20.251 6.0449E-05
      20.35 9.0575E-05
     20.443 1.1933E-04
      20.73 1.3758E-03
     20.756 2.2393E-03
     20.896 1.4942E-03
     21.014 1.4204E-04
     21.053 6.3841E-05
     21.204 5.1197E-05
     21.213 5.9856E-05
     21.371 5.2623E-05
      21.53 4.6263E-05
     21.617 4.9791E-05
     21.695 4.5000E-05
     21.869 4.9327E-05
     22.035 4.6248E-05
     22.132 5.6092E-05
     22.342 1.1073E-04
     22.448 1.5701E-04
     22.553 2.1460E-04
      22.71 1.5412E-04
      22.84 6.9906E-05
     22.904 4.5380E-05
     23.084 4.7075E-05
     23.165 4.1010E-05
     23.343 4.6636E-05
     23.353 3.9890E-05
     23.532 4.4948E-05
     23.615 3.9157E-05
     23.713 4.3720E-05
     23.891 3.9512E-05
     23.992 4.4935E-05
      24.09 4.9259E-05
     24.178 4.4930E-05
      24.37 4.8353E-05
     24.456 4.2124E-05
     24.643 3.9859E-05
     24.744 4.3294E-05
     24.833 3.9128E-05
     24.941 4.7023E-05
     25.027 3.9850E-05
     25.231 4.5736E-05
     25.318 3.8760E-05
     25.424 4.3677E-05
     25.516 3.9474E-05
     25.624 4.5726E-05
     25.814 3.9832E-05
     25.822 4.4888E-05
     26.017 4.0942E-05
     26.125 4.6135E-05
     26.344 5.8048E-05
      26.49 1.1251E-04
     26.607 1.3771E-04
     26.785 9.0219E-05
     26.861 6.0205E-05
     27.054 4.7839E-05
     27.157 4.6536E-05
     27.356 3.9435E-05
      27.47 4.3629E-05
     27.587 5.1005E-05
     27.684 4.4027E-05
     27.891 3.9424E-05
     28.007 4.4019E-05
     28.104 3.7649E-05
     28.222 4.2425E-05
     28.324 3.8343E-05
     28.446 4.5240E-05
     28.766 3.8335E-05
     28.998 4.3196E-05
     29.116 4.6489E-05
     29.334 4.1630E-05
     29.455 4.6056E-05
     29.558 3.9755E-05
     29.683 4.5212E-05
     29.788 3.9751E-05
     29.913 4.4794E-05
     30.018 3.9022E-05
     30.143 4.3571E-05
     30.364 3.6922E-05
      30.61 4.1988E-05
     30.719 3.6916E-05
     30.968 4.2369E-05
     31.203 3.9001E-05
     31.336 4.5594E-05
     31.464 4.9524E-05
     31.689 4.2355E-05
     31.696 3.8635E-05
     31.945 4.3936E-05
     32.058 3.8276E-05
     32.303 3.6552E-05
     32.313 4.1192E-05
     32.442 4.3126E-05
     32.578 4.8598E-05
     32.708 5.0880E-05
     32.955 4.6835E-05
     33.076 4.3115E-05
      33.19 3.6538E-05
     33.331 4.2324E-05
     33.575 3.5213E-05
     33.589 4.1933E-05
     33.708 3.6530E-05
     33.979 4.0785E-05
     34.098 3.5205E-05
     34.244 4.1157E-05
     34.496 3.4877E-05
     34.645 4.1531E-05
     34.763 3.4555E-05
     35.045 3.9658E-05
     35.184 4.0765E-05
      35.31 3.6506E-05
     35.585 3.6839E-05
     35.598 4.2285E-05
     35.742 4.5092E-05
     35.891 5.0813E-05
     36.156 4.3859E-05
     36.426 3.8914E-05
     36.579 4.4256E-05
     36.712 3.9998E-05
     36.869 4.6760E-05
     37.145 4.1872E-05
      37.16 4.9406E-05
     37.437 4.3436E-05
     37.453 5.1251E-05
     37.755 5.7749E-05
     38.066 6.9396E-05
     38.426 1.3450E-04
     38.851 2.2193E-03
     39.185 3.0894E-03
     39.235 1.1035E-03
     39.277 3.6619E-04
      39.34 1.5013E-04
     39.456 1.0394E-04
     39.711 6.2685E-05
     39.853 5.5621E-05
     40.001 5.2152E-05
     40.162 5.5106E-05
     40.303 4.8006E-05
     40.471 5.3602E-05
     40.614 4.6696E-05
     40.782 5.1661E-05
     41.091 4.7993E-05
     41.106 5.5597E-05
     41.456 7.3918E-05
     41.703 1.6750E-04
     41.954 3.9016E-04
       42.3 2.1563E-03
     42.494 2.8408E-03
     42.827 6.3488E-04
      42.85 1.7054E-04
     42.935 8.0994E-05
      43.21 5.3061E-05
     43.222 4.7520E-05
     43.385 5.0675E-05
     43.535 4.3342E-05
     44.056 4.8388E-05
     44.206 4.0260E-05
     44.397 4.7940E-05
     44.555 4.2149E-05
     44.787 7.1171E-05
     45.083 2.0670E-04
     45.391 1.4309E-04
      45.45 5.2057E-05
     45.603 4.2524E-05
     45.767 3.8081E-05
     45.954 4.1363E-05
     46.115 3.5704E-05
     46.487 4.0231E-05
     46.653 3.5698E-05
     47.039 4.3294E-05
     47.205 3.7716E-05
     47.403 4.2893E-05
     47.756 3.7710E-05
     47.976 5.0139E-05
     48.196 6.6666E-05
      48.37 5.9700E-05
     48.708 4.8765E-05
     48.721 4.4075E-05
     48.882 3.9109E-05
     49.268 4.0944E-05
     49.443 3.5998E-05
     49.653 4.1699E-05
     50.053 4.6556E-05
     50.278 5.9667E-05
      50.75 1.1249E-04
     51.069 6.2459E-05
     51.185 4.2845E-05
     51.218 3.3429E-05
     51.403 3.8723E-05
     51.779 3.2514E-05
     51.999 3.7664E-05
     52.386 3.3112E-05
     52.609 3.8356E-05
     52.928 9.0169E-05
      53.26 2.3025E-04
     53.552 9.4394E-05
     53.866 4.4828E-05
     54.047 3.6619E-05
      54.27 4.0142E-05
     54.453 3.3094E-05
     54.897 3.8333E-05
     55.087 3.2486E-05
     55.318 3.6945E-05
     55.732 3.3083E-05
     56.007 5.0028E-05
      56.49 6.9643E-05
     56.611 4.2392E-05
     56.637 3.5274E-05
     57.071 4.0484E-05
     57.548 5.0937E-05
     57.799 6.1778E-05
     58.046 7.2223E-05
     58.286 7.9903E-05
     58.723 7.1550E-05
     59.146 5.7379E-05
     59.352 4.9076E-05
     59.707 1.1223E-04
      59.95 1.2079E-04
     60.327 6.7685E-05
     60.516 5.0434E-05
     60.716 4.0448E-05
     61.448 4.6848E-05
     61.662 4.0069E-05
     61.914 4.3522E-05
     62.364 3.5878E-05
     62.638 4.3917E-05
     62.865 3.9691E-05
     63.126 4.4317E-05
     63.355 4.0053E-05
     63.645 5.2768E-05
     64.108 4.3500E-05
      64.33 3.6865E-05
     64.596 4.0785E-05
     64.824 3.5530E-05
     65.105 4.2699E-05
     66.001 9.5858E-05
     66.353 1.6947E-04
     66.664 2.3377E-04
     67.095 6.4252E-04
     67.569 2.2426E-03
     67.968 1.0848E-03
     68.025 3.2838E-04
     68.557 7.2716E-05
     69.024 4.9879E-05
     69.267 4.3452E-05
     69.506 3.6824E-05
     70.064 4.0738E-05
     70.315 3.6147E-05
     70.877 3.9623E-05
     71.126 3.4202E-05
      71.43 3.9985E-05
     71.966 3.6135E-05
     72.571 4.6309E-05
     72.932 7.1328E-05
      74.06 6.1843E-04
     74.093 1.6999E-03
      74.19 6.7486E-05
     74.583 7.9620E-05
     74.667 5.1216E-05
     75.152 8.6477E-05
     75.162 4.8463E-05
     75.759 2.5115E-04
     76.319 4.7134E-05
     76.586 4.0686E-05
      76.86 3.6101E-05
     77.176 3.9575E-05
     77.444 3.3848E-05
     78.077 3.9568E-05
     78.363 3.6425E-05
     78.641 3.2025E-05
     78.961 3.4466E-05
     79.243 3.0583E-05
      79.58 3.5426E-05
     80.165 3.0021E-05
     80.508 3.5096E-05
      81.15 3.8119E-05
     81.792 4.0276E-05
     82.138 4.6227E-05
      83.07 4.0639E-05
     83.433 4.9288E-05
     84.052 4.2936E-05
     84.405 4.8829E-05
     85.085 5.4517E-05
      85.44 6.1434E-05
     85.828 7.9461E-05
     86.283 1.3920E-04
     86.889 1.0372E-04
     87.079 5.3506E-05
     87.382 4.5764E-05
     88.028 4.9705E-05
      88.08 3.9500E-05
     88.735 4.3698E-05
     89.042 3.7033E-05
     89.412 4.1349E-05
     90.086 3.7714E-05
     91.276 6.8533E-05
     91.932 1.1519E-03
     92.017 7.8656E-05
     92.424 4.4689E-04
     92.583 4.1710E-05
     93.089 7.7923E-05
     93.732 5.5452E-05
      93.83 3.8569E-04
     94.058 4.7428E-05
     94.361 3.6663E-05
     94.751 4.0562E-05
     95.463 3.6657E-05
     96.332 6.1894E-05
      96.62 4.3645E-05
     97.026 4.9636E-05
     97.366 4.2845E-05
     97.764 4.6538E-05
     98.476 3.8364E-05
     99.269 4.2833E-05
     99.621 3.7659E-05
     100.41 4.0528E-05
     101.16 3.5305E-05
     101.19 4.0524E-05
     101.95 3.6623E-05
     101.99 4.1652E-05
     102.76 3.8341E-05
     103.21 4.7364E-05
     104.08 6.0144E-05
     104.41 4.6494E-05
      104.9 6.3547E-05
     105.78 3.7801E-04
     106.55 1.4332E-03
     106.84 1.9321E-04
     106.91 5.4339E-05
     107.53 1.1653E-04
     108.16 5.4832E-05
      108.5 4.0857E-05
     109.36 4.3568E-05
     109.74 3.7954E-05
     111.03 4.5189E-05
     111.07 3.8298E-05
     111.48 4.1219E-05
     111.87 3.6239E-05
     112.35 4.1979E-05
     112.74 3.5904E-05
     113.65 3.9720E-05
      114.5 3.5568E-05
     114.98 4.0450E-05
     115.83 3.5236E-05
     115.88 4.1196E-05
     116.43 5.9498E-05
     117.28 4.9502E-05
     117.68 4.1187E-05
      118.1 3.6546E-05
      118.6 4.1562E-05
     119.89 1.3855E-04
     120.22 8.9939E-05
     120.48 4.5974E-05
     120.88 3.7211E-05
     121.55 6.9519E-05
     123.25 7.9417E-04
     123.37 2.5171E-04
     123.74 4.4297E-05
     123.78 3.9308E-05
     124.25 4.3488E-05
     124.71 4.0776E-05
     125.15 3.4556E-05
     125.68 4.0029E-05
     126.12 3.5193E-05
     126.73 5.1299E-05
     128.08 3.4229E-05
     128.16 4.3469E-05
      129.1 3.7176E-05
     129.64 4.1893E-05
      130.1 3.6832E-05
     130.65 4.2275E-05
     131.26 5.6209E-05
     132.17 4.0742E-05
     132.73 4.6762E-05
     133.71 4.0735E-05
     133.76 4.7625E-05
     134.45 7.7514E-05
     135.72 1.5161E-04
     135.88 5.1721E-05
     136.82 7.9298E-04
     136.88 4.3829E-05
     137.52 5.9905E-05
     137.89 3.8180E-05
     138.98 4.0340E-05
     139.48 3.6125E-05
     141.15 3.9597E-05
     141.63 3.3557E-05
     142.23 3.7814E-05
     143.39 4.5024E-05
     144.62 6.0972E-05
     144.96 3.3546E-05
     146.14 3.8500E-05
     146.66 3.3850E-05
      147.5 7.0613E-05
     148.36 3.3228E-05
     148.99 3.8138E-05
     149.53 3.4468E-05
      150.2 4.3370E-05
     151.27 3.4462E-05
     151.38 4.5405E-05
     153.54 5.7918E-04
     153.62 1.5415E-04
     153.69 3.9914E-05
     154.24 3.5092E-05
     155.47 3.8114E-05
     156.01 3.2900E-05
     157.31 4.1016E-05
     158.07 5.9238E-05
     158.51 3.8104E-05
     159.09 3.5077E-05
     159.71 3.5725E-05
     160.91 3.1991E-05
     160.95 3.5395E-05
     162.16 3.2283E-05
     162.25 3.9883E-05
     163.83 4.0062E-04
     164.74 3.6372E-05
      165.2 1.0960E-04
     165.43 4.0986E-05
     166.61 3.1682E-05
     167.51 5.8648E-05
     168.57 3.3167E-05
     169.31 4.0973E-05
     170.04 4.7900E-05
     171.27 4.9460E-04
     171.71 3.8768E-05
      171.9 3.6350E-05
     173.22 3.4713E-05
     173.82 2.9418E-05
     174.56 3.4077E-05
     175.22 3.2845E-05
     175.95 3.7354E-05
      176.7 4.3269E-05
     177.26 3.2242E-05
     178.14 4.9661E-05
     178.62 4.2474E-05
     178.76 3.1074E-05
     179.39 3.7343E-05
     180.68 2.9947E-05
     182.13 3.3130E-05
     182.85 3.4055E-05
     183.58 3.5328E-05
     185.08 4.0921E-05
     186.96 4.8500E-04
      187.2 3.7665E-05
     188.56 3.1337E-05
     189.36 3.5638E-05
     190.77 3.1332E-05
     191.61 3.8706E-05
     192.25 3.1328E-05
     193.16 4.4016E-05
     194.48 3.0752E-05
     195.32 3.6619E-05
     196.41 7.0973E-05
     198.38 3.7290E-05
     199.06 3.1313E-05
     200.33 8.2954E-05
     202.17 3.1595E-05
     203.85 3.8671E-05
     204.93 6.8370E-05
     206.18 3.5269E-05
     206.88 2.9345E-05
     207.99 5.2360E-05
     209.27 2.8022E-05
     210.16 3.2460E-05
     210.93 2.9881E-05
     212.65 3.4295E-05
     213.41 3.0431E-05
     214.28 3.3053E-05
     215.87 2.9059E-05
       217. 4.9067E-05
     219.26 2.9865E-05
     221.29 5.4273E-05
     221.96 3.8624E-05
     222.65 2.8517E-05
     223.71 4.0436E-05
     225.25 2.8512E-05
     225.41 3.7912E-05
     226.15 3.0127E-05
     227.97 3.3329E-05
     228.96 4.0053E-05
     230.57 3.0119E-05
     231.82 5.4738E-05
     232.39 3.1243E-05
     234.28 3.6523E-05
     235.46 5.6775E-05
     236.04 3.2705E-05
     238.73 2.9555E-05
     241.09 3.1084E-04
     241.63 3.5514E-05
     242.47 3.0097E-05
      243.7 4.8094E-05
     245.39 3.4541E-05
     247.19 2.9541E-05
     248.22 3.2984E-05
     250.51 5.8311E-05
     251.09 3.1497E-05
     252.62 7.4728E-05
       254. 3.0355E-05
     254.07 3.3584E-05
     255.96 2.9799E-05
     257.26 4.7617E-05
     257.98 3.1197E-05
     259.14 3.9982E-05
     262.62 3.5965E-04
     263.14 5.5142E-05
      263.4 3.7139E-05
     264.18 3.8528E-05
     265.11 3.3257E-05
      267.2 3.4817E-05
     268.15 3.0894E-05
     270.44 4.1837E-05
     271.26 2.9774E-05
     272.44 3.5781E-05
     274.02 7.6728E-05
     275.66 3.7803E-05
      277.2 7.4629E-05
     278.71 3.0037E-05
     280.15 4.9340E-05
     280.88 3.0034E-05
     283.19 3.6091E-05
     284.74 6.7426E-05
     286.63 4.3368E-05
     289.46 4.5194E-04
      290.1 5.0694E-05
     290.98 3.6410E-05
     293.35 4.2174E-05
     294.29 3.2602E-05
     295.46 3.3821E-05
      296.5 2.9194E-05
     297.85 3.8462E-05
     298.85 3.1418E-05
     300.36 4.9291E-05
     301.13 2.9457E-05
     302.42 3.4755E-05
     302.85 6.0888E-05
     304.69 3.1122E-05
      307.1 1.5263E-04
     307.14 3.4748E-05
      309.4 2.9446E-05
     311.05 5.2540E-05
     311.78 2.8642E-05
      313.1 3.2874E-05
     314.21 2.9170E-05
     315.87 5.0632E-05
     316.64 2.8635E-05
     318.15 4.0604E-05
     320.53 3.6027E-05
     323.29 2.3066E-04
     323.51 6.5472E-05
     324.15 5.4978E-05
     324.62 3.1382E-05
     325.82 5.1549E-05
     326.74 4.5322E-05
     326.98 3.4085E-05
     327.92 3.0523E-05
      331.8 3.2546E-05
     334.25 2.7835E-05
     335.78 3.7010E-05
     337.33 4.9209E-05
     340.73 1.2112E-04
     340.97 3.4696E-05
     343.42 2.7824E-05
     345.29 5.1035E-05
     348.94 3.3432E-05
     349.12 1.8822E-04
     350.17 2.8858E-05
     352.04 5.1492E-05
     354.28 3.5320E-05
     354.44 2.9660E-05
     355.73 3.2216E-05
     356.97 2.7809E-05
      359.9 3.2809E-05
     362.64 3.0761E-05
     366.02 2.6187E-04
     367.08 3.8701E-05
     368.29 3.0754E-05
     374.23 1.7310E-04
     375.64 3.6277E-05
     376.97 3.1603E-05
     378.55 3.5941E-05
     381.31 2.9629E-05
     387.37 3.9389E-05
     387.54 3.3077E-05
     388.81 3.1300E-05
     390.25 2.9080E-05
     391.89 3.3071E-05
     394.86 3.0723E-05
     396.61 3.8304E-05
     397.89 2.9611E-05
     401.09 3.2758E-05
     402.91 4.2762E-05
     404.72 5.4303E-05
     409.66 3.0567E-04
     410.66 3.7935E-05
     411.99 2.9596E-05
     413.98 4.2745E-05
     415.24 3.0985E-05
     417.02 3.6223E-05
     418.49 3.1556E-05
     421.33 9.8641E-05
     423.44 3.3648E-05
     424.94 2.9312E-05
     428.46 3.5878E-05
     429.94 3.0405E-05
     431.66 3.7217E-05
     431.83 3.1833E-05
     435.15 3.6201E-05
     438.31 2.9570E-05
     440.23 3.6195E-05
     443.47 3.0672E-05
     445.43 3.7891E-05
     446.89 3.0110E-05
     449.33 5.5738E-05
     450.42 3.1523E-05
     453.92 1.4496E-04
     454.37 4.6798E-05
     455.82 3.5846E-05
     457.44 3.1516E-05
     459.72 4.8543E-05
      461.2 3.7526E-05
     462.71 2.9547E-05
     466.51 3.5181E-05
      468.1 2.9272E-05
     469.04 6.4529E-05
     471.85 3.2086E-05
     476.57 7.6825E-05
     479.34 3.5820E-05
     480.98 2.9803E-05
     484.87 3.3892E-05
      486.6 3.0074E-05
     492.37 3.2067E-05
     494.47 3.7488E-05
     499.24 7.8199E-05
     500.05 3.2060E-05
     503.86 1.3952E-04
     507.97 3.5138E-05
     509.77 3.0894E-05
     514.38 5.0744E-05
     516.74 6.7470E-05
     518.01 3.8511E-05
     519.79 1.4873E-04
      521.8 3.2336E-05
     526.31 4.5430E-05
      530.2 5.5605E-05
     530.67 3.9212E-05
     534.17 3.5113E-05
     536.81 5.3098E-05
     540.21 3.0306E-05
     542.52 3.5430E-05
     546.63 3.2914E-05
       551. 1.6442E-04
     552.99 3.2309E-05
     557.12 1.3185E-04
     559.82 4.2172E-05
     565.95 3.1710E-05
     568.41 3.8108E-05
     572.59 1.4852E-04
     574.66 2.9186E-05
     577.17 3.5398E-05
       580. 5.3040E-05
     581.76 3.8095E-05
     583.87 3.4430E-05
     589.57 7.5196E-05
      593.2 3.9876E-05
     595.12 3.1110E-05
     602.44 1.8168E-04
     604.75 3.8780E-05
     609.13 3.1677E-05
     611.94 4.2118E-05
     616.06 1.2926E-04
     616.46 3.6354E-05
     618.53 2.9696E-05
     623.56 3.4083E-05
     625.76 2.9691E-05
     628.58 3.8053E-05
     630.69 3.1084E-05
     635.71 3.3452E-05
     639.87 9.5385E-05
     640.77 3.6001E-05
     644.83 9.4502E-05
      648.2 3.5016E-05
     655.39 2.7823E-05
     655.77 3.5010E-05
     663.17 2.9941E-05
     666.66 5.1494E-05
     671.29 1.7166E-04
      671.3 3.7324E-05
     673.54 3.0489E-05
     676.61 3.9801E-05
     681.52 3.2510E-05
     686.42 1.1881E-04
     687.12 3.8709E-05
     689.45 3.1913E-05
     695.08 3.7306E-05
     697.38 2.9919E-05
     703.23 3.7992E-05
     705.48 2.9100E-05
     711.36 3.6279E-05
     713.77 2.9909E-05
     716.77 3.4015E-05
     719.98 4.3195E-05
     725.32 3.7627E-05
     730.45 2.8556E-05
     733.64 3.4634E-05
     736.21 2.9896E-05
     739.25 3.3075E-05
     742.24 3.5271E-05
     750.59 2.9888E-05
      754.2 4.3166E-05
     759.48 1.4657E-04
     759.78 3.7258E-05
     768.31 3.1283E-05
      769.6 6.0635E-05
     774.62 3.7248E-05
     780.26 3.0706E-05
     783.63 3.6563E-05
     790.26 4.7727E-05
     792.56 3.2740E-05
     792.97 4.0077E-05
     795.71 3.3964E-05
     801.14 1.0814E-04
     804.83 3.1262E-05
     814.55 3.6543E-05
     820.82 1.6348E-04
     820.94 3.7561E-05
     823.77 3.1831E-05
     829.81 1.2293E-04
     830.52 3.7555E-05
     839.77 3.0393E-05
     843.38 3.5860E-05
      849.6 3.0669E-05
     849.99 3.6858E-05
     854.64 6.8859E-05
     856.24 3.1234E-05
     865.69 1.1206E-04
     866.54 3.5846E-05
     869.57 3.0942E-05
     873.23 3.5189E-05
     883.06 2.9818E-05
     888.34 6.8191E-05
     889.92 2.9815E-05
     897.21 3.5175E-05
     903.57 1.2391E-04
     903.95 3.1789E-05
     907.79 3.6823E-05
     917.32 1.0694E-04
     918.41 3.7157E-05
     925.31 3.3580E-05
     927.75 9.4879E-05
     932.85 3.8896E-05
      939.5 3.0344E-05
      947.2 3.5800E-05
     957.12 1.0302E-04
     957.81 2.9783E-05
      968.5 1.1188E-04
     972.76 2.9777E-05
     979.56 1.0111E-04
     984.69 3.7463E-05
     992.64 4.2213E-05
     993.47 5.8770E-05
     995.72 3.1167E-05
 1.0039E+03 3.6434E-05
ENDDATA            906
ENDSUBENT          926
ENDENTRY             3
