ENTRY            12702   20210928   20220609   20220609       1493
SUBENT        12702001   20210928   20220609   20220609       1493
BIB                  9         19
TITLE      The Energy Level Structure of Tl-203 and
           Tl-205 from the (n,n'gamma) Reaction
AUTHOR     (V.M.Cottles)
REFERENCE  (T,COTTLES,1975)
           (J,BAP,16,516(BG14),1971)
INSTITUTE  (1USATUL)
FACILITY   (VDG,1USATUL) The Tulane University 3-MeV Van de
           Graaff.
INC-SOURCE (P-T)
SAMPLE     For ring geometry - natural thallium ring for
           cylindrical geometry - 425.9 grams thallium, cylinder
           4.84-cm high and 3.08-cm diameter (2.08 moles of
           chemically pure natural thallium).
DETECTOR   (GELI) Volume of 33 cm**3.
           (LONGC) BF3 counter to monitor flux.
HISTORY    (19811204C)
           (20210928A) BP: Updated to new date formats, lower
           case. Corrections according last EXFOR rules and
           Dict. Digitized 203,205Tl data.
ENDBIB              19
NOCOMMON             0          0
ENDSUBENT           22
SUBENT        12702002   20210928   20220609   20220609       1493
BIB                  7         23
REACTION   (81-TL-203(N,INL)81-TL-203,PAR,DA,G)
MONITOR    (26-FE-56(N,INL)26-FE-56,PAR,SIG,G) Data normalized
           to 846-keV gamma production cross section.
METHOD     (TOF) Ring geometry used. Thallium ring mounted
           coaxially with detector. Iron used to shield detector
           from direct neutrons. Background run made using
           carbon and bismuth scatterers.
CORRECTION Corrections made for-
           -gamma ray absorption in scatterer
           -background
           -efficiency of detectors
           -scattered neutrons in long counter
           -neutron attenuation in long counter
ERR-ANALYS (DATA-ERR) Total error is nominally +-40 percent.
           This includes-
           -statistical uncertainty in photopeak areas
           -uncertainty in correction parameters
           -uncertainty in monitor cross section
           -assumption of isotopic gamma production from sample
           -assumption of constant efficiency along detector
            length
STATUS     (CURVE) Fig. 4.3, page 45 of Diss. Cottles,1975.
HISTORY    (20210928A) BP: Digitized data, corrected reaction.
ENDBIB              23
COMMON               2          3
ANG        E-NRM
ADEG       KEV
       95.0    846.
ENDCOMMON            3
DATA                 4        119
E          EN         DATA       DATA-ERR
KEV        MEV        MB/SR      MB/SR
     279.52      0.512      8.421      9.109
     279.52      0.742      8.779      6.374
     279.52      0.911     13.239     10.182
     279.52      1.005     53.965     20.574
     279.52      1.099     51.020     15.483
     279.52      1.181     45.551     14.158
     279.52      1.274     38.756     16.682
     279.52      1.378     38.335     16.640
     279.52      1.447     59.898     16.724
     279.52      1.562     58.151     19.206
     279.52      1.655     52.640     17.965
     279.52      1.758     47.086     19.459
     279.52      1.851     41.575     21.941
     279.52      1.945     82.301     20.490
     279.52      2.025    108.955     25.665
     279.52      2.122     76.453     23.140
     363.60      1.460      8.435      2.127
     363.60      1.561     10.656      1.743
     363.60      1.657      8.501      2.245
     363.60      1.759      7.970      2.239
     363.60      1.863      8.314      2.127
     363.60      1.970     12.033      3.123
     363.60      2.036     10.387      2.748
     363.60      2.137      6.605      2.005
     401.26      0.894      3.554      3.741
     401.26      1.086     11.097      4.426
     401.26      1.162     16.490      4.364
     401.26      1.248     21.852      8.791
     401.26      1.355     27.151      8.074
     401.26      1.433     35.661      7.512
     401.26      1.526     34.757      5.611
     401.26      1.610     35.754      8.198
     401.26      1.713     35.443      8.853
     401.26      1.820     23.254      6.920
     401.26      1.918     30.455      9.975
     401.26      2.007     40.804     10.567
     401.26      2.096     33.666     10.754
     679.50      1.269      0.539      0.411
     679.50      1.459      4.179      1.158
     679.50      1.557      2.862      1.101
     679.50      1.651      4.546      1.226
     679.50      1.940      3.459      1.496
     679.50      2.027      3.849      1.632
     764.32      1.484      3.947      1.512
     764.32      1.577      7.225      2.278
     764.32      1.654      8.859      2.283
     764.32      1.760      9.476      2.025
     764.32      1.869      7.940      2.406
     764.32      1.967      9.571      2.531
     764.32      2.047     11.838      3.039
     764.32      2.144     13.215      3.545
     786.51      1.259      3.549      2.647
     786.51      1.367      6.395      3.630
     786.51      1.445     10.616      4.628
     786.51      1.543     14.142      4.325
     786.51      1.630     17.351      5.338
     786.51      1.726     19.214      4.672
     786.51      1.826     16.072      4.340
     786.51      1.924     19.931      5.352
     786.51      2.023     24.455      5.626
     786.51      2.110     19.665      6.639
     793.69      1.361      2.191      2.352
     793.69      1.560     13.728      6.551
     793.69      1.638     15.991      5.611
     793.69      1.734     16.821      6.596
     793.69      1.850     19.040      7.503
     793.69      1.942     27.877     10.818
     793.69      2.016     38.617      9.877
     793.69      2.109     35.214     11.780
     904.73      1.555      2.861      1.926
     904.73      1.654      4.939      2.111
     904.73      1.753      7.978      2.891
     904.73      1.859      7.937      3.279
     904.73      1.949     10.787      4.229
     904.73      2.032     15.756      3.656
     904.73      2.140     17.638      3.841
     953.64      1.434      0.670      0.589
     953.64      1.534      2.139      0.821
     953.64      1.619      1.986      0.925
     953.64      1.727      2.755      1.386
     953.64      1.825      3.411      1.630
     953.64      1.937      5.689      1.858
     953.64      2.026      9.373      2.555
     953.64      2.131      9.329      2.443
    1044.00      1.369     14.701      5.927
    1044.00      1.475     13.934      6.525
    1044.00      1.552     22.266      8.111
    1044.00      1.642     16.833      5.641
    1044.00      1.741     18.575      7.188
    1044.00      1.954     27.660      7.162
    1044.00      2.023     20.693      5.043
    1044.00      2.148     19.588      5.628
    1115.56      1.455      3.587      1.138
    1115.56      1.570      3.571      1.140
    1115.56      1.657      3.938      1.138
    1115.56      1.763      4.176      1.073
    1115.56      1.867      3.972      1.201
    1115.56      1.956      4.654      1.136
    1115.56      2.043      5.021      1.389
    1115.56      2.135      4.250      1.202
    1171.01      1.710      1.070      0.615
    1171.01      1.822      2.578      0.916
    1171.01      1.923      3.844      1.099
    1171.01      2.021      4.437      1.283
    1171.01      2.111      5.399      1.409
    1305.17      1.741      1.222      0.766
    1305.17      1.845      2.134      0.691
    1305.17      1.942      2.276      0.695
    1305.17      2.017      3.114      0.731
    1305.17      2.125      2.217      0.732
    1406.71      1.648      2.078      1.386
    1406.71      1.755      2.609      1.615
    1406.71      1.864      4.058      1.845
    1406.71      1.956      5.744      2.185
    1406.71      2.044      9.386      2.542
    1406.71      2.126      8.203      3.579
    1696.52      1.943      1.408      0.831
    1696.52      2.035      2.600      0.800
    1696.52      2.135      2.159      0.677
ENDDATA            121
ENDSUBENT          153
SUBENT        12702003   20210928   20220609   20220609       1493
BIB                  7         23
REACTION   (81-TL-205(N,INL)81-TL-205,PAR,DA,G)
MONITOR    (26-FE-56(N,INL)26-FE-56,PAR,SIG,G) Data normalized
           to 846-keV gamma production cross section.
METHOD     (TOF) Ring geometry used. Thallium ring mounted
           coaxially with detector. Iron used to shield detector
           from direct neutrons. Background run made using
           carbon and bismuth scatterers.
CORRECTION Corrections made for-
           -gamma ray absorption in scatterer
           -background
           -efficiency of detectors
           -scattered neutrons in long counter
           -neutron attenuation in long counter
ERR-ANALYS (DATA-ERR) Total error is nominally +-40 percent.
           This includes-
           -statistical uncertainty in photopeak areas
           -uncertainty in correction parameters
           -uncertainty in monitor cross section
           -assumption of isotopic gamma production from sample
           -assumption of constant efficiency along detector
            length
STATUS     (CURVE) Fig. 4.3, page 46 of Diss. Cottles,1975.
HISTORY    (20210928A) BP: Digitized data, corrected reaction.
ENDBIB              23
COMMON               2          3
ANG        E-NRM
ADEG       KEV
       95.0   846.
ENDCOMMON            3
DATA                 4        123
E          EN         DATA       DATA-ERR
KEV        MEV        MB/SR      MB/SR
     204.25      0.533     14.961      9.363
     204.25      0.742     20.950      9.396
     204.25      0.902     31.171     12.542
     204.25      0.995     72.735     14.582
     204.25      1.071     68.471     11.468
     204.25      1.181     63.122     12.466
     204.25      1.275     60.920     10.405
     204.25      1.369     56.634     11.425
     204.25      1.457     84.659     14.593
     204.25      1.541     77.259     16.665
     204.25      1.642     70.880     12.477
     204.25      1.749     56.157     13.540
     204.25      1.849     46.653      9.363
     204.25      1.936     71.553     14.603
     204.25      2.028    108.951     23.988
     204.25      2.115     89.042     18.781
     415.62      0.727      6.117      4.282
     415.62      0.896     16.436      5.730
     415.62      1.069     37.459      7.871
     415.62      1.164     37.949      6.444
     415.62      1.243     39.906      7.892
     415.62      1.355     40.355
     415.62      1.456     53.691      9.992
     415.62      1.541     50.632     11.440
     415.62      1.644     50.387      7.096
     415.62      1.746     47.288      7.871
     415.62      1.836     36.358
     415.62      1.936     47.553      7.198
     415.62      2.029     63.051     11.358
     415.62      2.125     46.391     11.460
     506.91      1.636      5.908      3.608
     506.91      1.728      4.715      1.946
     506.91      1.828      6.431      3.062
     506.91      1.928      8.008      2.785
     506.91      2.007     11.269      3.208
     506.91      2.112     14.646      2.908
     520.58      1.446      0.780      0.514
     520.58      1.540      3.043      0.911
     520.58      1.643      4.103      1.088
     520.58      1.728      3.911      1.036
     520.58      1.849      3.766      1.198
     520.58      1.940      5.686      1.771
     520.58      2.022      6.352      1.881
     520.58      2.135      6.323      1.938
     619.00      0.907      0.358      0.280
     619.00      0.996      0.734      0.280
     619.00      1.080      0.655      0.316
     619.00      1.165      0.646      0.281
     619.00      1.259      0.566      0.210
     619.00      1.363      0.800      0.386
     619.00      1.440      1.845      0.667
     619.00      1.545      1.166      0.561
     619.00      1.933      1.616      0.670
     619.00      2.021      3.045      0.949
     619.00      2.112      3.702      1.227
     719.30      1.271      4.382      2.537
     719.30      1.367      5.933      2.976
     719.30      1.456      8.773      4.676
     719.30      1.548     15.014      5.526
     719.30      1.635     16.579      6.404
     719.30      1.748     17.253      5.965
     719.30      1.851     16.665      6.869
     719.30      1.948     29.282     10.682
     719.30      2.031     44.902     14.028
     719.30      2.126     45.178     14.906
     936.63      1.362      2.881      2.418
     936.63      1.454      8.438      5.138
     936.63      1.545     11.836      4.339
     936.63      1.634     14.425      5.105
     936.63      1.731     16.193      4.598
     936.63      1.843     16.051      6.454
     936.63      1.946     22.676      6.465
     936.63      2.016     31.234      6.994
     936.63      2.126     28.664      8.387
     976.46      1.364      0.839      0.739
     976.46      1.454      2.278      1.262
     976.46      1.535      3.720      1.581
     976.46      1.641      4.627      1.689
     976.46      1.737      5.432      1.998
     976.46      1.841      5.918      2.530
     976.46      1.936      9.039      3.582
     976.46      2.022     11.743      3.378
     976.46      2.122     10.757      3.372
    1218.95      1.363      1.772      0.722
    1218.95      1.448      1.532      0.836
    1218.95      1.540      3.372      1.141
    1218.95      1.629      4.172      1.353
    1218.95      1.730      3.717      1.141
    1218.95      1.836      4.407      1.561
    1218.95      1.931      4.683      1.766
    1218.95      2.021      8.504      2.598
    1218.95      2.105      7.743      2.719
    1234.18      1.545      1.314      0.744
    1234.18      1.632      1.480      0.845
    1234.18      1.722      2.592      1.160
    1234.18      1.839      4.005      1.480
    1234.18      1.938      5.007      1.996
    1234.18      2.022      9.490      2.833
    1234.18      2.131      8.277      3.673
    1350.16      1.846      0.308      0.191
    1350.16      1.937      0.680      0.418
    1350.16      2.018      2.220      0.865
    1350.16      2.124      2.423      0.863
    1377.90      1.831      0.449      0.305
    1377.90      1.925      1.098      0.366
    1377.90      2.010      2.415      0.748
    1377.90      2.102      2.232      0.725
    1433.91      1.645      1.115      0.761
    1433.91      1.733      1.554      0.669
    1433.91      1.835      3.226      1.434
    1433.91      1.946      5.180      2.103
    1433.91      2.023      9.244      3.537
    1433.91      2.116      8.633      3.156
    1507.73      1.748      0.548      0.294
    1507.73      1.847      0.740      0.146
    1507.73      1.948      1.038      0.279
    1507.73      2.018      1.099      0.347
    1507.73      2.113      0.811      0.320
    1573.72      1.731      0.609      0.297
    1573.72      1.833      1.263      0.434
    1573.72      1.934      1.817      0.697
    1573.72      2.028      3.205      1.100
    1573.72      2.132      3.225      1.133
ENDDATA            125
ENDSUBENT          157
SUBENT        12702004   20210928   20220609   20220609       1493
BIB                  4          6
REACTION   (81-TL-203(N,X)0-G-0,PAR,DA,,LEG/RS)
STATUS     (DEP,12702006)
           (TABLE) Table 4.2, page 54 of Diss. Cottles,1975.
ERR-ANALYS (ERR-SYS) Systematic error due to neutron multiple
           scattering.
HISTORY    (20210928A) BP: Added status, corrected reaction.
ENDBIB               6
NOCOMMON             0          0
DATA                 5         16
EN         E          NUMBER     DATA       ERR-SYS
MEV        KEV        NO-DIM     NO-DIM     NO-DIM
       1.55       279.         2.      0.179      0.054
       1.55       279.         4.        0.0       0.02
       1.55       401.         2.      0.101      0.057
       1.55       401.         4.        0.0       0.02
       1.55       786.         2.      0.328      0.058
       1.55       786.         4.        0.0        0.0
       1.95       279.         2.      0.176      0.047
       1.95       279.         4.        0.0       0.02
       1.95       401.         2.     -0.245      0.046
       1.95       401.         4.        0.0       0.02
       1.95       764.         2.      0.330      0.054
       1.95       764.         4.        0.0       0.05
       1.95       904.         2.      0.207      0.051
       1.95       904.         4.        0.0       0.05
       1.95       953.         2.      0.154      0.054
       1.95       953.         4.        0.0       0.05
ENDDATA             18
ENDSUBENT           29
SUBENT        12702005   20210928   20220609   20220609       1493
BIB                  4          6
REACTION   (81-TL-205(N,X)0-G-0,PAR,DA,,LEG/RS)
ERR-ANALYS (ERR-SYS) Systematic error due to neutron multiple
           scattering.
STATUS     (DEP,12702007)
           (TABLE) Table 4.2, page 54 of Diss. Cottles,1975.
HISTORY    (20210928A) BP: Added status, corrected reaction.
ENDBIB               6
NOCOMMON             0          0
DATA                 5         28
EN         E          NUMBER     DATA       ERR-SYS
MEV        KEV        NO-DIM     NO-DIM     NO-DIM
       1.55       204.         2.      0.155      0.056
       1.55       204.         4.        0.0       0.02
       1.55       415.         2.     -0.159      0.054
       1.55       415.         4.        0.0       0.02
       1.55       719.         2.      0.333      0.054
       1.55       719.         4.        0.0        0.0
       1.55       795.         2.      0.182      0.054
       1.55       795.         4.        0.0       0.02
       1.55       936.         2.        0.0      0.057
       1.55       936.         4.        0.0       0.02
       1.55      1219.         2.        0.0      0.062
       1.55      1219.         4.        0.0       0.02
       1.95       204.         2.      0.217      0.048
       1.95       204.         4.        0.0       0.02
       1.95       415.         2.     -0.128      0.047
       1.95       415.         4.        0.0       0.02
       1.95       719.         2.      0.146      0.065
       1.95       719.         4.     -0.186      0.084
       1.95       795.         2.      0.158      0.047
       1.95       795.         4.        0.0       0.02
       1.95       936.         2.        0.0      0.048
       1.95       936.         4.        0.0       0.02
       1.95      1219.         2.        0.0      0.050
       1.95      1219.         4.        0.0       0.02
       1.95      1234.         2.        0.0      0.050
       1.95      1234.         4.        0.0       0.02
       1.95      1433.         2.        0.0      0.057
       1.95      1433.         4.        0.0       0.02
ENDDATA             30
ENDSUBENT           41
SUBENT        12702006   20211001   20220609   20220609       1493
BIB                  5          8
REACTION   (81-TL-203(N,X)0-G-0,PAR,DA,,REL)
METHOD     (TOF) Cylindrical geometry used. Sample hung from
           vertical guide wire with detector mounted on movable
           dolly. Paraffin and lead used to shield detector from
           direct neutrons.
ERR-ANALYS (DATA-ERR) No details on sources of uncertainties.
STATUS     (CURVE) Fig. 4.5, pages 49-50 of Diss. Cottles,1975.
HISTORY    (20210928C) BP
ENDBIB               8
NOCOMMON             0          0
DATA                 5        102
EN         E          COS        DATA       DATA-ERR
MEV        KEV        NO-DIM     ARB-UNITS  ARB-UNITS
       1.55     279.52     -0.813      1.288      0.049
       1.55     279.52     -0.696      1.087      0.054
       1.55     279.52     -0.549      1.095      0.040
       1.55     279.52     -0.292      1.072      0.044
       1.55     279.52      0.006      0.994      0.053
       1.55     279.52      0.302      1.050      0.044
       1.55     279.52      0.557      1.151      0.049
       1.55     279.52      0.721      1.141      0.040
       1.55     279.52      0.838      1.225      0.058
       1.55     401.26     -0.836      0.916      0.062
       1.55     401.26     -0.709      0.897      0.059
       1.55     401.26     -0.546      0.917      0.052
       1.55     401.26     -0.290      1.156      0.066
       1.55     401.26     -0.001      1.002      0.076
       1.55     401.26      0.303      1.009      0.059
       1.55     401.26      0.566      0.855      0.055
       1.55     401.26      0.725      0.940      0.045
       1.55     401.26      0.830      0.994      0.065
       1.55     786.51     -0.834      1.244      0.114
       1.55     786.51     -0.718      1.522      0.069
       1.55     786.51     -0.571      1.046      0.072
       1.55     786.51     -0.307      1.236      0.079
       1.55     786.51     -0.014      1.073      0.065
       1.55     786.51      0.285      0.914      0.052
       1.55     786.51      0.555      1.218      0.082
       1.55     786.51      0.713      1.456      0.076
       1.55     786.51      0.823      1.564      0.065
       1.55     793.69     -0.833      1.219      0.062
       1.55     793.69     -0.723      1.131      0.055
       1.55     793.69     -0.575      1.091      0.069
       1.55     793.69     -0.304      1.091      0.056
       1.55     793.69     -0.012      0.969      0.053
       1.55     793.69      0.279      0.972      0.056
       1.55     793.69      0.553      1.152      0.066
       1.55     793.69      0.711      1.142      0.069
       1.55     793.69      0.815      1.198      0.066
       1.95     279.52     -0.815      1.155      0.049
       1.95     279.52     -0.685      1.298      0.040
       1.95     279.52     -0.530      1.290      0.031
       1.95     279.52     -0.276      1.364      0.062
       1.95     279.52      0.026      1.358      0.035
       1.95     279.52      0.029      1.455      0.031
       1.95     279.52      0.317      1.397      0.040
       1.95     279.52      0.321      1.340      0.027
       1.95     279.52      0.581      1.312      0.044
       1.95     279.52      0.738      1.283      0.040
       1.95     279.52      0.847      1.174      0.040
       1.95     401.26     -0.825      0.843      0.063
       1.95     401.26     -0.702      0.891      0.058
       1.95     401.26     -0.553      0.939      0.058
       1.95     401.26     -0.286      0.955      0.054
       1.95     401.26      0.008      0.993
       1.95     401.26      0.017      1.015
       1.95     401.26      0.308      0.999      0.058
       1.95     401.26      0.310      0.888      0.049
       1.95     401.26      0.566      0.863      0.058
       1.95     401.26      0.703      0.849      0.058
       1.95     401.26      0.830      0.668      0.045
       1.95     764.32     -0.816      1.749      0.099
       1.95     764.32     -0.707      0.836      0.078
       1.95     764.32     -0.545      1.465      0.090
       1.95     764.32     -0.306      1.056      0.065
       1.95     764.32      0.011      1.001
       1.95     764.32      0.012      1.018
       1.95     764.32      0.304      0.967      0.121
       1.95     764.32      0.317      1.222      0.147
       1.95     764.32      0.582      1.816      0.134
       1.95     764.32      0.732      1.378      0.104
       1.95     764.32      0.852      2.189      0.177
       1.95     793.69     -0.831      1.109      0.049
       1.95     793.69     -0.703      1.146      0.053
       1.95     793.69     -0.554      1.123      0.049
       1.95     793.69     -0.301      1.029      0.053
       1.95     793.69     -0.006      0.960      0.036
       1.95     793.69     -0.004      1.032      0.036
       1.95     793.69      0.303      0.953      0.049
       1.95     793.69      0.313      1.048      0.056
       1.95     793.69      0.556      1.108      0.059
       1.95     793.69      0.724      1.147      0.059
       1.95     793.69      0.840      1.184      0.049
       1.95     904.73     -0.806      1.101      0.082
       1.95     904.73     -0.675      1.277      0.069
       1.95     904.73     -0.542      1.181      0.053
       1.95     904.73     -0.286      1.136      0.066
       1.95     904.73      0.009      1.034      0.039
       1.95     904.73      0.011      1.113      0.036
       1.95     904.73      0.305      0.886      0.033
       1.95     904.73      0.306      0.948      0.033
       1.95     904.73      0.568      1.350      0.082
       1.95     904.73      0.712      1.019      0.086
       1.95     904.73      0.831      1.477      0.079
       1.95     953.64     -0.813      1.215      0.080
       1.95     953.64     -0.678      1.366      0.076
       1.95     953.64     -0.559      0.982      0.070
       1.95     953.64     -0.296      1.001      0.066
       1.95     953.64     -0.001      0.900      0.232
       1.95     953.64      0.021      1.374      0.239
       1.95     953.64      0.290      0.815      0.193
       1.95     953.64      0.308      1.196      0.192
       1.95     953.64      0.570      1.318      0.076
       1.95     953.64      0.715      0.990      0.066
       1.95     953.64      0.827      1.115      0.066
ENDDATA            104
ENDSUBENT          117
SUBENT        12702007   20211001   20220609   20220609       1493
BIB                  5          8
REACTION   (81-TL-205(N,X)0-G-0,PAR,DA,,REL)
METHOD     (TOF) Cylindrical geometry used. Sample hung from
           vertical guide wire with detector mounted on movable
           dolly. Paraffin and lead used to shield detector from
           direct neutrons.
ERR-ANALYS (DATA-ERR) No details on sources of uncertainties.
STATUS     (CURVE) Fig. 4.5, pages 51-52 of Diss. Cottles,1975.
HISTORY    (20210928C) BP
ENDBIB               8
NOCOMMON             0          0
DATA                 5        122
EN         E          COS        DATA       DATA-ERR
MEV        KEV        NO-DIM     ARB-UNITS  ARB-UNITS
       1.55     204.25     -0.804      1.153      0.064
       1.55     204.25     -0.695      0.973      0.067
       1.55     204.25     -0.549      1.029      0.055
       1.55     204.25     -0.290      1.040      0.070
       1.55     204.25      0.007      1.006      0.055
       1.55     204.25      0.302      1.018      0.055
       1.55     204.25      0.565      1.131      0.067
       1.55     204.25      0.717      1.126      0.070
       1.55     204.25      0.830      1.495      0.105
       1.55     415.62     -0.821      0.921      0.041
       1.55     415.62     -0.706      0.884      0.044
       1.55     415.62     -0.551      0.924      0.047
       1.55     415.62     -0.292      1.014      0.050
       1.55     415.62      0.001      1.014      0.038
       1.55     415.62      0.293      0.999      0.047
       1.55     415.62      0.552      0.932      0.050
       1.55     415.62      0.707      0.889      0.047
       1.55     415.62      0.815      0.833      0.041
       1.55     719.30     -0.813      1.457      0.062
       1.55     719.30     -0.701      1.318      0.052
       1.55     719.30     -0.542      1.172      0.055
       1.55     719.30     -0.285      1.156      0.058
       1.55     719.30      0.009      0.938      0.053
       1.55     719.30      0.306      1.059      0.061
       1.55     719.30      0.561      1.248      0.055
       1.55     719.30      0.722      1.289      0.064
       1.55     719.30      0.828      1.366      0.076
       1.55     936.63     -0.831      1.013      0.064
       1.55     936.63     -0.716      0.869      0.058
       1.55     936.63     -0.567      1.009      0.038
       1.55     936.63     -0.311      0.982      0.055
       1.55     936.63     -0.012      0.972      0.067
       1.55     936.63      0.293      0.982      0.076
       1.55     936.63      0.554      1.144      0.084
       1.55     936.63      0.703      0.953      0.061
       1.55     936.63      0.821      1.301      0.084
       1.55    1218.95     -0.805      1.156      0.087
       1.55    1218.95     -0.717      0.783      0.097
       1.55    1218.95     -0.537      1.006      0.098
       1.55    1218.95     -0.290      0.961      0.084
       1.55    1218.95      0.000      0.933      0.073
       1.55    1218.95      0.304      1.124      0.094
       1.55    1218.95      0.568      1.013      0.104
       1.55    1218.95      0.713      0.997      0.098
       1.55    1218.95      0.840      1.260      0.129
       1.95     204.25     -0.813      1.273      0.052
       1.95     204.25     -0.689      1.071      0.067
       1.95     204.25     -0.551      1.039      0.058
       1.95     204.25     -0.289      1.000      0.052
       1.95     204.25      0.019      1.012      0.029
       1.95     204.25      0.021      0.965      0.034
       1.95     204.25      0.310      1.102      0.023
       1.95     204.25      0.320      1.082      0.020
       1.95     204.25      0.575      1.161      0.052
       1.95     204.25      0.730      1.248      0.046
       1.95     204.25      0.842      1.310      0.055
       1.95     415.62     -0.813      0.910      0.053
       1.95     415.62     -0.691      0.902      0.051
       1.95     415.62     -0.560      0.924      0.053
       1.95     415.62     -0.292      0.982      0.050
       1.95     415.62      0.010      1.016      0.027
       1.95     415.62      0.013      0.978      0.018
       1.95     415.62      0.308      0.929      0.027
       1.95     415.62      0.312      0.979      0.030
       1.95     415.62      0.568      0.958      0.077
       1.95     415.62      0.714      0.869      0.057
       1.95     415.62      0.830      0.850      0.045
       1.95     719.30     -0.818      1.545      0.058
       1.95     719.30     -0.690      1.295      0.067
       1.95     719.30     -0.543      1.222      0.073
       1.95     719.30     -0.286      1.057      0.067
       1.95     719.30      0.004      1.018      0.024
       1.95     719.30      0.008      0.988      0.014
       1.95     719.30      0.309      1.173      0.064
       1.95     719.30      0.312      1.053      0.058
       1.95     719.30      0.550      1.263      0.064
       1.95     719.30      0.711      1.295      0.070
       1.95     719.30      0.831      1.173      0.061
       1.95     936.63     -0.814      1.005      0.047
       1.95     936.63     -0.684      0.945      0.053
       1.95     936.63     -0.549      0.949      0.065
       1.95     936.63     -0.288      0.989      0.050
       1.95     936.63      0.013      1.011      0.015
       1.95     936.63      0.016      0.981      0.026
       1.95     936.63      0.318      1.009      0.023
       1.95     936.63      0.320      0.968      0.026
       1.95     936.63      0.564      1.014      0.061
       1.95     936.63      0.720      1.047      0.068
       1.95     936.63      0.836      1.034      0.064
       1.95    1218.95     -0.820      1.203      0.132
       1.95    1218.95     -0.691      0.868      0.087
       1.95    1218.95     -0.549      0.974      0.080
       1.95    1218.95     -0.285      0.883      0.090
       1.95    1218.95      0.009      0.994      0.125
       1.95    1218.95      0.014      1.258      0.150
       1.95    1218.95      0.321      0.917      0.080
       1.95    1218.95      0.323      1.098      0.108
       1.95    1218.95      0.571      0.966      0.084
       1.95    1218.95      0.725      1.169      0.066
       1.95    1218.95      0.830      0.927      0.069
       1.95    1234.18     -0.819      1.174      0.118
       1.95    1234.18     -0.698      0.832      0.083
       1.95    1234.18     -0.553      0.988      0.077
       1.95    1234.18     -0.293      0.971      0.076
       1.95    1234.18      0.011      1.011      0.038
       1.95    1234.18      0.015      0.951      0.028
       1.95    1234.18      0.307      0.879      0.070
       1.95    1234.18      0.313      1.008      0.077
       1.95    1234.18      0.566      1.120      0.091
       1.95    1234.18      0.727      1.036      0.094
       1.95    1234.18      0.832      1.083      0.083
       1.95    1433.91     -0.819      0.865      0.076
       1.95    1433.91     -0.676      0.968      0.090
       1.95    1433.91     -0.564      0.702      0.056
       1.95    1433.91     -0.305      0.714      0.063
       1.95    1433.91      0.043      1.548      0.236
       1.95    1433.91      0.052      2.000      0.254
       1.95    1433.91      0.308      0.833      0.497
       1.95    1433.91      0.352      1.708      0.396
       1.95    1433.91      0.606      2.245      0.222
       1.95    1433.91      0.760      2.111      0.163
       1.95    1433.91      0.846      1.366      0.132
ENDDATA            124
ENDSUBENT          137
ENDENTRY             7
