ENTRY            12739   20210928   20220609   20220609       1493
SUBENT        12739001   20210928   20220609   20220609       1493
BIB                 10         18
TITLE      Double differential neutron scattering cross sections
           for Fe, Cu, Ni and Pb between 8 and 12 MeV
AUTHOR     (A.G.Beyerle,C.Gould,W.Seagondollar,P.Thambidurai,
           S.El-Kadi,G.Glendinning,C.E.Nelson,F.O.Purser,
           R.L.Walter)
REFERENCE  (C,79KNOX,,139,1979) Main reference.
           (T,BEYERLE,1981) Several data sets.
INSTITUTE  (1USATNL)
FACILITY   (VDGT,1USATNL)
METHOD     (TOF)
DETECTOR   (SCIN) NE213 liquid scintillators
MONITOR    (1-H-1(N,EL)1-H-1,,SIG)
STATUS     (APRVD) L.W.Seagondollar, 1989/6/30
HISTORY    (19890125C)
           (19910725A) Subentry deleted, data in subentry 5, 6.
           (20210928A) BP: Updated to new date formats, lower
           case. Corrections according last EXFOR rules and
           Dict. Updated entry, digitized Pb data.
ENDBIB              18
NOCOMMON             0          0
ENDSUBENT           21
SUBENT        12739002   20210928   20220609   20220609       1493
BIB                  7          8
REACTION   (26-FE-0(N,INL)26-FE-0,,DA/DE)
INC-SOURCE (D-D)
SAMPLE     At 7.5 MeV the samples were in the form of small
           solid cylinders 3.0 cm high and 2.0 cm in diameter.
CORRECTION Corrected for multiple scattering.
ERR-ANALYS (DATA-ERR) No information on error contributions.
STATUS     (TABLE) Data taken from thesis, Beyerle, 1981.
HISTORY    (19910725A) Data uncertainties added
ENDBIB               8
COMMON               1          3
EN
MEV
        7.5
ENDCOMMON            3
DATA                 4        232
E          ANG        DATA       DATA-ERR
MEV        ADEG       MB/SR/MEV  PER-CENT
       0.51        35.      46.46       100.
       0.51        95.      52.62       100.
       0.51       125.      44.03       100.
       0.51       155.      35.52       100.
       0.53        35.      53.13       100.
       0.53        95.      57.84       100.
       0.53       125.      41.43       100.
       0.53       155.      39.83       100.
       0.55        35.      56.56        95.
       0.55        95.      54.79        95.
       0.55       125.      45.37        95.
       0.55       155.      46.57        95.
       0.58        35.      66.32        95.
       0.58        95.      57.06        95.
       0.58       125.      46.23        95.
       0.58       155.      47.69        95.
       0.60        35.      57.38        95.
       0.60        95.      54.53        95.
       0.60       125.      47.20        95.
       0.60       155.      48.09        95.
       0.63        35.      52.96        90.
       0.63        95.      46.33        90.
       0.63       125.      46.31        90.
       0.63       155.      48.10        90.
       0.65        35.      52.88        90.
       0.65        95.      41.96        90.
       0.65       125.      44.50        90.
       0.65       155.      46.76        90.
       0.68        35.      46.48        90.
       0.68        95.      42.53        90.
       0.68       125.      41.72        90.
       0.68       155.      46.60        90.
       0.71        35.      41.48        80.
       0.71        95.      40.65        80.
       0.71       125.      37.93        80.
       0.71       155.      46.95        80.
       0.74        35.      34.68        80.
       0.74        95.      38.48        80.
       0.74       125.      34.67        80.
       0.74       155.      44.48        80.
       0.77        35.      33.16        80.
       0.77        95.      41.06        80.
       0.77       125.      34.10        80.
       0.77       155.      47.94        80.
       0.80        35.      33.50        75.
       0.80        95.      47.25        75.
       0.80       125.      38.44        75.
       0.80       155.      54.90        75.
       0.84        35.      34.04        65.
       0.84        95.      50.61        65.
       0.84       125.      42.25        65.
       0.84       155.      54.72        65.
       0.87        35.      37.47        60.
       0.87        95.      53.76        60.
       0.87       125.      44.94        60.
       0.87       155.      57.31        60.
       0.91        35.      44.61        55.
       0.91        95.      53.56        55.
       0.91       125.      44.27        55.
       0.91       155.      55.26        55.
       0.95        35.      48.88        55.
       0.95        95.      49.65        55.
       0.95       125.      37.94        55.
       0.95       155.      48.09        55.
       0.99        35.      49.18        50.
       0.99        95.      42.89        50.
       0.99       125.      35.49        50.
       0.99       155.      46.55        50.
       1.03        35.      46.36        50.
       1.03        95.      33.59        50.
       1.03       125.      37.17        50.
       1.03       155.      46.37        50.
       1.08        35.      45.00        45.
       1.08        95.      35.89        45.
       1.08       125.      38.57        45.
       1.08       155.      49.30        45.
       1.12        35.      41.03        40.
       1.12        95.      40.21        40.
       1.12       125.      40.43        40.
       1.12       155.      53.83        40.
       1.17        35.      37.53        30.
       1.17        95.      44.21        30.
       1.17       125.      39.75        30.
       1.17       155.      50.87        30.
       1.22        35.      36.82        20.
       1.22        95.      46.33        20.
       1.22       125.      38.43        20.
       1.22       155.      47.58        20.
       1.27        35.      39.61        20.
       1.27        95.      46.44        20.
       1.27       125.      38.74        20.
       1.27       155.      47.59        20.
       1.33        35.      45.22        20.
       1.33        95.      44.61        20.
       1.33       125.      40.71        20.
       1.33       155.      46.96        20.
       1.38        35.      49.63        15.
       1.38        95.      41.25        15.
       1.38       125.      41.98        15.
       1.38       155.      46.13        15.
       1.44        35.      51.18        15.
       1.44        95.      39.44        15.
       1.44       125.      38.50        15.
       1.44       155.      44.97        15.
       1.50        35.      48.64        15.
       1.50        95.      38.56        15.
       1.50       125.      35.05        15.
       1.50       155.      44.50        15.
       1.57        35.      42.54        15.
       1.57        95.      40.27        15.
       1.57       125.      34.72        15.
       1.57       155.      46.12        15.
       1.64        35.      41.60        15.
       1.64        95.      42.79        15.
       1.64       125.      35.60        15.
       1.64       155.      46.73        15.
       1.70        35.      44.73        15.
       1.70        95.      40.95        15.
       1.70       125.      34.39        15.
       1.70       155.      43.11        15.
       1.78        35.      46.00        15.
       1.78        95.      31.56        15.
       1.78       125.      29.27        15.
       1.78       155.      38.05        15.
       1.85        35.      37.46        15.
       1.85        95.      29.22        15.
       1.85       125.      26.34        15.
       1.85       155.      37.67        15.
       1.93        35.      31.32        15.
       1.93        95.      32.02        15.
       1.93       125.      27.89        15.
       1.93       155.      40.01        15.
       2.01        35.      39.44        15.
       2.01        95.      35.62        15.
       2.01       125.      30.34        15.
       2.01       155.      40.02        15.
       2.10        35.      52.83        15.
       2.10        95.      33.71        15.
       2.10       125.      32.21        15.
       2.10       155.      37.51        15.
       2.19        35.      63.63        15.
       2.19        95.      28.79        15.
       2.19       125.      30.84        15.
       2.19       155.      34.79        15.
       2.28        35.      60.65        15.
       2.28        95.      26.80        15.
       2.28       125.      26.11        15.
       2.28       155.      31.02        15.
       2.38        35.      41.37        15.
       2.38        95.      30.26        15.
       2.38       125.      23.75        15.
       2.38       155.      29.65        15.
       2.48        35.      29.35        15.
       2.48        95.      36.68        15.
       2.48       125.      24.71        15.
       2.48       155.      31.40        15.
       2.59        35.      30.84        15.
       2.59        95.      40.35        15.
       2.59       125.      25.50        15.
       2.59       155.      31.46        15.
       2.70        35.      34.81        15.
       2.70        95.      37.34        15.
       2.70       125.      23.37        15.
       2.70       155.      27.62        15.
       2.81        35.      33.94        15.
       2.81        95.      27.84        15.
       2.81       125.      17.92        15.
       2.81       155.      20.96        15.
       2.93        35.      27.02        15.
       2.93        95.      20.68        15.
       2.93       125.      14.14        15.
       2.93       155.      17.23        15.
       3.06        35.      20.23        15.
       3.06        95.      18.96        15.
       3.06       125.      12.75        15.
       3.06       155.      16.22        15.
       3.19        35.      17.58        15.
       3.19        95.      18.57        15.
       3.19       125.      11.91        15.
       3.19       155.      15.83        15.
       3.32        35.      17.40        15.
       3.32        95.      17.86        15.
       3.32       125.      12.55        15.
       3.32       155.      16.19        15.
       3.46        35.      18.28        15.
       3.46        95.      18.13        15.
       3.46       125.      12.34        15.
       3.46       155.      18.75        15.
       3.61        35.      20.25        15.
       3.61        95.      19.88        15.
       3.61       125.      13.54        15.
       3.61       155.      22.62        15.
       3.77        35.      23.11        15.
       3.77        95.      23.04        15.
       3.77       125.      16.38        15.
       3.77       155.      27.46        15.
       3.93        35.      27.52        15.
       3.93        95.      26.79        15.
       3.93       125.      19.28        15.
       3.93       155.      29.57        15.
       4.09        35.      34.15        15.
       4.09        95.      25.85        15.
       4.09       125.      17.52        15.
       4.09       155.      25.57        15.
       4.27        35.      36.11        15.
       4.27        95.      20.98        15.
       4.27       125.      14.33        15.
       4.27       155.      19.90        15.
       4.45        35.      29.80        20.
       4.45        95.      14.03        20.
       4.45       125.      10.03        20.
       4.45       155.      13.16        20.
       4.64        35.      24.10        20.
       4.64        95.      10.30        20.
       4.64       125.       7.89        20.
       4.64       155.       9.88        20.
       4.84        35.      21.84        35.
       4.84        95.       9.32        35.
       4.84       125.       6.80        35.
       4.84       155.       7.99        35.
       5.04        35.      21.78        50.
       5.04        95.       8.89        50.
       5.04       125.       5.23        50.
       5.04       155.       6.00        50.
       5.26        35.      21.77        70.
       5.26        95.       7.34        70.
       5.26       125.       2.71        70.
       5.26       155.       3.06        70.
       5.48        35.      20.09       100.
       5.48        95.       5.75       100.
       5.48       125.       0.81       100.
       5.48       155.       0.18       100.
ENDDATA            234
ENDSUBENT          251
SUBENT        12739003   20210928   20220609   20220609       1493
BIB                  7          9
REACTION   (26-FE-0(N,X)0-NN-1,,DA/DE)
INC-SOURCE (P-T)
SAMPLE     At 10 and 12 MeV hollow cylindrical samples were used
           of height 4.5 cm, 3.0 cm outside diameter and 1.3 cm
           inside diameter.
CORRECTION Corrected for multiple scattering.
ERR-ANALYS (DATA-ERR) No information on error contributions.
STATUS     (TABLE) Data taken from thesis, Beyerle, 1981.
HISTORY    (19910725A) Data uncertainties added
ENDBIB               9
COMMON               1          3
EN
MEV
        10.
ENDCOMMON            3
DATA                 4        320
E          ANG        DATA       DATA-ERR
MEV        ADEG       MB/SR/MEV  PER-CENT
       0.51        45.      29.51       100.
       0.51        80.      22.31       100.
       0.51       100.      26.67       100.
       0.51       120.      31.36       100.
       0.51       145.      42.20       100.
       0.53        45.      29.46       100.
       0.53        80.      32.92       100.
       0.53       100.      27.15       100.
       0.53       120.      30.84       100.
       0.53       145.      46.55        95.
       0.56        45.      25.15        95.
       0.56        80.      27.26        95.
       0.56       100.      35.24        95.
       0.56       120.      34.76        95.
       0.56       145.      54.92        95.
       0.58        45.      21.64        90.
       0.58        80.      40.04        90.
       0.58       100.      41.59        90.
       0.58       120.      48.36        90.
       0.58       145.      55.94        90.
       0.61        45.      19.81        85.
       0.61        80.      45.62        85.
       0.61       100.      39.47        85.
       0.61       120.      46.99        85.
       0.61       145.      59.56        85.
       0.64        45.      29.19        80.
       0.64        80.      38.81        80.
       0.64       100.      37.31        80.
       0.64       120.      36.78        80.
       0.64       145.      44.00        80.
       0.67        45.      28.68        75.
       0.67        80.      43.80        75.
       0.67       100.      40.28        75.
       0.67       120.      36.14        75.
       0.67       145.      45.75        75.
       0.70        45.      35.40        75.
       0.70        80.      37.37        75.
       0.70       100.      38.83        75.
       0.70       120.      36.31        75.
       0.70       145.      40.56        75.
       0.73        45.      30.50        75.
       0.73        80.      33.80        75.
       0.73       100.      36.11        75.
       0.73       120.      35.22        75.
       0.73       145.      37.43        75.
       0.76        45.      32.41        70.
       0.76        80.      35.91        70.
       0.76       100.      37.64        70.
       0.76       120.      37.52        70.
       0.76       145.      37.31        70.
       0.80        45.      32.11        65.
       0.80        80.      40.25        65.
       0.80       100.      34.23        65.
       0.80       120.      32.96        65.
       0.80       145.      32.05        65.
       0.84        45.      31.03        60.
       0.84        80.      38.21        60.
       0.84       100.      31.98        60.
       0.84       120.      32.27        60.
       0.84       145.      37.13        60.
       0.87        45.      31.29        55.
       0.87        80.      36.69        55.
       0.87       100.      38.14        55.
       0.87       120.      37.29        55.
       0.87       145.      41.84        55.
       0.91        45.      32.23        55.
       0.91        80.      40.78        55.
       0.91       100.      40.09        55.
       0.91       120.      39.25        55.
       0.91       145.      45.62        55.
       0.96        45.      28.21        50.
       0.96        80.      33.67        50.
       0.96       100.      37.81        50.
       0.96       120.      41.17        50.
       0.96       145.      44.85        50.
       1.00        45.      23.21        50.
       1.00        80.      38.05        50.
       1.00       100.      39.20        50.
       1.00       120.      38.74        50.
       1.00       145.      44.69        50.
       1.05        45.      32.99        40.
       1.05        80.      41.01        40.
       1.05       100.      41.35        40.
       1.05       120.      41.07        40.
       1.05       145.      42.39        40.
       1.10        45.      37.76        30.
       1.10        80.      49.04        30.
       1.10       100.      48.73        30.
       1.10       120.      45.81        30.
       1.10       145.      50.14        30.
       1.15        45.      41.89        25.
       1.15        80.      48.48        25.
       1.15       100.      47.96        25.
       1.15       120.      47.02        25.
       1.15       145.      46.44        25.
       1.20        45.      40.06        20.
       1.20        80.      43.66        20.
       1.20       100.      43.02        20.
       1.20       120.      44.23        20.
       1.20       145.      46.30        20.
       1.26        45.      37.22        20.
       1.26        80.      42.88        20.
       1.26       100.      42.48        20.
       1.26       120.      42.59        20.
       1.26       145.      45.04        20.
       1.31        45.      38.43        20.
       1.31        80.      38.29        20.
       1.31       100.      40.14        20.
       1.31       120.      39.51        20.
       1.31       145.      38.37        20.
       1.37        45.      32.63        20.
       1.37        80.      35.99        20.
       1.37       100.      36.90        20.
       1.37       120.      36.87        20.
       1.37       145.      41.18        20.
       1.44        45.      34.38        20.
       1.44        80.      37.60        20.
       1.44       100.      37.27        20.
       1.44       120.      36.55        20.
       1.44       145.      40.87        20.
       1.50        45.      33.07        15.
       1.50        80.      36.80        15.
       1.50       100.      37.32        15.
       1.50       120.      35.47        15.
       1.50       145.      41.48        15.
       1.57        45.      30.56        15.
       1.57        80.      36.02        15.
       1.57       100.      37.85        15.
       1.57       120.      34.49        15.
       1.57       145.      40.15        15.
       1.65        45.      31.79        15.
       1.65        80.      37.87        15.
       1.65       100.      37.41        15.
       1.65       120.      33.36        15.
       1.65       145.      40.47        15.
       1.72        45.      35.48        15.
       1.72        80.      38.97        15.
       1.72       100.      36.92        15.
       1.72       120.      33.66        15.
       1.72       145.      41.09        15.
       1.80        45.      39.14        15.
       1.80        80.      36.43        15.
       1.80       100.      34.91        15.
       1.80       120.      32.54        15.
       1.80       145.      38.99        15.
       1.88        45.      39.92        15.
       1.88        80.      34.46        15.
       1.88       100.      34.73        15.
       1.88       120.      33.04        15.
       1.88       145.      38.31        15.
       1.97        45.      43.18        15.
       1.97        80.      35.51        15.
       1.97       100.      35.55        15.
       1.97       120.      33.20        15.
       1.97       145.      40.15        15.
       2.06        45.      43.08        15.
       2.06        80.      36.72        15.
       2.06       100.      35.80        15.
       2.06       120.      33.82        15.
       2.06       145.      39.95        15.
       2.16        45.      39.46        15.
       2.16        80.      36.90        15.
       2.16       100.      34.69        15.
       2.16       120.      33.55        15.
       2.16       145.      35.92        15.
       2.26        45.      37.36        15.
       2.26        80.      34.71        15.
       2.26       100.      31.51        15.
       2.26       120.      30.42        15.
       2.26       145.      32.55        15.
       2.36        45.      36.15        15.
       2.36        80.      29.60        15.
       2.36       100.      28.26        15.
       2.36       120.      27.02        15.
       2.36       145.      30.22        15.
       2.47        45.      34.40        15.
       2.47        80.      27.06        15.
       2.47       100.      26.75        15.
       2.47       120.      25.21        15.
       2.47       145.      29.13        15.
       2.59        45.      31.43        15.
       2.59        80.      25.89        15.
       2.59       100.      25.75        15.
       2.59       120.      24.33        15.
       2.59       145.      27.96        15.
       2.70        45.      28.57        15.
       2.70        80.      25.20        15.
       2.70       100.      24.50        15.
       2.70       120.      23.26        15.
       2.70       145.      25.93        15.
       2.83        45.      25.35        15.
       2.83        80.      23.83        15.
       2.83       100.      22.54        15.
       2.83       120.      22.38        15.
       2.83       145.      23.89        15.
       3.00        45.      25.43        15.
       3.00        80.      22.76        15.
       3.00       100.      20.61        15.
       3.00       120.      19.71        15.
       3.00       145.      22.95        15.
       3.10        45.      24.91        15.
       3.10        80.      19.49        15.
       3.10       100.      19.45        15.
       3.10       120.      18.41        15.
       3.10       145.      20.59        15.
       3.24        45.      21.27        15.
       3.24        80.      18.51        15.
       3.24       100.      17.09        15.
       3.24       120.      17.74        15.
       3.24       145.      18.38        15.
       3.39        45.      19.71        15.
       3.39        80.      16.58        15.
       3.39       100.      15.46        15.
       3.39       120.      16.04        15.
       3.39       145.      17.20        15.
       3.55        45.      18.67        15.
       3.55        80.      15.49        15.
       3.55       100.      14.96        15.
       3.55       120.      14.72        15.
       3.55       145.      15.59        15.
       3.71        45.      15.97        15.
       3.71        80.      14.37        15.
       3.71       100.      13.61        15.
       3.71       120.      12.65        15.
       3.71       145.      13.90        15.
       3.88        45.      14.29        15.
       3.88        80.      12.79        15.
       3.88       100.      12.23        15.
       3.88       120.      11.46        15.
       3.88       145.      12.59        15.
       4.06        45.      13.57        15.
       4.06        80.      11.82        15.
       4.06       100.      11.33        15.
       4.06       120.      10.90        15.
       4.06       145.      11.73        15.
       4.25        45.      13.64        15.
       4.25        80.      11.64        15.
       4.25       100.      11.06        15.
       4.25       120.      10.18        15.
       4.25       145.      11.30        15.
       4.44        45.      13.30        15.
       4.44        80.      11.01        15.
       4.44       100.      10.31        15.
       4.44       120.       9.77        15.
       4.44       145.      10.97        15.
       4.65        45.      12.94        15.
       4.65        80.      10.16        15.
       4.65       100.       9.74        15.
       4.65       120.       8.38        15.
       4.65       145.      11.63        15.
       4.87        45.      11.91        15.
       4.87        80.      10.66        15.
       4.87       100.       9.50        15.
       4.87       120.       9.33        15.
       4.87       145.      10.08        15.
       5.09        45.      12.63        15.
       5.09        80.       9.31        15.
       5.09       100.       8.08        15.
       5.09       120.       9.22        15.
       5.09       145.       6.47        15.
       5.33        45.      13.51        15.
       5.33        80.       6.29        15.
       5.33       100.       5.61        15.
       5.33       120.       5.71        15.
       5.33       145.       4.92        15.
       5.57        45.       9.93        15.
       5.57        80.       4.62        15.
       5.57       100.       4.47        15.
       5.57       120.       3.92        15.
       5.57       145.       5.38        15.
       5.83        45.       7.11        15.
       5.83        80.       4.66        15.
       5.83       100.       4.53        15.
       5.83       120.       4.00        15.
       5.83       145.       5.69        15.
       6.10        45.       6.76        15.
       6.10        80.       4.97        15.
       6.10       100.       4.55        15.
       6.10       120.       4.36        15.
       6.10       145.       4.91        15.
       6.38        45.       7.27        15.
       6.38        80.       4.60        15.
       6.38       100.       4.16        15.
       6.38       120.       4.16        15.
       6.38       145.       3.62        15.
       6.68        45.       7.42        20.
       6.68        80.       3.41        20.
       6.68       100.       3.32        20.
       6.68       120.       2.93        20.
       6.68       145.       2.72        20.
       6.98        45.       6.31        25.
       6.98        80.       2.38        25.
       6.98       100.       2.91        25.
       6.98       120.       1.75        25.
       6.98       145.       2.52        25.
       7.31        45.       4.65        30.
       7.31        80.       2.08        30.
       7.31       100.       3.49        30.
       7.31       120.       1.37        30.
       7.31       145.       3.27        30.
       7.64        45.       4.16        35.
       7.64        80.       2.47        35.
       7.64       100.       5.10        35.
       7.64       120.       1.27        35.
       7.64       145.       5.25        35.
       8.00        45.       4.63        50.
       8.00        80.       4.59        50.
       8.00       100.       8.19        50.
       8.00       120.       1.05        50.
       8.00       145.      11.80        50.
       8.37        45.       4.00        80.
       8.37        80.       8.53        80.
       8.37       100.       9.77        80.
       8.37       120.       1.82        80.
       8.37       145.      11.68        80.
       8.75        45.       2.97       100.
       8.75        80.      10.31       100.
       8.75       100.       9.22       100.
       8.75       120.       2.33       100.
       8.75       145.       7.17       100.
ENDDATA            322
ENDSUBENT          340
SUBENT        12739004   20210928   20220609   20220609       1493
BIB                  7          9
REACTION   (26-FE-0(N,X)0-NN-1,,DA/DE)
INC-SOURCE (P-T)
SAMPLE     At 10 and 12 MeV hollow cylindrical samples were used
           of height 4.5 cm, 3.0 cm outside diameter and 1.3 cm
           inside diameter.
CORRECTION Corrected for multiple scattering.
ERR-ANALYS (DATA-ERR) No information on error contributions.
STATUS     (TABLE) Data taken from thesis, Beyerle, 1981.
HISTORY    (19900605A) Data corrected
ENDBIB               9
COMMON               1          3
EN
MEV
        12.
ENDCOMMON            3
DATA                 4        275
E          ANG        DATA       DATA-ERR
MEV        ADEG       MB/SR/MEV  PER-CENT
       0.83        45.      30.07        80.
       0.83        75.      37.95        80.
       0.83       100.      36.02        80.
       0.83       125.      35.84        80.
       0.83       150.      19.01        80.
       0.87        45.      31.15
       0.87        75.      25.70
       0.87       100.      33.14
       0.87       125.      42.38
       0.87       150.      23.45
       0.92        45.      27.58
       0.92        75.      25.74
       0.92       100.      35.09
       0.92       125.      24.26
       0.92       150.      30.46
       0.96        45.      23.74
       0.96        75.      32.40
       0.96       100.      31.67
       0.96       125.      31.30
       0.96       150.      29.86
       1.01        45.      15.90
       1.01        75.      39.51
       1.01       100.      40.94
       1.01       125.      16.76
       1.01       150.      16.04
       1.06        45.      32.95
       1.06        75.      58.50
       1.06       100.      42.16
       1.06       125.      28.74
       1.06       150.      24.16
       1.11        45.      25.71
       1.11        75.      39.50
       1.11       100.      35.93
       1.11       125.      35.44
       1.11       150.      32.94
       1.16        45.      21.67
       1.16        75.      29.78
       1.16       100.      36.11
       1.16       125.      26.14
       1.16       150.      21.37
       1.22        45.      33.21        50.
       1.22        75.      40.11        50.
       1.22       100.      37.06        50.
       1.22       125.      14.47        50.
       1.22       150.      26.87        50.
       1.27        45.      29.10
       1.27        75.      23.19
       1.27       100.      30.22
       1.27       125.      20.92
       1.27       150.      54.63
       1.34        45.      25.42
       1.34        75.      15.34
       1.34       100.      30.76
       1.34       125.      16.58
       1.34       150.      36.57
       1.40        45.      43.92
       1.40        75.      24.51
       1.40       100.      27.01
       1.40       125.      25.96
       1.40       150.      22.69
       1.47        45.      18.43
       1.47        75.      19.69
       1.47       100.      31.23
       1.47       125.      26.90
       1.47       150.      24.80
       1.54        45.      30.53        30.
       1.54        75.      19.52        30.
       1.54       100.      34.17        30.
       1.54       125.      17.17        30.
       1.54       150.      37.53        30.
       1.61        45.      26.11
       1.61        75.      18.44
       1.61       100.      29.15
       1.61       125.      18.27
       1.61       150.      35.04
       1.69        45.      40.21
       1.69        75.      18.41
       1.69       100.      27.37
       1.69       125.      18.92
       1.69       150.      28.52
       1.77        45.      40.84
       1.77        75.      22.65
       1.77       100.      27.42
       1.77       125.      15.41
       1.77       150.      23.83
       1.86        45.      37.31
       1.86        75.      20.58
       1.86       100.      25.34
       1.86       125.       8.57
       1.86       150.      21.84
       1.95        45.       8.97
       1.95        75.      15.34
       1.95       100.      23.89
       1.95       125.       9.05
       1.95       150.      26.94
       2.04        45.      13.08        20.
       2.04        75.      14.60        20.
       2.04       100.      25.07        20.
       2.04       125.       8.54        20.
       2.04       150.      28.05        20.
       2.14        45.      17.04
       2.14        75.      17.48
       2.14       100.      23.40
       2.14       125.      10.91
       2.14       150.      22.71
       2.24        45.      37.73
       2.24        75.      16.76
       2.24       100.      19.51
       2.24       125.       7.66
       2.24       150.      19.05
       2.35        45.      33.06
       2.35        75.      14.78
       2.35       100.      19.83
       2.35       125.      12.89
       2.35       150.      21.84
       2.47        45.      25.85
       2.47        75.      13.45
       2.47       100.      19.80
       2.47       125.      11.04
       2.47       150.      25.71
       2.58        45.      27.84        10.
       2.58        75.      15.82        10.
       2.58       100.      18.56        10.
       2.58       125.      11.88        10.
       2.58       150.      21.24        10.
       2.71        45.      38.57
       2.71        75.      16.09
       2.71       100.      14.50
       2.71       125.      11.46
       2.71       150.      15.35
       2.84        45.      33.22
       2.84        75.      12.75
       2.84       100.      11.98
       2.84       125.      11.39
       2.84       150.      14.89
       2.98        45.      26.03
       2.98        75.      11.10
       2.98       100.      11.80
       2.98       125.      11.48
       2.98       150.      13.20
       3.12        45.      25.88
       3.12        75.      10.74
       3.12       100.       9.90
       3.12       125.      10.98
       3.12       150.      10.94
       3.27        45.      23.49
       3.27        75.       9.64
       3.27       100.       8.75
       3.27       125.      11.74
       3.27       150.      11.41
       3.43        45.      20.08
       3.43        75.      10.30
       3.43       100.       8.78
       3.43       125.       9.83
       3.43       150.       9.55
       3.59        45.      19.43
       3.59        75.       9.18
       3.59       100.       6.72
       3.59       125.       8.63
       3.59       150.       5.15
       3.77        45.      12.22
       3.77        75.       5.58
       3.77       100.       4.32
       3.77       125.       9.57
       3.77       150.       7.22
       3.95        45.      15.38
       3.95        75.       4.39
       3.95       100.       6.11
       3.95       125.       8.65
       3.95       150.      10.26
       4.14        45.      16.92
       4.14        75.       6.72
       4.14       100.       7.73
       4.14       125.       8.08
       4.14       150.       9.48
       4.34        45.      15.25
       4.34        75.       7.39
       4.34       100.       6.74
       4.34       125.       7.41
       4.34       150.       7.79
       4.55        45.      12.94
       4.55        75.       6.29
       4.55       100.       5.31
       4.55       125.       6.86
       4.55       150.       6.56
       4.77        45.       8.50
       4.77        75.       5.31
       4.77       100.       3.93
       4.77       125.       6.54
       4.77       150.       5.15
       5.00        45.       6.55
       5.00        75.       3.97
       5.00       100.       2.89
       5.00       125.       5.78
       5.00       150.       3.94
       5.24        45.       7.06
       5.24        75.       3.15
       5.24       100.       2.37
       5.24       125.       4.62
       5.24       150.       3.46
       5.49        45.       5.82
       5.49        75.       2.82
       5.49       100.       2.62
       5.49       125.       4.19
       5.49       150.       3.12
       5.76        45.       4.76        15.
       5.76        75.       2.55        15.
       5.76       100.       2.67        15.
       5.76       125.       4.31        15.
       5.76       150.       2.95        15.
       6.03        45.       5.01
       6.03        75.       2.32
       6.03       100.       2.52
       6.03       125.       3.99
       6.03       150.       3.05
       6.33        45.       5.19
       6.33        75.       2.12
       6.33       100.       2.67
       6.33       125.       3.58
       6.33       150.       2.63
       6.63        45.       5.27
       6.63        75.       2.10
       6.63       100.       3.11
       6.63       125.       3.50
       6.63       150.       2.15
       6.95        45.       6.32
       6.95        75.       2.28
       6.95       100.       3.29
       6.95       125.       3.01
       6.95       150.       2.10
       7.29        45.       5.33        30.
       7.29        75.       2.32        30.
       7.29       100.       3.85        30.
       7.29       125.       2.31        30.
       7.29       150.       2.18        30.
       7.64        45.       3.65
       7.64        75.       2.07
       7.64       100.       6.05
       7.64       125.       1.64
       7.64       150.       2.41
       8.01        45.       3.42
       8.01        75.       1.72
       8.01       100.       9.85
       8.01       125.       2.00
       8.01       150.       2.92
       8.39        45.       3.62
       8.39        75.       1.51
       8.39       100.      14.47
       8.39       125.       2.88
       8.39       150.       3.99
       8.80        45.       3.78        50.
       8.80        75.       1.35        50.
       8.80       100.      14.03        50.
       8.80       125.       3.02        50.
       8.80       150.       4.72        50.
       9.22        45.       3.50
       9.22        75.       1.10
       9.22       100.       7.19
       9.22       125.       2.95
       9.22       150.       4.30
       9.67        45.       6.87
       9.67        75.       0.75
       9.67       100.       1.53
       9.67       125.       4.04
       9.67       150.       3.48
      10.13        45.      14.97
      10.13        75.       0.28
      10.13       100.       0.00
      10.13       125.       2.87
      10.13       150.       2.32
      10.62        45.      17.98       100.
      10.62        75.       0.02       100.
      10.62       100.       0.00       100.
      10.62       125.       0.96       100.
      10.62       150.       1.51       100.
ENDDATA            277
ENDSUBENT          295
SUBENT        12739005   20210928   20220609   20220609       1493
BIB                  7          8
REACTION   (28-NI-0(N,INL)28-NI-0,,DA/DE)
INC-SOURCE (D-D)
SAMPLE     At 7.5 MeV the samples were in the form of small
           solid cylinders 3.0 cm high and 2.0 cm in diameter.
ERR-ANALYS (DATA-ERR) No information on error contributions.
CORRECTION Corrected for multiple scattering.
STATUS     (TABLE) Data taken from thesis, Beyerle, 1981.
HISTORY    (19910725A) Target corrected, data uncertainty added
ENDBIB               8
COMMON               1          3
EN
MEV
        7.5
ENDCOMMON            3
DATA                 4        285
E          ANG        DATA       DATA-ERR
MEV        ADEG       MB/SR/MEV  PER-CENT
       0.51        35.      38.29       100.
       0.51        65.      43.86       100.
       0.51        95.      37.65       100.
       0.51       125.      34.52       100.
       0.51       155.      23.30       100.
       0.54        35.      32.69        95.
       0.54        65.      39.89        95.
       0.54        95.      37.31        95.
       0.54       125.      36.42        95.
       0.54       155.      25.76        95.
       0.56        35.      35.56        95.
       0.56        65.      36.63        95.
       0.56        95.      42.27        95.
       0.56       125.      32.49        95.
       0.56       155.      38.56        95.
       0.58        35.      41.28        90.
       0.58        65.      35.93        90.
       0.58        95.      38.38        90.
       0.58       125.      38.64        90.
       0.58       155.      37.99        90.
       0.60        35.      31.93        90.
       0.60        65.      30.16        90.
       0.60        95.      42.19        90.
       0.60       125.      37.08        90.
       0.60       155.      34.76        90.
       0.63        35.      33.57        85.
       0.63        65.      29.28        85.
       0.63        95.      39.77        85.
       0.63       125.      34.97        85.
       0.63       155.      31.02        85.
       0.65        35.      34.06        80.
       0.65        65.      32.79        80.
       0.65        95.      33.64        80.
       0.65       125.      33.89        80.
       0.65       155.      30.51        80.
       0.68        35.      25.49        75.
       0.68        65.      33.37        75.
       0.68        95.      33.80        75.
       0.68       125.      30.33        75.
       0.68       155.      32.46        75.
       0.71        35.      31.87        75.
       0.71        65.      33.69        75.
       0.71        95.      34.07        75.
       0.71       125.      30.65        75.
       0.71       155.      31.74        75.
       0.74        35.      31.09        75.
       0.74        65.      33.65        75.
       0.74        95.      34.42        75.
       0.74       125.      35.21        75.
       0.74       155.      31.84        75.
       0.77        35.      26.91        70.
       0.77        65.      33.05        70.
       0.77        95.      34.06        70.
       0.77       125.      34.51        70.
       0.77       155.      36.21        70.
       0.80        35.      29.02        65.
       0.80        65.      32.93        65.
       0.80        95.      30.16        65.
       0.80       125.      36.78        65.
       0.80       155.      33.05        65.
       0.83        35.      32.90        65.
       0.83        65.      35.59        65.
       0.83        95.      32.15        65.
       0.83       125.      40.14        65.
       0.83       155.      31.52        65.
       0.87        35.      29.42        60.
       0.87        65.      30.28        60.
       0.87        95.      31.83        60.
       0.87       125.      40.93        60.
       0.87       155.      36.61        60.
       0.90        35.      27.38        60.
       0.90        65.      31.72        60.
       0.90        95.      30.75        60.
       0.90       125.      38.47        60.
       0.90       155.      36.89        60.
       0.94        35.      27.55        55.
       0.94        65.      30.12        55.
       0.94        95.      32.71        55.
       0.94       125.      38.65        55.
       0.94       155.      34.39        55.
       0.98        35.      25.93        50.
       0.98        65.      31.19        50.
       0.98        95.      34.80        50.
       0.98       125.      34.98        50.
       0.98       155.      30.42        50.
       1.02        35.      27.74        50.
       1.02        65.      32.43        50.
       1.02        95.      33.80        50.
       1.02       125.      35.96        50.
       1.02       155.      30.44        50.
       1.06        35.      28.78        50.
       1.06        65.      31.73        50.
       1.06        95.      33.99        50.
       1.06       125.      35.48        50.
       1.06       155.      29.25        50.
       1.10        35.      27.46        40.
       1.10        65.      28.69        40.
       1.10        95.      32.52        40.
       1.10       125.      32.44        40.
       1.10       155.      30.91        40.
       1.15        35.      27.56        35.
       1.15        65.      27.89        35.
       1.15        95.      31.45        35.
       1.15       125.      33.89        35.
       1.15       155.      32.03        35.
       1.19        35.      28.64        30.
       1.19        65.      26.87        30.
       1.19        95.      34.05        30.
       1.19       125.      35.47        30.
       1.19       155.      35.06        30.
       1.24        35.      27.71        20.
       1.24        65.      25.20        20.
       1.24        95.      35.56        20.
       1.24       125.      36.62        20.
       1.24       155.      38.48        20.
       1.29        35.      29.45        20.
       1.29        65.      27.92        20.
       1.29        95.      33.50        20.
       1.29       125.      37.60        20.
       1.29       155.      39.29        20.
       1.34        35.      32.28        20.
       1.34        65.      29.95        20.
       1.34        95.      34.98        20.
       1.34       125.      39.42        20.
       1.34       155.      39.39        20.
       1.40        35.      35.69        15.
       1.40        65.      32.16        15.
       1.40        95.      35.40        15.
       1.40       125.      38.99        15.
       1.40       155.      37.43        15.
       1.46        35.      39.11        15.
       1.46        65.      31.43        15.
       1.46        95.      32.37        15.
       1.46       125.      34.97        15.
       1.46       155.      36.32        15.
       1.52        35.      36.67        15.
       1.52        95.      31.28        15.
       1.52       125.      33.10        15.
       1.52       155.      34.82        15.
       1.56        65.      29.81        15.
       1.58        35.      32.01        15.
       1.58        65.      27.52        15.
       1.58        95.      30.66        15.
       1.58       125.      33.94        15.
       1.58       155.      35.17        15.
       1.64        35.      30.50        15.
       1.64        65.      26.87        15.
       1.64        95.      28.95        15.
       1.64       125.      37.81        15.
       1.64       155.      33.31        15.
       1.71        35.      35.32        15.
       1.71        65.      27.96        15.
       1.71        95.      29.12        15.
       1.71       125.      35.92        15.
       1.71       155.      29.41        15.
       1.78        35.      33.14        15.
       1.78        65.      27.64        15.
       1.78        95.      30.06        15.
       1.78       125.      33.22        15.
       1.78       155.      31.28        15.
       1.85        35.      26.61        15.
       1.85        65.      25.73        15.
       1.85        95.      28.80        15.
       1.85       125.      42.89        15.
       1.85       155.      39.31        15.
       1.93        35.      25.46        15.
       1.93        65.      28.25        15.
       1.93        95.      40.75        15.
       1.93       125.      55.09        15.
       1.93       155.      49.47        15.
       2.01        35.      32.53        15.
       2.01        65.      38.94        15.
       2.01        95.      52.92        15.
       2.01       125.      63.93        15.
       2.01       155.      61.59        15.
       2.09        35.      42.77        15.
       2.09        65.      47.74        15.
       2.09        95.      50.45        15.
       2.09       125.      71.83        15.
       2.09       155.      64.55        15.
       2.17        35.      79.75        15.
       2.17        65.      58.71        15.
       2.17        95.      51.89        15.
       2.17       125.      71.11        15.
       2.17       155.      59.46        15.
       2.26        35.     110.17        15.
       2.26        65.      66.17        15.
       2.26        95.      52.40        15.
       2.26       125.      58.20        15.
       2.26       155.      48.46        15.
       2.35        35.      95.58        15.
       2.35        65.      58.35        15.
       2.35        95.      46.29        15.
       2.35       125.      41.49        15.
       2.35       155.      37.90        15.
       2.44        35.      58.91        15.
       2.44        65.      38.94        15.
       2.44        95.      41.75        15.
       2.44       125.      36.55        15.
       2.44       155.      39.78        15.
       2.55        35.      37.67        15.
       2.55        65.      32.28        15.
       2.55        95.      42.29        15.
       2.55       125.      46.12        15.
       2.55       155.      53.78        15.
       2.65        35.      34.14        15.
       2.65        65.      32.02        15.
       2.65        95.      46.57        15.
       2.65       125.      59.53        15.
       2.65       155.      63.76        15.
       2.76        35.      40.27        15.
       2.76        65.      40.80        15.
       2.76        95.      53.87        15.
       2.76       125.      61.54        15.
       2.76       155.      57.85        15.
       2.87        35.      53.26        15.
       2.87        65.      50.84        15.
       2.87        95.      57.88        15.
       2.87       125.      51.66        15.
       2.87       155.      47.90        15.
       2.99        35.      56.46        15.
       2.99        65.      47.32        15.
       2.99        95.      51.19        15.
       2.99       125.      45.34        15.
       2.99       155.      43.33        15.
       3.11        35.      47.81        15.
       3.11        65.      37.93        15.
       3.11        95.      43.82        15.
       3.11       125.      39.92        15.
       3.11       155.      42.53        15.
       3.24        35.      40.90        15.
       3.24        65.      33.21        15.
       3.24        95.      40.16        15.
       3.24       125.      37.05        15.
       3.24       155.      38.74        15.
       3.37        35.      40.22        15.
       3.37        65.      31.84        15.
       3.37        95.      37.42        15.
       3.37       125.      35.62        15.
       3.37       155.      37.11        15.
       3.51        35.      40.18        15.
       3.51        65.      28.34        15.
       3.51        95.      34.96        15.
       3.51       125.      34.72        15.
       3.51       155.      37.54        15.
       3.65        35.      38.85        15.
       3.65        65.      28.86        15.
       3.65        95.      33.89        15.
       3.65       125.      33.85        15.
       3.65       155.      37.80        15.
       3.80        35.      37.42        15.
       3.80        65.      25.84        15.
       3.80        95.      33.80        15.
       3.80       125.      33.84        15.
       3.80       155.      40.06        15.
       3.96        35.      37.32        15.
       3.96        65.      24.84        15.
       3.96        95.      32.21        15.
       3.96       125.      30.52        15.
       3.96       155.      36.36        15.
       4.12        35.      36.99        20.
       4.12        65.      25.21        20.
       4.12        95.      28.75        20.
       4.12       125.      24.37        20.
       4.12       155.      27.46        20.
       4.28        35.      35.82        30.
       4.28        65.      20.77        30.
       4.28        95.      22.97        30.
       4.28       125.      16.38        30.
       4.28       155.      16.42        30.
       4.46        35.      33.34        50.
       4.46        65.      15.98        50.
       4.46        95.      13.57        50.
       4.46       125.       8.42        50.
       4.46       155.      10.83        50.
       4.64        35.      29.44        65.
       4.64        65.      13.56        65.
       4.64        95.       8.83        65.
       4.64       125.       3.87        65.
       4.64       155.       4.16        65.
       4.83        35.      22.26       100.
       4.83        65.       8.22       100.
       4.83        95.       4.81       100.
       4.83       125.       0.00       100.
       4.83       155.       0.00       100.
ENDDATA            287
ENDSUBENT          304
SUBENT        12739006   20210928   20220609   20220609       1493
BIB                  7          9
REACTION   (28-NI-0(N,X)0-NN-1,,DA/DE)
INC-SOURCE (P-T)
SAMPLE     At 10 and 12 MeV hollow cylindrical samples were used
           of height 4.5 cm, 3.0 cm outside diameter and 1.3 cm
           inside diameter.
CORRECTION Corrected for multiple scattering.
ERR-ANALYS (DATA-ERR) No information on error contributions.
STATUS     (TABLE) Data taken from thesis, Beyerle, 1981.
HISTORY    (19910725A) Target corrected, data uncertainty added
ENDBIB               9
COMMON               1          3
EN
MEV
        10.
ENDCOMMON            3
DATA                 4        320
E          ANG        DATA       DATA-ERR
MEV        ADEG       MB/SR/MEV  PER-CENT
       0.51        45.      31.86       100.
       0.51        80.      29.05       100.
       0.51       100.      42.98       100.
       0.51       120.      25.96       100.
       0.51       145.      47.42       100.
       0.53        45.      38.21       100.
       0.53        80.      37.33       100.
       0.53       100.      41.78       100.
       0.53       120.      25.25       100.
       0.53       145.      56.69       100.
       0.56        45.      32.61        95.
       0.56        80.      27.36        95.
       0.56       100.      46.43        95.
       0.56       120.      38.88        95.
       0.56       145.      61.84        95.
       0.58        45.      21.67        95.
       0.58        80.      31.86        95.
       0.58       100.      48.84        95.
       0.58       120.      48.16        95.
       0.58       145.      52.00        95.
       0.61        45.      16.97        95.
       0.61        80.      36.34        95.
       0.61       100.      43.33        95.
       0.61       120.      37.98        95.
       0.61       145.      50.87        95.
       0.64        45.      34.44        90.
       0.64        80.      35.17        90.
       0.64       100.      43.24        90.
       0.64       120.      32.95        90.
       0.64       145.      33.84        90.
       0.67        45.      31.22        85.
       0.67        80.      33.08        85.
       0.67       100.      45.23        85.
       0.67       120.      37.43        85.
       0.67       145.      40.66        85.
       0.70        45.      36.25        80.
       0.70        80.      32.80        80.
       0.70       100.      42.72        80.
       0.70       120.      34.36        80.
       0.70       145.      34.84        80.
       0.73        45.      41.42        80.
       0.73        80.      35.67        80.
       0.73       100.      46.79        80.
       0.73       120.      37.47        80.
       0.73       145.      38.84        80.
       0.76        45.      35.10        75.
       0.76        80.      36.96        75.
       0.76       100.      45.71        75.
       0.76       120.      43.25        75.
       0.76       145.      46.23        75.
       0.80        45.      41.63        75.
       0.80        80.      34.04        75.
       0.80       100.      41.48        75.
       0.80       120.      39.04        75.
       0.80       145.      42.84        75.
       0.84        45.      35.80        60.
       0.84        80.      33.12        60.
       0.84       100.      45.11        60.
       0.84       120.      37.36        60.
       0.84       145.      43.36        60.
       0.87        45.      39.31        50.
       0.87        80.      41.88        50.
       0.87       100.      46.70        50.
       0.87       120.      45.75        50.
       0.87       145.      46.20        50.
       0.91        45.      40.24        50.
       0.91        80.      37.84        50.
       0.91       100.      42.88        50.
       0.91       120.      41.60        50.
       0.91       145.      41.82        50.
       0.96        45.      33.88        45.
       0.96        80.      34.81        45.
       0.96       100.      39.93        45.
       0.96       120.      41.09        45.
       0.96       145.      42.93        45.
       1.00        45.      26.07        40.
       1.00        80.      34.42        40.
       1.00       100.      41.72        40.
       1.00       120.      45.14        40.
       1.00       145.      45.24        40.
       1.05        45.      34.16        35.
       1.05        80.      34.37        35.
       1.05       100.      43.25        35.
       1.05       120.      42.48        35.
       1.05       145.      40.37        35.
       1.10        45.      42.58        30.
       1.10        80.      37.99        30.
       1.10       100.      47.44        30.
       1.10       120.      39.83        30.
       1.10       145.      48.35        30.
       1.15        45.      42.88        25.
       1.15        80.      40.49        25.
       1.15       100.      44.80        25.
       1.15       120.      43.74        25.
       1.15       145.      38.20        25.
       1.20        45.      37.16        20.
       1.20        80.      40.17        20.
       1.20       100.      42.21        20.
       1.20       120.      43.09        20.
       1.20       145.      40.34        20.
       1.26        45.      32.10        20.
       1.26        80.      40.16        20.
       1.26       100.      43.64        20.
       1.26       120.      48.29        20.
       1.26       145.      42.71        20.
       1.31        45.      44.43        15.
       1.31        80.      34.29        15.
       1.31       100.      42.07        15.
       1.31       120.      40.04        15.
       1.31       145.      38.95        15.
       1.37        45.      36.81        15.
       1.37        80.      33.24        15.
       1.37       100.      40.06        15.
       1.37       120.      39.41        15.
       1.37       145.      40.02        15.
       1.44        45.      39.46        15.
       1.44        80.      34.92        15.
       1.44       100.      41.48        15.
       1.44       120.      41.75        15.
       1.44       145.      41.44        15.
       1.50        45.      39.51        15.
       1.50        80.      32.83        15.
       1.50       100.      38.05        15.
       1.50       120.      39.47        15.
       1.50       145.      42.71        15.
       1.57        45.      39.84        15.
       1.57        80.      32.52        15.
       1.57       100.      38.02        15.
       1.57       120.      35.61        15.
       1.57       145.      38.59        15.
       1.65        45.      40.57        15.
       1.65        80.      31.53        15.
       1.65       100.      36.87        15.
       1.65       120.      35.52        15.
       1.65       145.      36.83        15.
       1.72        45.      43.07        15.
       1.72        80.      33.03        15.
       1.72       100.      36.75        15.
       1.72       120.      35.07        15.
       1.72       145.      38.33        15.
       1.80        45.      45.29        15.
       1.80        80.      33.00        15.
       1.80       100.      35.20        15.
       1.80       120.      34.62        15.
       1.80       145.      37.24        15.
       1.88        45.      45.65        15.
       1.88        80.      33.90        15.
       1.88       100.      35.01        15.
       1.88       120.      35.07        15.
       1.88       145.      36.11        15.
       1.97        45.      49.64        15.
       1.97        80.      32.83        15.
       1.97       100.      35.03        15.
       1.97       120.      36.46        15.
       1.97       145.      37.42        15.
       2.06        45.      48.01        15.
       2.06        80.      30.98        15.
       2.06       100.      33.01        15.
       2.06       120.      34.26        15.
       2.06       145.      36.99        15.
       2.16        45.      44.21        15.
       2.16        80.      30.01        15.
       2.16       100.      32.65        15.
       2.16       120.      31.74        15.
       2.16       145.      34.05        15.
       2.26        45.      41.44        15.
       2.26        80.      28.80        15.
       2.26       100.      31.57        15.
       2.26       120.      31.23        15.
       2.26       145.      31.74        15.
       2.36        45.      37.54        15.
       2.36        80.      28.28        15.
       2.36       100.      29.74        15.
       2.36       120.      29.67        15.
       2.36       145.      29.65        15.
       2.47        45.      36.15        15.
       2.47        80.      27.55        15.
       2.47       100.      28.81        15.
       2.47       120.      28.04        15.
       2.47       145.      29.20        15.
       2.59        45.      35.32        15.
       2.59        80.      26.47        15.
       2.59       100.      27.38        15.
       2.59       120.      28.17        15.
       2.59       145.      28.33        15.
       2.70        45.      33.72        15.
       2.70        80.      24.64        15.
       2.70       100.      25.88        15.
       2.70       120.      26.78        15.
       2.70       145.      25.46        15.
       2.83        45.      31.39        15.
       2.83        80.      23.58        15.
       2.83       100.      24.46        15.
       2.83       120.      25.05        15.
       2.83       145.      24.22        15.
       2.96        45.      29.48        15.
       2.96        80.      20.99        15.
       2.96       100.      22.09        15.
       2.96       120.      23.11        15.
       2.96       145.      22.83        15.
       3.10        45.      28.12        15.
       3.10        80.      19.87        15.
       3.10       100.      19.75        15.
       3.10       120.      21.42        15.
       3.10       145.      19.28        15.
       3.24        45.      24.36        15.
       3.24        80.      16.97        15.
       3.24       100.      16.78        15.
       3.24       120.      19.39        15.
       3.24       145.      15.86        15.
       3.39        45.      21.49        15.
       3.39        80.      14.11        15.
       3.39       100.      15.01        15.
       3.39       120.      17.07        15.
       3.39       145.      15.43        15.
       3.55        45.      19.89        15.
       3.55        80.      14.90        15.
       3.55       100.      14.24        15.
       3.55       120.      15.48        15.
       3.55       145.      14.64        15.
       3.71        45.      17.87        15.
       3.71        80.      13.68        15.
       3.71       100.      12.87        15.
       3.71       120.      14.30        15.
       3.71       145.      12.52        15.
       3.88        45.      15.99        15.
       3.88        80.      12.48        15.
       3.88       100.      11.88        15.
       3.88       120.      12.51        15.
       3.88       145.      11.51        15.
       4.06        45.      14.18        15.
       4.06        80.      11.59        15.
       4.06       100.      11.21        15.
       4.06       120.      11.31        15.
       4.06       145.      10.47        15.
       4.25        45.      13.21        15.
       4.25        80.      10.54        15.
       4.25       100.      10.25        15.
       4.25       120.      10.74        15.
       4.25       145.       8.74        15.
       4.44        45.      12.78        15.
       4.44        80.       9.63        15.
       4.44       100.       9.49        15.
       4.44       120.       9.79        15.
       4.44       145.       8.22        15.
       4.65        45.      12.20        15.
       4.65        80.       8.69        15.
       4.65       100.       8.69        15.
       4.65       120.       8.20        15.
       4.65       145.       7.93        15.
       4.87        45.      12.86        15.
       4.87        80.       8.86        15.
       4.87       100.       8.16        15.
       4.87       120.       7.59        15.
       4.87       145.       7.99        15.
       5.09        45.      12.44        15.
       5.09        80.       8.52        15.
       5.09       100.       8.12        15.
       5.09       120.       7.04        15.
       5.09       145.       8.97        15.
       5.33        45.      12.97        15.
       5.33        80.       8.12        15.
       5.33       100.       8.08        15.
       5.33       120.       6.74        15.
       5.33       145.       8.60        15.
       5.57        45.      14.05        15.
       5.57        80.       8.18        15.
       5.57       100.       7.75        15.
       5.57       120.       7.85        15.
       5.57       145.       6.87        15.
       5.83        45.      11.96        15.
       5.83        80.       6.87        15.
       5.83       100.       6.78        15.
       5.83       120.       8.51        15.
       5.83       145.       5.81        15.
       6.10        45.       9.69        15.
       6.10        80.       5.61        15.
       6.10       100.       5.42        15.
       6.10       120.       6.56        15.
       6.10       145.       5.55        15.
       6.38        45.       8.78        15.
       6.38        80.       5.21        15.
       6.38       100.       4.74        15.
       6.38       120.       4.95        15.
       6.38       145.       5.26        15.
       6.68        45.       7.91        20.
       6.68        80.       4.55        20.
       6.68       100.       4.23        20.
       6.68       120.       4.34        20.
       6.68       145.       4.73        20.
       6.98        45.       7.15        25.
       6.98        80.       3.94        25.
       6.98       100.       3.76        25.
       6.98       120.       4.15        25.
       6.98       145.       4.03        25.
       7.31        45.       7.07        30.
       7.31        80.       3.26        30.
       7.31       100.       3.65        30.
       7.31       120.       3.77        30.
       7.31       145.       3.53        30.
       7.64        45.       8.25        40.
       7.64        80.       3.06        40.
       7.64       100.       4.16        40.
       7.64       120.       3.13        40.
       7.64       145.       3.90        40.
       8.00        45.       9.57        50.
       8.00        80.       2.64        50.
       8.00       100.       4.85        50.
       8.00       120.       1.89        50.
       8.00       145.       5.47        50.
       8.37        45.      14.52        70.
       8.37        80.       1.61        70.
       8.37       100.       3.28        70.
       8.37       120.       0.00        70.
       8.37       145.       6.89        70.
       8.75        45.      17.77       100.
       8.75        80.       1.08       100.
       8.75       100.       2.64       100.
       8.75       120.       0.00       100.
       8.75       145.       7.03       100.
ENDDATA            322
ENDSUBENT          340
SUBENT        12739007   20210928   20220609   20220609       1493
BIB                  6          8
REACTION   (29-CU-0(N,X)0-NN-1,,DA/DE)
INC-SOURCE (P-T)
SAMPLE     At 10 and 12 MeV hollow cylindrical samples were used
           of height 4.5 cm, 3.0 cm outside diameter and 1.3 cm
           inside diameter.
CORRECTION Corrected for multiple scattering.
ERR-ANALYS (DATA-ERR) No information on error contributions.
STATUS     (TABLE) Data taken from thesis, Beyerle, 1981.
ENDBIB               8
COMMON               1          3
EN
MEV
        12.
ENDCOMMON            3
DATA                 4        162
E          ANG        DATA       DATA-ERR
MEV        ADEG       MB/SR/MEV  PER-CENT
       0.84        75.      51.14        80.
       0.84       125.      38.05        80.
       0.84       145.      61.01        80.
       0.88        75.      47.12
       0.88       125.      37.20
       0.88       145.      53.95
       0.92        75.      35.35
       0.92       125.      36.83
       0.92       145.      49.39
       0.96        75.      33.55
       0.96       125.      36.80
       0.96       145.      44.06
       1.01        75.      33.45
       1.01       125.      35.51
       1.01       145.      47.21
       1.05        75.      38.53
       1.05       125.      27.27
       1.05       145.      42.54
       1.10        75.      34.12
       1.10       125.      25.94
       1.10       145.      45.43
       1.15        75.      26.11
       1.15       125.      29.92
       1.15       145.      48.81
       1.21        75.      25.78        50.
       1.21       125.      27.77        50.
       1.21       145.      48.61        50.
       1.27        75.      30.68
       1.27       125.      29.26
       1.27       145.      49.28
       1.33        75.      26.81
       1.33       125.      25.86
       1.33       145.      39.37
       1.39        75.      22.32
       1.39       125.      19.39
       1.39       145.      44.35
       1.45        75.      27.77
       1.45       125.      21.23
       1.45       145.      40.58
       1.52        75.      23.19        30.
       1.52       125.      23.24        30.
       1.52       145.      36.03        30.
       1.60        75.      22.21
       1.60       125.      24.87
       1.60       145.      30.85
       1.67        75.      21.45
       1.67       125.      23.06
       1.67       145.      31.91
       1.75        75.      19.41
       1.75       125.      18.91
       1.75       145.      31.97
       1.83        75.      18.78
       1.83       125.      16.29
       1.83       145.      31.05
       1.92        75.      17.63
       1.92       125.      14.85
       1.92       145.      33.30
       2.01        75.      15.88        20.
       2.01       125.      16.53        20.
       2.01       145.      32.46        20.
       2.10        75.      14.17
       2.10       125.      21.48
       2.10       145.      36.81
       2.20        75.      15.74
       2.20       125.      21.76
       2.20       145.      33.53
       2.31        75.      15.03
       2.31       125.      21.77
       2.31       145.      29.11
       2.42        75.      13.65
       2.42       125.      20.92
       2.42       145.      25.56
       2.53        75.      11.68        10.
       2.53       125.      14.78        10.
       2.53       145.      23.77        10.
       2.65        75.      10.91
       2.65       125.      16.71
       2.65       145.      24.14
       2.78        75.       9.80
       2.78       125.      17.66
       2.78       145.      21.25
       2.91        75.       9.36
       2.91       125.      16.00
       2.91       145.      20.92
       3.05        75.       8.02
       3.05       125.      14.03
       3.05       145.      19.49
       3.19        75.       6.78
       3.19       125.      14.45
       3.19       145.      18.40
       3.34        75.       6.87
       3.34       125.      12.45
       3.34       145.      17.53
       3.50        75.       6.49
       3.50       125.      11.88
       3.50       145.      16.49
       3.66        75.       5.67
       3.66       125.      10.31
       3.66       145.      16.04
       3.84        75.       5.89
       3.84       125.       9.33
       3.84       145.      15.61
       4.02        75.       5.22
       4.02       125.       8.98
       4.02       145.      13.62
       4.21        75.       3.97
       4.21       125.       8.49
       4.21       145.      11.86
       4.40        75.       3.13
       4.40       125.       7.65
       4.40       145.      10.10
       4.61        75.       3.25
       4.61       125.       7.01
       4.61       145.       8.52
       4.83        75.       3.31
       4.83       125.       6.50
       4.83       145.       7.55
       5.06        75.       3.24
       5.06       125.       4.83
       5.06       145.       6.55
       5.30        75.       2.99
       5.30       125.       3.80
       5.30       145.       5.91
       5.55        75.       2.88
       5.55       125.       3.50
       5.55       145.       5.01
       5.81        75.       3.06        15.
       5.81       125.       3.13        15.
       5.81       145.       4.31        15.
       6.09        75.       3.36
       6.09       125.       3.22
       6.09       145.       3.96
       6.37        75.       3.91
       6.37       125.       3.41
       6.37       145.       3.70
       6.67        75.       4.51
       6.67       125.       3.37
       6.67       145.       3.55
       6.99        75.       3.68
       6.99       125.       3.62
       6.99       145.       3.22
       7.32        75.       1.69        30.
       7.32       125.       3.62        30.
       7.32       145.       2.69        30.
       7.66        75.       0.00
       7.66       125.       2.86
       7.66       145.       2.40
       8.03        75.       0.00
       8.03       125.       2.53
       8.03       145.       2.91
       8.41        75.       0.00
       8.41       125.       2.85
       8.41       145.       3.81
       8.80        75.       1.14        50.
       8.80       125.       4.64        50.
       8.80       145.       4.33        50.
       9.22        75.       3.14
       9.22       125.       9.48
       9.22       145.       3.54
       9.65        75.       4.00       100.
       9.65       125.       1.31       100.
       9.65       145.       2.63       100.
ENDDATA            164
ENDSUBENT          181
NOSUBENT      12739008     910725              20050926       0000
SUBENT        12739009   20210928   20220609   20220609       1493
BIB                  6          8
REACTION   (82-PB-0(N,X)0-NN-1,,DA/DE,,REL)
INC-SOURCE (D-D)
SAMPLE     At 7.5 MeV the samples were in the form of small
           solid cylinders 3.0 cm high and 2.0 cm in diameter.
CORRECTION Not corrected for attenuation effects or for multiple
           scattering
STATUS     (CURVE) Fig. 3, page 141 of the main reference.
HISTORY    (20210928A) BP: Digitized data.
ENDBIB               8
COMMON               2          3
EN         ANG
MEV        ADEG
        7.5      125.0
ENDCOMMON            3
DATA                 2        113
E          DATA
MEV        ARB-UNITS
      0.573  1.633E+05
      0.607  1.832E+05
      0.759  1.635E+05
      0.810  1.793E+05
      0.929  1.922E+05
      1.047  1.969E+05
      1.149  1.839E+05
      1.267  1.678E+05
      1.369  1.841E+05
      1.403  2.019E+05
      1.538  2.165E+05
      1.589  1.976E+05
      1.690  2.070E+05
      1.724  2.377E+05
      1.809  2.120E+05
      1.910  1.848E+05
      2.046  1.937E+05
      2.181  1.939E+05
      2.266  2.176E+05
      2.350  2.032E+05
      2.418  1.854E+05
      2.468  1.474E+05
      2.502  1.345E+05
      2.587  1.256E+05
      2.654  9.759E+04
      2.705  8.905E+04
      2.840  7.588E+04
      2.958  8.717E+04
      3.060  1.001E+05
      3.161  9.570E+04
      3.246  9.145E+04
      3.330  8.347E+04
      3.398  6.790E+04
      3.448  5.275E+04
      3.449  5.917E+04
      3.533  3.914E+04
      3.617  3.491E+04
      3.651  3.042E+04
      3.718  2.713E+04
      3.820  2.977E+04
      3.887  2.478E+04
      3.938  2.261E+04
      4.022  1.566E+04
      4.073  1.840E+04
      4.141  2.113E+04
      4.259  2.115E+04
      4.327  1.643E+04
      4.428  1.682E+04
      4.496  1.845E+04
      4.530  2.489E+04
      4.581  2.119E+04
      4.683  2.994E+04
      4.801  2.733E+04
      4.835  2.382E+04
      4.902  2.173E+04
      4.970  2.174E+04
      5.004  1.689E+04
      5.037  1.541E+04
      5.138  1.144E+04
      5.223  7.922E+03
      5.308  1.021E+04
      5.407  2.819E+03
      5.425  3.890E+03
      5.493  6.757E+03
      5.493  7.936E+03
      5.594  5.251E+03
      5.628  3.986E+03
      5.696  7.947E+03
      5.747  9.555E+03
      5.781  7.952E+03
      5.814  5.022E+03
      5.865  4.180E+03
      5.899  6.622E+03
      5.967  9.792E+03
      6.086  8.939E+03
      6.187  5.914E+03
      6.220  5.036E+03
      6.272  7.620E+03
      6.373  9.819E+03
      6.492  1.325E+04
      6.544  2.198E+04
      6.628  2.356E+04
      6.697  3.484E+04
      6.815  4.594E+04
      6.900  4.493E+04
      6.968  5.922E+04
      7.069  5.926E+04
      7.137  6.964E+04
      7.239  7.640E+04
      7.290  9.842E+04
      7.375  9.624E+04
      7.442  1.131E+05
      7.527  1.032E+05
      7.628  9.864E+04
      7.713  8.798E+04
      7.780  7.668E+04
      7.865  7.673E+04
      7.915  5.313E+04
      8.000  4.849E+04
      8.051  4.851E+04
      8.084  3.135E+04
      8.117  2.609E+04
      8.236  2.611E+04
      8.286  1.893E+04
      8.302  8.868E+03
      8.370  9.953E+03
      8.438  8.876E+03
      8.470  3.971E+03
      8.504  3.015E+03
      8.537  1.948E+03
      8.572  2.947E+03
      8.638  1.001E+03
      8.656  2.042E+03
ENDDATA            115
ENDSUBENT          132
SUBENT        12739010   20211005   20220609   20220609       1493
BIB                  6          9
REACTION   (82-PB-0(N,X)0-NN-1,,DA/DE,,REL)
INC-SOURCE (P-T)
SAMPLE     At 10 and 12 MeV hollow cylindrical samples were used
           of height 4.5 cm, 3.0 cm outside diameter and 1.3 cm
           inside diameter.
CORRECTION Not corrected for attenuation effects or for multiple
           scattering
STATUS     (CURVE) Fig. 4, page 141 of the main reference.
HISTORY    (20210928C)
ENDBIB               9
COMMON               2          3
EN         ANG
MEV        ADEG
       10.0      125.0
ENDCOMMON            3
DATA                 2        108
E          DATA
MEV        ARB-UNITS
      0.477  4.821E+05
      0.603  6.344E+05
      0.678  5.791E+05
      0.879  5.411E+05
      1.080  4.830E+05
      1.230  4.410E+05
      1.355  4.215E+05
      1.480  3.677E+05
      1.581  3.357E+05
      1.756  3.065E+05
      1.881  2.864E+05
      2.057  2.498E+05
      2.157  2.179E+05
      2.307  1.901E+05
      2.432  1.736E+05
      2.533  1.585E+05
      2.583  1.414E+05
      2.632  1.233E+05
      2.783  1.126E+05
      2.933  1.005E+05
      3.033  9.174E+04
      3.133  8.569E+04
      3.208  7.474E+04
      3.334  6.824E+04
      3.409  6.089E+04
      3.534  5.434E+04
      3.710  5.194E+04
      3.885  4.965E+04
      4.061  4.967E+04
      4.186  4.536E+04
      4.337  4.538E+04
      4.412  4.238E+04
      4.487  3.782E+04
      4.612  3.698E+04
      4.662  3.299E+04
      4.712  2.944E+04
      4.837  2.627E+04
      4.988  2.628E+04
      5.138  2.241E+04
      5.289  2.347E+04
      5.389  2.631E+04
      5.440  2.950E+04
      5.565  2.694E+04
      5.615  2.096E+04
      5.765  1.914E+04
      5.840  1.594E+04
      5.915  1.359E+04
      6.040  1.034E+04
      6.165  9.880E+03
      6.366  1.035E+04
      6.441  9.025E+03
      6.591  9.238E+03
      6.742  1.036E+04
      6.918  1.136E+04
      6.969  1.333E+04
      7.094  1.428E+04
      7.170  1.836E+04
      7.270  1.715E+04
      7.345  1.530E+04
      7.395  1.164E+04
      7.495  1.087E+04
      7.545  8.078E+03
      7.645  7.046E+03
      7.695  6.006E+03
      7.845  6.891E+03
      7.971  7.727E+03
      8.097  8.665E+03
      8.247  8.669E+03
      8.398  8.477E+03
      8.524  1.115E+04
      8.725  1.223E+04
      8.875  1.469E+04
      9.102  1.978E+04
      9.177  2.167E+04
      9.278  2.851E+04
      9.454  3.927E+04
      9.580  3.929E+04
      9.581  5.534E+04
      9.631  7.447E+04
      9.807  7.451E+04
      9.833  1.074E+05
     10.008  1.026E+05
     10.083  8.952E+04
     10.209  8.363E+04
     10.258  6.656E+04
     10.333  3.849E+04
     10.456  1.287E+04
     10.483  3.851E+04
     10.606  1.122E+04
     10.729  2.919E+03
     10.778  1.980E+03
     10.904  2.027E+03
     10.905  2.920E+03
     11.003  9.987E+02
     11.079  2.028E+03
     11.178  9.993E+02
     11.404  9.774E+02
     11.906  1.001E+03
     12.057  1.025E+03
     12.182  9.797E+02
     12.333  1.003E+03
     12.483  1.003E+03
     12.634  1.004E+03
     12.784  1.027E+03
     12.935  1.005E+03
     13.085  1.005E+03
     13.236  9.828E+02
     13.436  1.006E+03
ENDDATA            110
ENDSUBENT          128
SUBENT        12739011   20211005   20220609   20220609       1493
BIB                  6          9
REACTION   (82-PB-0(N,X)0-NN-1,,DA/DE,,REL)
INC-SOURCE (P-T)
SAMPLE     At 10 and 12 MeV hollow cylindrical samples were used
           of height 4.5 cm, 3.0 cm outside diameter and 1.3 cm
           inside diameter.
CORRECTION Not corrected for attenuation effects or for multiple
           scattering
STATUS     (CURVE) Fig. 5, page 141 of the main reference.
HISTORY    (20210928C)
ENDBIB               9
COMMON               2          3
EN         ANG
MEV        ADEG
       12.0      125.0
ENDCOMMON            3
DATA                 2        131
E          DATA
MEV        ARB-UNITS
      0.430  1.460E+05
      0.454  1.263E+05
      0.473  1.873E+05
      0.491  2.897E+05
      0.493  2.505E+05
      0.512  3.492E+05
      0.625  4.129E+05
      0.739  4.401E+05
      0.923  4.598E+05
      1.083  4.514E+05
      1.244  4.431E+05
      1.406  4.087E+05
      1.497  4.265E+05
      1.636  3.933E+05
      1.728  3.778E+05
      1.844  3.483E+05
      1.959  3.210E+05
      2.097  3.216E+05
      2.166  3.025E+05
      2.259  2.788E+05
      2.329  2.464E+05
      2.536  2.322E+05
      2.606  2.139E+05
      2.631  1.889E+05
      2.723  1.741E+05
      2.861  1.673E+05
      2.885  1.541E+05
      2.955  1.419E+05
      3.070  1.336E+05
      3.163  1.206E+05
      3.256  1.111E+05
      3.395  9.830E+04
      3.534  8.696E+04
      3.604  7.528E+04
      3.720  6.939E+04
      3.813  6.135E+04
      3.906  5.424E+04
      4.022  5.105E+04
      4.069  4.605E+04
      4.253  4.338E+04
      4.347  3.457E+04
      4.508  3.465E+04
      4.578  3.126E+04
      4.650  2.390E+04
      4.788  2.250E+04
      4.858  2.073E+04
      4.973  1.911E+04
      5.110  2.123E+04
      5.204  1.728E+04
      5.365  1.732E+04
      5.502  1.735E+04
      5.640  1.738E+04
      5.689  1.328E+04
      5.847  1.604E+04
      5.896  1.201E+04
      6.033  1.362E+04
      6.125  1.255E+04
      6.218  1.181E+04
      6.379  1.112E+04
      6.518  9.840E+03
      6.565  8.694E+03
      6.677  1.189E+04
      6.838  1.096E+04
      6.978  8.743E+03
      7.092  9.714E+03
      7.183  1.057E+04
      7.253  9.148E+03
      7.344  9.951E+03
      7.505  9.568E+03
      7.621  8.820E+03
      7.645  8.120E+03
      7.664  1.109E+04
      7.920  8.151E+03
      8.057  8.690E+03
      8.242  7.692E+03
      8.314  5.759E+03
      8.385  4.783E+03
      8.523  4.694E+03
      8.590  5.781E+03
      8.749  6.699E+03
      8.796  5.797E+03
      8.863  6.709E+03
      8.934  5.808E+03
      9.139  6.734E+03
      9.140  5.705E+03
      9.253  6.745E+03
      9.390  7.653E+03
      9.437  6.903E+03
      9.530  5.855E+03
      9.668  5.866E+03
      9.742  3.798E+03
      9.808  4.876E+03
      9.925  3.888E+03
      9.968  4.887E+03
     10.083  4.794E+03
     10.154  3.900E+03
     10.158  2.917E+03
     10.341  2.864E+03
     10.407  3.754E+03
     10.496  4.922E+03
     10.591  3.843E+03
     10.634  4.931E+03
     10.774  3.773E+03
     10.818  4.743E+03
     10.883  6.754E+03
     10.996  7.661E+03
     11.067  6.771E+03
     11.111  7.834E+03
     11.202  8.522E+03
     11.245  1.094E+04
     11.382  1.119E+04
     11.494  1.467E+04
     11.678  1.502E+04
     11.768  1.738E+04
     11.951  1.817E+04
     12.089  1.746E+04
     12.250  1.714E+04
     12.371  9.806E+03
     12.577  9.833E+03
     12.728  2.898E+03
     12.778  1.955E+03
     12.912  2.905E+03
     12.962  1.960E+03
     13.141  2.914E+03
     13.207  3.741E+03
     13.394  2.805E+03
     13.601  2.813E+03
     13.666  3.765E+03
     13.704  9.581E+02
     13.842  9.598E+02
     14.002  9.619E+02
ENDDATA            133
ENDSUBENT          151
ENDENTRY            11
