ENTRY            12753     821210
SUBENT        12753001     821210
BIB                 11         21
INSTITUTE  (1USAORL)
REFERENCE  (J,NSE,81,520,8208)
AUTHOR     (R.L.MACKLIN)
TITLE      TECHNETIUM-99 NEUTRON CAPTURE CROSS SECTION
FACILITY   (LINAC) ORELA
SAMPLE     HOT PRESSED HIGHLY PURIFIED TECHNETIUM METAL POWDER IN
            12.8 MM DIAMETER DISKS. DISKS WERE 93.24 PERCENT BY
            WEIGHT TECHNETIUM AS DETERMINED BY X-RAY FLUORESCENCE.
            IMPURITIES IDENTIFIED WERE SODIUM 421 MICROGRAM/GRAM
            AND RHENIUM 82.5 MICROGRAM/GRAM.
METHOD     (TOF) 40.12 METERS TO SAMPLE. COUNTED FOR 207 HOURS.
DETECTOR   (SCIN) 2 NON-HYDROGENOUS LIQUID SCINTILLATORS ON
            EITHER SIDE OF THE SAMPLE
           (GLASD) 6-LI GLASS FOR FLUX MONITOR
CORRECTION CORRECTED FOR BACKGROUND NEUTRONS AND GAMMAS, INELASTIC
            NEUTRON GAMMAS, DETECTOR EFFICIENCY,DEAD-TIME LOSS,
            GAIN DRIFT, RESONANCE SELF-PROTECTION AND MULTIPLE
            SCATTERING.
STATUS     (APRVD) APPROVED BY R.L.MACKLIN, 82/12/3.
HISTORY    (820830C)
           (821210U) STATUS UPDATED.
ENDBIB              21
NOCOMMON             0          0
ENDSUBENT           24
SUBENT        12753002     820913
BIB                  4         12
REACTION   (43-TC-99(N,G)43-TC-100,,SIG,,AV)
MONITOR    (3-LI-6(N,T)2-HE-4,,SIG)
ERR-ANALYS (DATA-ERR) STATISTICAL ERROR ONLY. STATISTICAL ERROR
            BELOW 900. KEV IS LESS THAN 1.1 PERCENT.
            SYSTEMATIC ERROR OF 4.0 PERCENT BELOW 70 KEV,
              4.0 - 4.9 PERCENT BETWEEN 70 AND 500 KEV AND
              4.9 PERCENT ABOVE 500 KEV INCLUDES
                      3.0 PERCENT FOR ATOMIC CONTENT,
                      0.4 PERCENT FOR DETECTOR EFFICIENCY,
                      1.5 PERCENT FOR NORMALIZATION.
FLAG       (1.) AVERAGE FROM MEASUREMENTS AT BOTH LOW AND HIGH
            PULSE-HEIGHT BIAS.
ENDBIB              12
NOCOMMON             0          0
DATA                 5         31
EN-MIN     EN-MAX     DATA       DATA-ERR   FLAG
KEV        KEV        MB         MB         NO-DIM
    3.         4.      2026.
    4.         6.      1914.
    6.         8.      1607.
    8.        10.      1457.
   10.        15.      1255.
   15.        20.      1108.
   20.        30.       942.
   30.        40.       765.
   40.        60.       604.
   60.        80.       485.
   80.       100.       407.
  100.       150.       341.
  150.       200.       262.                1.
  200.       300.       201.                1.
  300.       400.       166.                1.
  400.       500.       151.                1.
  500.       600.       148.                1.
  600.       700.       141.                1.
  700.       800.       126.
  800.       900.        95.4
  900.      1000.        81.1     1.2
 1000.      1100.        76.9     1.3
 1100.      1200.        73.1     1.3
 1200.      1300.        63.4     1.2
 1300.      1400.        60.0     1.5
 1400.      1500.        60.1     1.6
 1500.      1600.        60.5     1.7
 1600.      1700.        52.7     1.8
 1700.      1800.        48.6     1.8
 1800.      1900.        39.3     2.0
 1900.      2000.        43.6     2.3
ENDDATA             33
ENDSUBENT           50
SUBENT        12753003     820913
BIB                  3         10
REACTION  1(43-TC-99(N,0),,EN)
          2((43-TC-99(N,EL),,WID,,G)*(43-TC-99(N,G),,WID)/
           (43-TC-99(N,TOT),,WID))
ANALYSIS   (AREA)
ERR-ANALYS (DATA-ERR) STATISTICAL UNCERTAINTY.
            SYSTEMATIC UNCERTAINTY OF 5.0 PERCENT INCLUDES
                 3.0 PERCENT FOR ATOMIC CONTENT,
                 0.4 PERCENT FOR DETECTOR EFFICIENCY,
                 1.5 PERCENT FOR NORMALIZATION,
                 3.0 PERCENT FOR RESOLUTION FUNCTION.
ENDBIB              10
NOCOMMON             0          0
DATA                 3        183
DATA      1DATA      2DATA-ERR  2
EV         MILLI-EV   MILLI-EV
 2660.       5.9       0.3
 2676.      13.7       0.4
 2688.      48.1       0.5
 2695.       8.7       0.5
 2703.       3.9       0.4
 2717.       9.0       0.5
 2721.       2.8       0.5
 2734.      45.0       0.9
 2744.       3.5       0.4
 2761.      12.7       0.5
 2769.      49.0       0.6
 2784.       4.0       0.3
 2795.      14.9       0.5
 2801.       3.6       0.4
 2814.       7.1       0.6
 2817.       3.2       0.7
 2831.      33.8       0.5
 2841.      49.4       0.6
 2853.      17.5       0.4
 2878.       6.3       0.4
 2882.       3.4       0.4
 2895.      40.0       0.6
 2902.      29.3       0.5
 2920.      21.6       0.5
 2936.       8.6       0.4
 2945.      32.9       0.5
 2979.      29.7       0.5
 2994.       6.4       0.4
 3006.      11.1       0.9
 3009.       6.0       0.8
 3023.       9.5       0.4
 3030.      17.6       0.5
 3039.       4.6       0.6
 3044.      21.0       0.6
 3050.       4.7       0.6
 3064.       4.6       0.6
 3069.      32.7       0.6
 3093.      37.2       0.6
 3101.      13.5       0.5
 3120.       4.5       0.5
 3129.      24.4       0.7
 3136.      40.3       0.6
 3143.      15.7       0.7
 3150.       4.3       0.4
 3165.      19.8       0.5
 3180.       4.5       0.5
 3191.      67.7       0.7
 3204.      41.9       0.7
 3221.       5.8       0.6
 3227.      24.0       0.7
 3242.      11.7       0.5
 3262.      16.8       0.6
 3271.       1.8       0.4
 3295.       8.3       0.5
 3306.      71.0       1.5
 3331.      56.2       0.8
 3352.       5.9       0.4
 3364.       9.3       0.5
 3371.       2.8       0.6
 3384.      17.3       0.7
 3391.      13.9       0.8
 3409.      14.2       0.5
 3418.      25.5       0.7
 3424.      43.8       0.6
 3435.      27.8       0.5
 3448.       4.4       0.5
 3456.      67.2       0.7
 3472.       6.0       0.4
 3478.       2.7       0.5
 3499.      39.6       0.6
 3506.      13.9       0.7
 3512.       5.1       0.6
 3522.       1.9       0.3
 3535.       3.4       0.3
 3561.      24.3       0.5
 3573.      19.6       0.7
 3580.      34.9       0.6
 3595.      31.9       0.6
 3610.      65.0       0.7
 3620.       8.9       0.5
 3636.      10.2       0.4
 3657.      23.8       0.6
 3664.      15.9       0.6
 3697.      21.5       0.9
 3704.      68.5       0.8
 3729.      40.2       0.7
 3740.      40.0       1.0
 3762.       8.0       0.4
 3775.       7.0       0.8
 3781.      33.0       0.8
 3800.      22.7       0.7
 3809.      45.5       0.7
 3832.      16.6       0.6
 3845.      80.2       1.4
 3860.      16.0       0.6
 3871.      37.7       0.8
 3881.       4.2       0.5
 3890.      34.1       0.8
 3900.       7.8       0.7
 3908.       4.7       0.7
 3923.      24.1       1.3
 3930.      48.1       1.0
 3937.      31.5       1.1
 3966.      77.6       1.3
 3984.       7.9       0.7
 3994.      43.3       0.9
 4017.      12.4       0.5
 4035.      45.7       0.8
 4049.      47.6       0.8
 4059.      13.5       0.9
 4065.      36.1       0.9
 4076.       3.3       0.5
 4085.      17.1       0.6
 4093.      11.0       0.9
 4100.      51.3       0.9
 4115.      26.7       0.7
 4125.      18.9       0.6
 4142.       3.5       0.7
 4148.       5.1       0.5
 4164.      40.9       1.7
 4168.       5.2       1.8
 4175.       6.9       0.8
 4183.       8.5       0.4
 4194.       7.7       0.4
 4207.      10.3       0.4
 4230.       7.4       0.5
 4239.      17.1       0.5
 4252.      38.4       0.7
 4266.      13.2       0.4
 4282.      32.1       0.6
 4294.      15.6       0.8
 4300.      11.2       0.6
 4312.      43.2       0.8
 4320.      40.0       0.9
 4340.      20.5       0.6
 4348.      14.4       0.8
 4362.      74.8       1.2
 4375.      23.8       1.2
 4386.      53.7       1.5
 4395.      18.5       1.5
 4402.      24.8       1.3
 4426.      19.9       0.9
 4443.      28.7       1.1
 4458.      10.1       0.9
 4470.      36.4       1.2
 4493.       7.9       1.4
 4502.      58.6       2.4
 4509.      75.8       2.1
 4527.      21.2       1.0
 4556.     109.6       2.5
 4585.      21.7       1.2
 4596.      42.6       1.6
 4610.      42.0       1.8
 4627.       3.3       1.0
 4638.      65.6       1.5
 4653.      10.6       0.7
 4662.       6.7       0.8
 4680.      49.1       1.1
 4694.      41.1       1.0
 4707.       8.8       0.9
 4717.      33.1       1.0
 4738.      74.5       1.2
 4781.      82.1       1.8
 4798.      10.1       0.7
 4824.      91.4       2.0
 4837.      32.3       1.1
 4845.      23.8       1.3
 4865.      81.9       2.0
 4876.      39.2       1.2
 4903.      16.1       0.6
 4915.      19.1       0.6
 4931.      57.7       1.0
 4940.      11.8       0.8
 4950.      19.4       0.7
 4964.      59.6       1.1
 4973.      26.1       1.1
 4985.       7.4       0.8
 4993.      41.0       0.9
 5008.      44.0       1.0
 5017.      46.3       1.1
 5031.      19.8       0.7
 5049.      53.6       1.0
 5066.      57.6       1.3
ENDDATA            185
ENDSUBENT          200
SUBENT        12753004     820913
BIB                  3         10
REACTION  1(43-TC-99(N,0),,EN)
          2(43-TC-99(N,EL),,WID,,G)
          3(43-TC-99(N,G),,WID)
ANALYSIS   (SHAPE)
ERR-ANALYS (DATA-ERR) STATISTICAL UNCERTAINTY.
            SYSTEMATIC UNCERTAINTY OF 5.0 PERCENT INCLUDES
                 3.0 PERCENT FOR ATOMIC CONTENT,
                 0.4 PERCENT FOR DETECTOR EFFICIENCY,
                 1.5 PERCENT FOR NORMALIZATION,
                 3.0 PERCENT FOR RESOLUTION FUNCTION.
ENDBIB              10
NOCOMMON             0          0
DATA                 5          4
DATA      1DATA      2DATA-ERR  2DATA      3DATA-ERR  3
EV         EV         EV         MILLI-EV   MILLI-EV
 2734.      0.56      0.01        98.       2.
 3306.      0.66      0.02         159.     4.
 3740.      1.12      0.04         83.      2.
 5066.      1.53      0.05        120.      3.
ENDDATA              6
ENDSUBENT           21
ENDENTRY             4
