ENTRY            D0993   20210409   20220321   20220321       D135
SUBENT        D0993001   20210409   20220321   20220321       D135
BIB                 12         23
TITLE      Study of elastic scattering and reaction cross section
            of the 12C+28Si system
AUTHOR     (J.M.Oliveira Jr)
REFERENCE  (T,OLIVEIRA JR,1988)
           Jose Martins de Oliveira Junior
            Master thesis submitted to Universidade de Sao Paulo
            https://repositorio.usp.br/item/000729541
REL-REF    (N,,E.A.Benjamim+,J,JP/CS,436,012015,2013)
            Data of this experiment and other experiments on fig.
INSTITUTE  (3BZLUSP)
FACILITY   (VDGT,3BZLUSP) Pelletron Laboratory
SAMPLE     12C (~15 to 30 ug/cm2 thick), evaporated onto Au
            (1 ug/cm2 thick) in some cases
DETECTOR   (TELES,PROPC,SIBAR)
           Three telescopes consisting of proportional gas
            counters followed by 28Si surface barrier detectors
PART-DET   (14-SI-28) for forward angles
           (6-C-12) for backward angles
METHOD     (COINC) 28Si and 12C measured in coincidence
           (EDE)
ERR-ANALYS (DATA-ERR) No information on sources of uncertainty
HISTORY    (20210409R) On. Data received from Alinka Lepine-Szily.
           (20210409C) On
ENDBIB              23
NOCOMMON             0          0
ENDSUBENT           26
SUBENT        D0993002   20210409   20220321   20220321       D135
BIB                  2          2
REACTION   (6-C-12(14-SI-28,EL)6-C-12,,DA,,RTH)
STATUS     (TABLE) Data received from Alinka Lepie-Szily
ENDBIB               2
NOCOMMON             0          0
DATA                 4        600
EN-CM      ANG-CM     DATA       DATA-ERR
MEV        ADEG       NO-DIM     NO-DIM
 13.3        30.06     0.966      0.0058
 13.3        32.15     0.97       0.00582
 13.3        33.97     0.993      0.00596
 13.3        35.9      1.009      0.00605
 13.3        38.29     1.03       0.00618
 13.3        41.35     1.031      0.00619
 13.3        43.15     1.022      0.00613
 13.3        45.05     1.038      0.00623
 13.3        46.83     1.034      0.0062
 13.3        49.84     1.048      0.00838
 13.3        52.18     1.039      0.01247
 13.3        54.04     0.999      0.01199
 13.3        55.79     1.054      0.01159
 13.3        57.78     0.998      0.01198
 13.3        60.87     0.991      0.01189
 13.3        62.84     1.008      0.0121
 13.3        64.55     1.031      0.01237
 13.3        66.35     1.021      0.01225
 13.3        68.59     1.046      0.01151
 13.3        71.43     1.058      0.01164
 13.3        73.09     1.068      0.01175
 13.3        74.85     1.045      0.01254
 13.3        76.49     1.075      0.01398
 13.3        79.25     1.072      0.01394
 13.3        81.38     1.095      0.01423
 13.3        83.07     1.071      0.01392
 13.3        84.66     1.102      0.01433
 13.3        86.46     1.07       0.01391
 13.3        89.27     1.138      0.01366
 13.3        91.01     1.117      0.01452
 13.3        92.53     1.14       0.01368
 13.3        94.13     1.082      0.01407
 13.3        96.11     1.136      0.01363
 13.3        98.62     1.132      0.01245
 13.3       100.08     1.141      0.01255
 13.3       101.62     1.108      0.01219
 13.3       103.05     1.124      0.01349
 13.3       105.45     0.997      0.01496
 13.3       107.3      0.985      0.01379
 13.3       108.75     1.03       0.01442
 13.3       110.12     1.007      0.0141
 13.3       111.66     0.992      0.01686
 13.3       114.03     0.953      0.01239
 13.3       115.53     0.961      0.01153
 13.3       116.83     0.923      0.012
 13.3       118.29     0.9        0.0126
 13.3       120.71     0.868      0.01389
 13.3       123.25     0.842      0.01431
 13.3       124.9      0.828      0.02484
 14.7        18.81     0.97800    0.04890
 14.7        19.53     0.97100    0.04890
 14.7        20.24     0.99400    0.04890
 14.7        20.95     0.96600    0.01660
 14.7        21.64     0.98300    0.03440
 14.7        22.35     0.98300    0.02800
 14.7        23.07     0.99300    0.02660
 14.7        23.77     1.01000    0.02830
 14.7        24.48     1.01000    0.03430
 14.7        25.18     1.01000    0.04910
 14.7        25.89     1.03000    0.02080
 14.7        26.60     1.03000    0.02190
 14.7        27.31     1.03000    0.02330
 14.7        28.02     0.98500    0.02300
 14.7        28.78     0.99400    0.01250
 14.7        29.43     0.96700    0.02560
 14.7        29.81     0.98700    0.00631
 14.7        30.14     1.04000    0.02870
 14.7        30.83     0.98500    0.01360
 14.7        31.54     0.98600    0.04290
 14.7        31.80     0.99200    0.00707
 14.7        32.79     0.99600    0.00765
 14.7        33.78     1.00000    0.00793
 14.7        34.77     1.01000    0.00863
 14.7        35.76     0.99000    0.00903
 14.7        36.75     1.02000    0.00966
 14.7        37.73     0.99700    0.00992
 14.7        38.72     0.99000    0.01070
 14.7        39.70     0.96400    0.01090
 14.7        40.67     0.97100    0.01160
 14.7        41.65     0.98400    0.01250
 14.7        42.62     0.95100    0.01280
 14.7        42.76     1.00000    0.01280
 14.7        43.74     0.99900    0.01350
 14.7        44.71     0.97200    0.01380
 14.7        45.68     0.97900    0.01440
 14.7        46.65     0.94300    0.01460
 14.7        47.62     0.96900    0.01520
 14.7        48.59     0.96400    0.01600
 14.7        49.55     0.94300    0.01650
 14.7        50.52     0.95100    0.01700
 14.7        51.48     0.95200    0.01740
 14.7        52.43     0.95600    0.01880
 14.7        53.39     0.93900    0.01920
 14.7        54.34     0.97600    0.02050
 14.7        55.29     0.94600    0.02080
 14.7        55.76     0.99200    0.00990
 14.7        56.23     0.99200    0.02230
 14.7        57.22     1.01000    0.01060
 14.7        58.69     1.02000    0.01120
 14.7        58.69     1.05000    0.01340
 14.7        60.16     1.05000    0.01180
 14.7        61.40     1.03000    0.01430
 14.7        61.62     1.05000    0.01210
 14.7        63.05     1.11000    0.02180
 14.7        63.08     1.09000    0.01300
 14.7        64.53     1.08000    0.01350
 14.7        65.88     1.13000    0.02290
 14.7        65.98     1.07000    0.01410
 14.7        66.95     1.02000    0.01570
 14.7        67.42     1.08000    0.01470
 14.7        68.79     0.97700    0.02180
 14.7        68.90     1.09000    0.01600
 14.7        69.90     1.07000    0.01630
 14.7        70.32     1.08000    0.01670
 14.7        71.73     1.01000    0.01710
 14.7        72.94     1.01000    0.01640
 14.7        73.13     1.04000    0.01770
 14.7        74.47     1.01000    0.01820
 14.7        74.58     1.04000    0.01770
 14.7        74.82     0.95400    0.02390
 14.7        75.84     0.96000    0.01870
 14.7        75.98     1.03000    0.01850
 14.7        77.37     1.03000    0.01930
 14.7        78.09     1.01000    0.02520
 14.7        78.75     1.01000    0.02000
 14.7        80.13     0.98400    0.02030
 14.7        80.38     0.95600    0.01620
 14.7        81.49     0.96300    0.02090
 14.7        81.54     0.95600    0.02490
 14.7        82.84     0.88100    0.02050
 14.7        83.98     0.90900    0.01620
 14.7        84.19     0.88000    0.02170
 14.7        85.51     0.80500    0.02160
 14.7        86.83     0.84600    0.02320
 14.7        87.71     0.81300    0.02230
 14.7        87.88     0.66300    0.01370
 14.7        88.13     0.72100    0.02280
 14.7        89.00     0.77800    0.02240
 14.7        89.31     0.75600    0.00924
 14.7        90.28     0.70600    0.02250
 14.7        91.56     0.68800    0.02190
 14.7        92.84     0.62400    0.02150
 14.7        94.11     0.67300    0.02260
 14.7        96.00     0.59443    0.00764
 14.7        97.07     0.52300    0.01160
 14.7        99.23     0.50700    0.00738
 14.7       110.00     0.44008    0.00723
 14.7       122.00     0.31443    0.00608
 14.7       136.96     0.26500    0.01760
 14.7       137.86     0.20400    0.02310
 14.7       139.20     0.21400    0.02520
 14.7       140.00     0.20000    0.02000
 14.7       141.40     0.22400    0.02240
 14.7       141.84     0.23600    0.02620
 14.7       142.70     0.19200    0.01920
 14.7       143.18     0.21100    0.02370
 14.7       144.52     0.19900    0.02340
 14.7       145.20     0.17500    0.02060
 14.7       145.30     0.19100    0.01910
 14.7       146.60     0.19300    0.01930
 14.7       148.00     0.17500    0.01750
 14.7       148.80     0.15200    0.02370
 14.7       150.20     0.19100    0.03430
 14.7       150.60     0.14800    0.02140
 14.7       151.50     0.18900    0.03550
 14.7       151.90     0.17100    0.02390
 14.7       153.20     0.16600    0.02240
 14.7       154.10     0.18100    0.02940
 14.7       155.40     0.13100    0.02390
 14.7       156.80     0.17600    0.02180
 14.7       157.20     0.15700    0.03190
 14.7       158.60     0.16300    0.03710
 14.7       159.90     0.12600    0.03300
 14.7       160.20     0.13500    0.03970
 14.7       161.60     0.13200    0.04110
 14.7       162.50     0.15100    0.03380
 14.7       162.90     0.19900    0.05370
 14.7       163.80     0.22000    0.04120
 14.7       165.20     0.11100    0.02750
 14.7       165.60     0.17000    0.05500
 14.7       166.90     0.09200    0.03850
 14.7       168.20     0.19600    0.04920
 16.08       17.07     0.98700    0.03800
 16.08       19.20     0.96100    0.05500
 16.08       19.44     1.05000    0.03900
 16.08       20.00     0.95300    0.04200
 16.08       21.82     1.07000    0.03200
 16.08       24.20     0.98300    0.03400
 16.08       26.61     0.99900    0.02800
 16.08       29.02     1.03000    0.04400
 16.08       31.45     1.06000    0.02880
 16.08       33.90     1.01000    0.05010
 16.08       34.18     1.01000    0.00767
 16.08       36.55     0.97300    0.00753
 16.08       38.04     1.02000    0.00706
 16.08       38.94     0.99700    0.00797
 16.08       40.44     0.94100    0.00668
 16.08       42.87     0.98800    0.00730
 16.08       48.48     1.09000    0.00842
 16.08       49.00     1.12000    0.01090
 16.08       49.11     1.08000    0.03620
 16.08       51.01     1.16000    0.00914
 16.08       51.54     1.17000    0.01160
 16.08       51.57     1.12000    0.02880
 16.08       53.57     1.16000    0.00970
 16.08       54.07     1.10000    0.05380
 16.08       54.12     1.19000    0.01260
 16.08       54.23     1.19000    0.00728
 16.08       56.86     1.22000    0.00769
 16.08       59.53     1.18000    0.00814
 16.08       64.48     0.99400    0.01520
 16.08       65.88     0.96700    0.00826
 16.08       67.34     0.93800    0.01490
 16.08       67.34     0.95100    0.01220
 16.08       70.30     0.83900    0.01460
 16.08       70.30     0.87500    0.01230
 16.08       71.79     0.82600    0.00807
 16.08       72.07     0.83400    0.00844
 16.08       75.21     0.76200    0.00807
 16.08       77.10     0.72900    0.01020
 16.08       80.49     0.57200    0.00903
 16.08       80.90     0.57600    0.0075
 16.08       90.66     0.38100    0.00534
 16.08       91.06     0.38700    0.00590
 16.08      101.87     0.22800    0.00418
 16.08      102.62     0.23100    0.00329
 16.08      124.88     0.12800    0.01180
 16.08      126.22     0.13200    0.01190
 16.08      127.56     0.11700    0.01130
 16.08      127.78     0.10700    0.00643
 16.08      129.12     0.10600    0.00630
 16.08      130.46     0.10500    0.00640
 16.08      130.60     0.10600    0.00821
 16.08      131.94     0.09710    0.00765
 16.08      133.28     0.07650    0.00699
 16.08      133.40     0.07390    0.00635
 16.08      134.08     0.07580    0.00658
 16.08      134.74     0.07430    0.00627
 16.08      135.42     0.07420    0.00635
 16.08      136.76     0.06750    0.00624
 16.08      137.70     0.06960    0.00695
 16.08      140.50     0.07770    0.00724
 16.08      141.16     0.08110    0.01760
 16.08      143.18     0.07890    0.00723
 16.08      143.40     0.09710    0.00796
 16.08      144.74     0.08510    0.00716
 16.08      146.24     0.08650    0.00801
 16.08      147.58     0.08390    0.00758
 16.08      148.92     0.07280    0.00725
 16.08      148.98     0.07250    0.01060
 16.08      149.00     0.07070    0.01080
 16.08      149.26     0.08660    0.00970
 16.08      150.30     0.08880    0.01130
 16.08      150.32     0.07980    0.01070
 16.08      150.60     0.06870    0.00835
 16.08      151.60     0.06420    0.00991
 16.08      151.66     0.06520    0.00985
 16.08      151.94     0.06980    0.00861
 16.08      154.98     0.07100    0.00942
 16.08      156.32     0.06670    0.00870
 16.08      157.16     0.09210    0.01230
 16.08      157.66     0.06630    0.00903
 16.08      158.50     0.05670    0.00921
 16.08      159.84     0.04330    0.00833
 16.08      160.00     0.06610    0.02110
 16.08      161.40     0.06210    0.01690
 16.08      162.70     0.05200    0.01850
 16.08      162.80     0.03100    0.01790
 16.08      164.20     0.01940    0.01070
 16.08      165.55     0.03360    0.01680
 16.08      167.00     0.06020    0.03060
 16.08      168.40     0.04790    0.02770
 16.08      168.60     0.10500    0.07420
 16.08      169.90     0.09790    0.06930
 16.08      171.20     0.05110    0.05000
 18.9        22.60     1.02800    0.04000
 18.9        24.40     0.96500    0.04000
 18.9        26.00     0.96400    0.04000
 18.9        27.80     0.90900    0.04000
 18.9        29.45     0.92800    0.04000
 18.9        31.30     0.95700    0.04000
 18.9        32.95     1.06800    0.04000
 18.9        33.20     1.04400    0.04000
 18.9        34.61     1.05400    0.04000
 18.9        35.08     1.11000    0.02640
 18.9        36.37     1.11800    0.04000
 18.9        36.73     1.14000    0.04000
 18.9        38.15     1.13700    0.04000
 18.9        38.62     1.18000    0.02770
 18.9        40.30     1.14700    0.04000
 18.9        42.20     1.18000    0.02860
 18.9        43.93     1.13700    0.04000
 18.9        44.32     1.18000    0.02920
 18.9        45.85     1.10000    0.02648
 18.9        47.62     1.00700    0.04000
 18.9        48.00     1.04000    0.02590
 18.9        49.56     0.96100    0.02309
 18.9        51.76     0.93500    0.02340
 18.9        53.99     0.82600    0.01810
 18.9        55.61     0.78600    0.01990
 18.9        57.90     0.64900    0.01440
 18.9        59.57     0.60000    0.01540
 18.9        61.93     0.51300    0.01180
 18.9        64.34     0.47060    0.01572
 18.9        66.11     0.42700    0.01010
 18.9        68.63     0.37400    0.01258
 18.9        70.48     0.33300    0.00816
 18.9        73.13     0.27770    0.00951
 18.9        75.88     0.22500    0.00825
 18.9        77.92     0.20820    0.00731
 18.9        80.88     0.16630    0.00626
 18.9        83.11     0.15700    0.00565
 18.9        86.39     0.12780    0.00509
 18.9        90.02     0.09957    0.00365
 18.9        92.74     0.08392    0.00363
 18.9        94.66     0.06005    0.00579
 18.9        96.65     0.07070    0.00673
 18.9        97.21     0.05830    0.00224
 18.9        98.64     0.06167    0.00586
 18.9        99.88     0.04701    0.00446
 18.9       100.63     0.05660    0.00546
 18.9       100.88     0.04742    0.00227
 18.9       101.87     0.04569    0.00447
 18.9       102.62     0.04706    0.00510
 18.9       103.86     0.04799    0.00457
 18.9       105.02     0.04190    0.00374
 18.9       105.85     0.04310    0.00407
 18.9       107.01     0.04479    0.00400
 18.9       107.85     0.03910    0.00417
 18.9       109.00     0.04304    0.00386
 18.9       110.26     0.03870    0.00372
 18.9       111.00     0.04150    0.00377
 18.9       112.26     0.03234    0.00346
 18.9       112.99     0.03100    0.00334
 18.9       114.25     0.02897    0.00318
 18.9       115.35     0.02902    0.00285
 18.9       116.24     0.02247    0.00272
 18.9       117.34     0.02221    0.00254
 18.9       118.23     0.01925    0.00267
 18.9       119.33     0.02195    0.00251
 18.9       120.49     0.01126    0.00163
 18.9       121.32     0.01333    0.00186
 18.9       122.48     0.01537    0.00200
 18.9       123.31     0.01684    0.00222
 18.9       124.47     0.01732    0.00212
 18.9       125.63     0.01731    0.00214
 18.9       126.46     0.02427    0.00253
 18.9       127.62     0.02776    0.00287
 18.9       128.46     0.02534    0.00272
 18.9       129.61     0.02700    0.00282
 18.9       130.79     0.02847    0.00420
 18.9       131.61     0.03238    0.00302
 18.9       132.79     0.03048    0.00445
 18.9       133.60     0.02622    0.00284
 18.9       134.78     0.02471    0.00396
 18.9       135.94     0.01881    0.00274
 18.9       136.77     0.02514    0.00385
 18.9       137.93     0.01114    0.00214
 18.9       138.76     0.01010    0.00255
 18.9       139.92     0.00578    0.00151
 18.9       141.08     0.00713    0.00189
 18.9       141.91     0.00401    0.00122
 18.9       143.07     0.00250    0.00115
 18.9       143.90     0.00370    0.00124
 18.9       145.06     0.00288    0.00129
 18.9       146.22     0.00381    0.00220
 18.9       147.05     0.00303    0.00128
 18.9       148.21     0.00246    0.00136
 18.9       149.05     0.00735    0.00199
 18.9       150.20     0.00940    0.00263
 18.9       151.36     0.00782    0.00277
 18.9       152.20     0.00713    0.00220
 18.9       152.40     0.01560    0.00703
 18.9       153.35     0.01420    0.00388
 18.9       154.19     0.01140    0.00295
 18.9       154.40     0.01340    0.00672
 18.9       155.35     0.01790    0.00427
 18.9       156.40     0.01260    0.00637
 18.9       157.34     0.02060    0.00444
 18.9       157.50     0.04090    0.01840
 18.9       158.40     0.02690    0.00910
 18.9       159.33     0.02120    0.00477
 18.9       160.40     0.02680    0.00960
 18.9       161.50     0.01640    0.01170
 18.9       163.50     0.03110    0.01560
 18.9       165.40     0.01740    0.01230
 20.97       14.71     0.95800    0.04360
 20.97       17.07     1.03000    0.04070
 20.97       19.20     0.99100    0.05690
 20.97       19.44     1.05000    0.04330
 20.97       21.82     1.01000    0.03520
 20.97       23.86     0.94400    0.05120
 20.97       24.55     1.01000    0.04050
 20.97       26.26     0.95000    0.03180
 20.97       29.28     1.10000    0.03370
 20.97       31.80     1.13000    0.03430
 20.97       34.16     1.20000    0.03550
 20.97       36.73     1.14000    0.03310
 20.97       39.22     1.10000    0.05570
 20.97       39.35     1.08000    0.00364
 20.97       41.74     0.92500    0.02390
 20.97       43.75     0.86900    0.01010
 20.97       44.29     0.86200    0.04220
 20.97       46.21     0.75300    0.00889
 20.97       48.70     0.63600    0.00780
 20.97       49.12     0.60900    0.00573
 20.97       51.65     0.50600    0.00493
 20.97       54.23     0.43300    0.00445
 20.97       54.46     0.42300    0.00666
 20.97       55.24     0.41900    0.01480
 20.97       57.09     0.36000    0.00594
 20.97       58.00     0.36800    0.01030
 20.97       59.77     0.28100    0.00509
 20.97       60.18     0.27300    0.00246
 20.97       60.62     0.28200    0.14200
 20.97       62.93     0.21500    0.00211
 20.97       65.71     0.18700    0.00283
 20.97       65.75     0.18600    0.00201
 20.97       65.84     0.19200    0.00236
 20.97       68.61     0.16200    0.00262
 20.97       68.74     0.16900    0.00223
 20.97       71.61     0.11000    0.00214
 20.97       71.75     0.12600    0.00195
 20.97       77.89     0.06050    0.00160
 20.97       81.33     0.06020    0.00166
 20.97       83.21     0.04180    0.00175
 20.97       85.00     0.05260    0.00161
 20.97       87.04     0.04270    0.00177
 20.97       89.31     0.02920    0.00134
 20.97       91.26     0.02210    0.00132
 20.97       93.83     0.01840    0.00107
 20.97       96.42     0.01750    0.00112
 20.97       99.23     0.01240    0.00089
 20.97      101.97     0.01150    0.00090
 20.97      102.62     0.01440    0.00093
 20.97      107.23     0.01590    0.00096
 20.97      114.66     0.00969    0.00218
 20.97      116.00     0.01400    0.00266
 20.97      117.34     0.01150    0.00252
 20.97      119.98     0.00519    0.00173
 20.97      121.32     0.00746    0.00200
 20.97      121.76     0.00497    0.00188
 20.97      122.66     0.00333    0.00136
 20.97      123.10     0.00501    0.00190
 20.97      123.80     0.00338    0.00152
 20.97      124.44     0.00538    0.00204
 20.97      125.14     0.00634    0.00212
 20.97      125.82     0.00452    0.00171
 20.97      126.46     0.00666    0.00223
 20.97      127.12     0.00484    0.00159
 20.97      127.90     0.00724    0.00242
 20.97      128.42     0.00619    0.00219
 20.97      128.50     0.00698    0.00221
 20.97      129.12     0.00400    0.00179
 20.97      129.24     0.00321    0.00161
 20.97      129.76     0.00762    0.00254
 20.97      130.46     0.00441    0.00180
 20.97      131.14     0.00589    0.00209
 20.97      131.80     0.00477    0.00195
 20.97      132.48     0.00211    0.00122
 20.97      133.22     0.00182    0.00129
 20.97      133.82     0.00287    0.00144
 20.97      134.56     0.00254    0.00147
 20.97      135.26     0.00117    0.00082
 20.97      135.90     0.00095    0.00047
 20.97      136.60     0.00117    0.00083
 20.97      137.94     0.00121    0.00086
 20.97      140.55     0.00078    0.00046
 20.97      141.89     0.00138    0.00079
 20.97      143.23     0.00136    0.00095
 20.97      144.58     0.00243    0.00092
 20.97      145.70     0.00367    0.00213
 20.97      145.92     0.00768    0.00168
 20.97      146.12     0.00465    0.00269
 20.97      147.00     0.00462    0.00231
 20.97      147.46     0.00447    0.00258
 20.97      148.40     0.01090    0.00367
 20.97      148.80     0.01570    0.00498
 20.97      148.92     0.00608    0.00203
 20.97      150.26     0.02160    0.00377
 20.97      151.60     0.01920    0.00364
 20.97      151.82     0.00728    0.00297
 20.97      153.16     0.00927    0.00328
 20.97      154.20     0.00606    0.00204
 20.97      154.50     0.00868    0.00328
 20.97      155.60     0.00507    0.00180
 20.97      156.95     0.00327    0.00229
 20.97      159.70     0.00289    0.00175
 20.97      161.20     0.01170    0.00674
 20.97      162.60     0.02040    0.00914
 20.97      164.40     0.01930    0.01120
 20.97      165.40     0.01350    0.00955
 20.97      167.00     0.00781    0.00468
 20.97      169.90     0.01250    0.00750
 21.87       19.77     0.95300    0.07640
 21.87       22.05     0.92800    0.08620
 21.87       24.34     1.00000    0.08270
 21.87       24.89     1.02000    0.07930
 21.87       27.29     1.14000    0.10300
 21.87       28.88     1.23000    0.15900
 21.87       29.37     1.23000    0.09840
 21.87       31.21     1.23000    0.15200
 21.87       33.55     1.21000    0.06730
 21.87       34.07     1.16000    0.14900
 21.87       36.37     1.09000    0.13300
 21.87       38.86     0.99200    0.05110
 21.87       45.76     0.60800    0.04710
 21.87       48.36     0.53400    0.04840
 21.87       50.81     0.43400    0.03470
 21.87       56.03     0.32100    0.02130
 21.87       56.18     0.31300    0.00443
 21.87       58.61     0.26400    0.03240
 21.87       58.82     0.24100    0.03610
 21.87       61.24     0.20800    0.01090
 21.87       61.57     0.20300    0.00345
 21.87       61.65     0.19700    0.01600
 21.87       63.18     0.19900    0.00307
 21.87       66.01     0.17000    0.00280
 21.87       67.13     0.15000    0.00295
 21.87       67.13     0.15900    0.02040
 21.87       68.92     0.12300    0.00236
 21.87       70.07     0.11200    0.00247
 21.87       70.21     0.11700    0.01460
 21.87       73.15     0.08170    0.00191
 21.87       74.97     0.08280    0.00201
 21.87       78.24     0.06420    0.00169
 21.87       80.38     0.05780    0.00156
 21.87       81.70     0.05060    0.00153
 21.87       83.98     0.04180    0.00134
 21.87       87.88     0.02970    0.00119
 21.87       89.24     0.03030    0.00111
 21.87       93.83     0.01820    0.00085
 21.87       97.07     0.01250    0.00076
 21.87       99.23     0.01070    0.00066
 21.87      103.51     0.01070    0.00063
 21.87      104.84     0.01370    0.00310
 21.87      106.18     0.01360    0.00316
 21.87      107.23     0.01350    0.00084
 21.87      108.82     0.01220    0.00318
 21.87      110.16     0.01160    0.00301
 21.87      111.50     0.00947    0.00275
 21.87      112.46     0.00314    0.00223
 21.87      113.06     0.00522    0.00214
 21.87      113.80     0.00873    0.00392
 21.87      114.40     0.00456    0.00204
 21.87      115.14     0.00362    0.00257
 21.87      115.74     0.00097    0.00057
 21.87      117.10     0.00164    0.00116
 21.87      117.78     0.00175    0.00100
 21.87      118.41     0.00232    0.00103
 21.87      119.12     0.00503    0.00291
 21.87      119.75     0.00136    0.00081
 21.87      120.44     0.00869    0.00390
 21.87      121.04     0.00419    0.00210
 21.87      121.76     0.00480    0.00182
 21.87      122.42     0.00889    0.00297
 21.87      123.10     0.00782    0.00236
 21.87      123.76     0.01160    0.00336
 21.87      124.44     0.00692    0.00231
 21.87      125.10     0.00492    0.00220
 21.87      125.82     0.00587    0.00157
 21.87      127.08     0.00676    0.00226
 21.87      127.16     0.00863    0.00189
 21.87      128.42     0.00366    0.00164
 21.87      128.50     0.00407    0.00136
 21.87      128.96     0.00145    0.00084
 21.87      129.76     0.00312    0.00156
 21.87      130.30     0.00247    0.00111
 21.87      131.14     0.00190    0.00095
 21.87      131.64     0.00158    0.00092
 21.87      132.48     0.00132    0.00076
 21.87      133.84     0.00046    0.00023
 21.87      135.62     0.00052    0.00026
 21.87      136.46     0.00056    0.00028
 21.87      136.96     0.00054    0.00054
 21.87      137.80     0.00113    0.00080
 21.87      139.14     0.00199    0.00115
 21.87      139.92     0.00163    0.00115
 21.87      141.23     0.00156    0.00090
 21.87      142.60     0.00105    0.00077
 21.87      143.12     0.00468    0.00166
 21.87      144.46     0.00343    0.00153
 21.87      145.20     0.00286    0.00132
 21.87      145.40     0.00240    0.00170
 21.87      146.60     0.00245    0.00115
 21.87      146.70     0.00240    0.00172
 21.87      148.00     0.00529    0.00148
 21.87      150.20     0.00809    0.00333
 21.87      150.70     0.00266    0.00189
 21.87      151.60     0.00941    0.00374
 21.87      152.00     0.00120    0.00121
 21.87      152.90     0.00296    0.00213
 21.87      153.40     0.00250    0.00178
 21.87      155.60     0.00148    0.00089
 21.87      156.90     0.00267    0.00191
 21.87      158.60     0.00334    0.00240
 21.87      159.90     0.00551    0.00324
 21.87      162.50     0.01100    0.00456
 21.87      163.80     0.00824    0.00376
 21.87      165.20     0.01020    0.00427
ENDDATA            602
ENDSUBENT          609
ENDENTRY             2
