ENTRY            A1401   19990323   19990505
SUBENT        A1401001   19990323   19990505
BIB                 10         14
INSTITUTE  (1USACAL)
REFERENCE  (J,PR,91,(4),917,195309)
AUTHOR     (W.D.WARTERS,W.A.FOWLER,C.C.LAURITSEN)
TITLE      The elastic scattering of protons by lithium
FACILITY   (VDG)
SAMPLE     Li-natural (92.5%) on copper backing
DETECTOR   (SCIN)
ANALYSIS   The scattering protons were analysed by 10.5-inch
           variable angle magnetic spectrometer
ERR-ANALYS (ANG2-ERR) The maximum probable error for any solid
           angle
           (ERR-T) The absolute probable error
HISTORY    (19800728C) Compilation produced by Arzamas RFNC-VNIIEF
           (19990220U)CNPD: corrected 4-dig. year and lower cases.
ENDBIB              14
COMMON               3          3
EN-RSL     ANG2-ERR   ERR-T
PER-CENT   PER-CENT   PER-CENT
 0.5        2.0         5.0
ENDCOMMON            3
ENDSUBENT           21
SUBENT        A1401002   19990323   19990505
BIB                  3          4
REACTION   (3-LI-7(P,EL)3-LI-7,,DA,,RTH,EXP)
ERR-ANALYS (EN-ERR) Digitizing error
           (DATA-ERR) Digitizing error
STATUS     (CURVE)  Fig.1,2,3
ENDBIB               4
COMMON               2          3
EN-ERR     DATA-ERR
MEV        NO-DIM
   0.004     0.02
ENDCOMMON            3
DATA                 3        325
EN         ANG-CM     DATA
MEV        ADEG       NO-DIM
     0.3547    70.         1.066
     0.3552    50.         1.13
     0.3584   110.         1.
     0.3586    89.2        1.051
     0.3599   130.         0.9667
     0.364     70.         1.069
     0.3643   143.4        0.9829
     0.3644    50.         1.12
     0.3683    89.2        1.041
     0.3685   110.         0.9804
     0.3695   130.         0.981
     0.3724   160.         1.021
     0.3742    70.         1.046
     0.3746    50.         1.122
     0.3765   160.         1.01
     0.3767   143.4        0.9954
     0.3785    89.2        0.9948
     0.3785   110.         0.9837
     0.3795   130.         0.9728
     0.3807   160.         0.9989
     0.3834    70.         0.999
     0.3844   160.         1.044
     0.3848    50.         1.077
     0.388    110.         0.9867
     0.388    160.         1.011
     0.3882    89.2        0.9481
     0.3887   143.4        0.9275
     0.39     130.         0.9761
     0.3922   160.         1.045
     0.3936    70.         1.026
     0.394     50.         1.09
     0.3942   143.4        0.928
     0.3959   160.         0.9999
     0.3984    50.         1.08
     0.3984    89.2        1.012
     0.3985   110.         0.9901
     0.4003   110.         0.956
     0.4006   143.4        0.9745
     0.4009   160.         1.023
     0.4021   110.         0.9912
     0.4022    50.         1.057
     0.4038    70.         1.004
     0.4041   130.         0.992
     0.4043   143.4        0.9863
     0.4046   160.         1.046
     0.4049   110.         0.9921
     0.4061   143.4        0.975
     0.4062   110.         1.016
     0.4066    50.         1.058
     0.4071    89.2        1.002
     0.4076    70.         1.029
     0.4076   110.         0.9699
     0.4076   110.         0.993
     0.4077   130.         0.9818
     0.4083   160.         1.069
     0.4103   143.4        1.01
     0.4104   110.         0.9477
     0.4105    50.         1.07
     0.4114   130.         0.9602
     0.4115    70.         1.018
     0.4122   110.         0.9945
     0.4124   160.         1.069
     0.4126   143.4        1.021
     0.414    110.         0.9951
     0.4144   143.4        1.079
     0.4149    50.         1.059
     0.4159    70.         1.043
     0.4159   130.         1.018
     0.4161   160.         1.092
     0.4162   143.4        1.16
     0.4167   110.         0.9959
     0.4178    89.2        1.029
     0.4184   160.         1.137
     0.4185   110.         1.02
     0.4187    50.         1.036
     0.419    143.4        1.022
     0.4193    70.         1.032
     0.4194   110.         1.02
     0.4197   160.         1.183
     0.42     130.         1.054
     0.4204   143.4        1.091
     0.4212    70.         1.008
     0.4217   143.4        1.114
     0.4221   110.         1.056
     0.4225   160.         1.183
     0.4226    50.         1.037
     0.4237    70.         1.008
     0.4239   110.         1.091
     0.4241   130.         1.089
     0.4245   143.4        1.16
     0.4248   110.         1.137
     0.4248   160.         1.206
     0.4254   143.4        1.207
     0.4256    70.         1.008
     0.4262   160.         1.251
     0.4265    50.         1.014
     0.4272   143.4        1.161
     0.4277   130.         1.193
     0.428     70.         1.009
     0.428    110.         1.138
     0.428    160.         1.353
     0.428    160.         1.229
     0.4281   143.4        1.368
     0.4285    50.         0.9912
     0.4289   160.         1.455
     0.429     70.         1.058
     0.4294   110.         1.196
     0.4295   130.         1.261
     0.4298   160.         1.501
     0.4303   110.         1.208
     0.4304    50.         1.015
     0.4309   143.4        1.345
     0.4309   143.4        1.391
     0.4311   110.         1.255
     0.4314    50.         0.9683
     0.4314    70.         1.01
     0.4316   160.         1.592
     0.432    110.         1.313
     0.4322    89.2        1.255
     0.4322   130.         1.308
     0.4326   160.         1.66
     0.4327   143.4        1.449
     0.4327   143.4        1.494
     0.4329   110.         1.371
     0.4333    50.         0.9922
     0.4337    89.2        1.292
     0.4338    70.         1.059
     0.4339   130.         1.444
     0.4339   160.         1.807
     0.4342    89.2        1.341
     0.4343   110.         1.418
     0.4344   160.         1.841
     0.4345   143.4        1.598
     0.4347   110.         1.487
     0.4351    89.2        1.403
     0.4353    50.         0.9925
     0.4353    50.         1.004
     0.4354   143.4        1.736
     0.4356   130.         1.627
     0.4358    70.         1.121
     0.4359   143.4        1.644
     0.436    110.         1.557
     0.4362   160.         1.966
     0.4363   143.4        1.862
     0.4367   160.         2.045
     0.437     89.2        1.453
     0.4371   160.         2.136
     0.4372    50.         1.04
     0.4373   110.         1.65
     0.4377    70.         1.159
     0.4378   130.         1.855
     0.4379    89.2        1.576
     0.4382   110.         1.731
     0.4382   130.         1.923
     0.4382   143.4        1.943
     0.4382   143.4        2.081
     0.4386    70.         1.208
     0.4389    89.2        1.65
     0.4389   160.         2.181
     0.4389   160.         2.249
     0.4395   110.         1.836
     0.4395   143.4        2.127
     0.4396    50.         1.087
     0.4398    89.2        1.675
     0.44     130.         1.98
     0.4401    70.         1.27
     0.4404   110.         1.859
     0.4405    70.         1.356
     0.4408    89.2        1.724
     0.4408   160.         2.238
     0.4408   160.         2.181
     0.4409   130.         1.992
     0.4409   143.4        2.127
     0.4417   160.         2.091
     0.4418    89.2        1.7
     0.4418   110.         1.836
     0.4418   110.         1.79
     0.4419   130.         1.947
     0.4419   143.4        2.024
     0.442     50.         1.147
     0.442     70.         1.406
     0.4426   160.         2.034
     0.4426   160.         1.864
     0.4428   110.         1.698
     0.4428   130.         1.913
     0.4429    70.         1.443
     0.4432   143.4        1.967
     0.4435    50.         1.182
     0.4436   160.         1.683
     0.4437    89.2        1.639
     0.4437   110.         1.629
     0.4437   143.4        1.714
     0.4438   130.         1.732
     0.4444    70.         1.468
     0.4444    70.         1.48
     0.4447   110.         1.513
     0.4447   143.4        1.564
     0.4454    50.         1.242
     0.4456   110.         1.444
     0.4456   143.4        1.392
     0.4457   130.         1.494
     0.4458    70.         1.456
     0.4464   160.         1.332
     0.4466   143.4        1.254
     0.4468    50.         1.218
     0.4473    70.         1.407
     0.4475   110.         1.329
     0.4477    89.2        1.357
     0.4477   130.         1.222
     0.4482   160.         1.14
     0.4482   160.         1.117
     0.4483    70.         1.333
     0.4483    70.         1.358
     0.4484   143.4        1.14
     0.4485   110.         1.237
     0.4496   130.         1.12
     0.4498    50.         1.195
     0.4503   110.         1.145
     0.4503   143.4        0.8868
     0.4517    50.         1.184
     0.4519   160.         0.9585
     0.4521   143.4        0.887
     0.4522    70.         1.273
     0.4522   110.         1.019
     0.4533   130.         0.9393
     0.4536    50.         1.184
     0.4542    70.         1.187
     0.4545   110.         0.985
     0.4549   143.4        0.8872
     0.4553   143.4        0.9332
     0.4556   160.         0.8681
     0.4561    50.         1.138
     0.4561    70.         1.188
     0.4563   110.         0.9393
     0.4575    50.         1.161
     0.4575    89.2        1.113
     0.4581    70.         1.188
     0.4584   130.         0.8159
     0.4585    50.         1.15
     0.4586   110.         0.9516
     0.4586   143.4        0.8531
     0.46      70.         1.164
     0.4602   160.         0.8345
     0.4604   143.4        0.6579
     0.4615   130.         0.8169
     0.4619    50.         1.139
     0.462     70.         1.152
     0.462    130.         0.8171
     0.4623   110.         0.895
     0.4627   143.4        0.796
     0.4634    50.         1.092
     0.4639    70.         1.115
     0.4648   160.         0.8461
     0.465    143.4        0.8651
     0.4657   160.         0.8915
     0.4658    70.         1.14
     0.4659   110.         0.8961
     0.4661   130.         0.8184
     0.4669   143.4        0.7618
     0.4672    50.         1.14
     0.4678    70.         1.116
     0.4678    89.2        1.018
     0.4687   143.4        0.7965
     0.4697    70.         1.067
     0.4698   130.         0.7854
     0.47     110.         0.8859
     0.4708   160.         0.9032
     0.471    143.4        0.7277
     0.4711    50.         1.094
     0.4717    70.         1.117
     0.4728   143.4        0.7853
     0.4736    70.         1.093
     0.4737   143.4        0.7969
     0.4742   110.         0.8525
     0.475     50.         1.094
     0.4756    70.         1.069
     0.4759   160.         0.7789
     0.477     89.2        0.9707
     0.477    143.4        0.8087
     0.4775    70.         1.094
     0.4778   110.         0.8421
     0.4788   143.4        0.7514
     0.4794    70.         1.107
     0.4803   130.         0.7319
     0.4805   160.         0.8019
     0.4806   143.4        0.7515
     0.4814    70.         1.095
     0.4814   110.         0.878
     0.4825   143.4        0.7517
     0.4828    50.         1.119
     0.4833    70.         1.12
     0.4843   143.4        0.7289
     0.4851   160.         0.8022
     0.486    110.         0.8332
     0.4862   143.4        0.775
     0.4869   160.         0.757
     0.4876    50.         1.097
     0.4877    70.         1.071
     0.4877    89.2        0.9734
     0.4883   160.         0.8138
     0.4887   110.         0.8341
     0.4889   143.4        0.7752
     0.4891    70.         1.096
     0.4898   143.4        0.8328
     0.4903   130.         0.7351
     0.4906   160.         0.8366
     0.4915    50.         1.097
     0.492     70.         1.085
     0.4924   160.         0.7801
     0.4935    50.         1.098
     0.4935   143.4        0.7756
     0.494     70.         1.073
     0.4942   110.         0.8474
     0.4952   160.         0.7803
     0.4954   143.4        0.7988
     0.4959    70.         1.073
     0.4967   143.4        0.7989
     0.4969    70.         1.123
     0.4969    89.2        1.
     0.497    160.         0.7804
     0.4978   110.         0.837
     0.4989   160.         0.7919
     0.499    143.4        0.7531
     0.4998    70.         1.099
     0.4998   130.         0.7609
ENDDATA            327
ENDSUBENT          340
SUBENT        A1401003   19990323   19990505
BIB                  3          4
REACTION   (3-LI-7(P,EL)3-LI-7,,DA,,,EXP)
ERR-ANALYS (EN-ERR) Digitizing error
           (DATA-ERR) Digitizing error
STATUS     (CURVE) Fig 4,5,6
ENDBIB               4
COMMON               1          3
EN-ERR
MEV
 0.004
ENDCOMMON            3
DATA                 4        295
EN         ANG-CM     DATA       DATA-ERR
MEV        ADEG       MB/SR      MB/SR
     0.5003   143.4       49.04       0.7663
     0.5046    89.2      230.8        0.8319
     0.5086   110.       104.4        0.8319
     0.5094    70.       567.2        1.113
     0.5116   130.        64.57       0.8319
     0.5135    89.2      219.3        0.8319
     0.5158   143.4       46.08       0.7663
     0.5266    89.2      186.9        0.8319
     0.5282   110.        92.36       0.8319
     0.5297    70.       514.1        1.113
     0.5303   143.4       41.04       0.7663
     0.5307   130.        59.26       0.8319
     0.5352    50.      1834.         2.211
     0.5503    70.       482.2        1.113
     0.5503   110.        84.35       0.8319
     0.5521    89.2      168.1        0.8319
     0.5526   130.        51.93       0.8319
     0.5551   143.4       38.07       0.7663
     0.5552    50.      1685.         2.211
     0.5679    70.       429.2        1.113
     0.5693   143.4       34.05       0.7663
     0.571     89.2      165.5        0.8319
     0.5718   130.        46.62       0.8319
     0.5723   110.        76.35       0.8319
     0.5727    50.      1551.         2.211
     0.5881    89.2      152.1        0.8319
     0.5903    50.      1444.         2.211
     0.5911    70.       392.         1.113
     0.5916   143.4       30.05       0.7663
     0.5936   130.        41.99       0.8319
     0.5943   110.        68.34       0.8319
     0.6051    89.2      140.         0.8319
     0.6053   110.        63.66       0.8319
     0.6066    70.       376.         1.113
     0.6107    50.      1359.         2.211
     0.6123   130.        42.08       0.8319
     0.6247   143.4       26.08       0.7663
     0.627    110.        60.39       0.8319
     0.6271    70.       344.         1.113
     0.6288   130.        36.07       0.8319
     0.63      89.2      128.6        0.8319
     0.6309    50.      1236.         2.211
     0.6463   143.4       25.48       0.7663
     0.6478    70.       322.7        1.113
     0.6488   110.        55.76       0.8319
     0.6493    89.2      120.6        0.8319
     0.6513    50.      1156.         2.211
     0.6557   130.        34.17       0.8319
     0.6658    70.       293.4        1.113
     0.6663    89.2      108.5        0.8319
     0.6692    50.      1086.         2.211
     0.671    143.4       22.84       0.7663
     0.6719   130.        32.9        0.8319
     0.6732   110.        51.15       0.8319
     0.6828    89.2      102.5        0.8319
     0.6865    70.       274.7        1.113
     0.6881   130.        30.95       0.8319
     0.6898    50.      1016.         2.211
     0.6924   110.        45.15       0.8319
     0.6954   143.4       21.56       0.7663
     0.7046    70.       253.3        1.113
     0.7078    89.2       90.5        0.8319
     0.7086   110.        43.2        0.8319
     0.7096   130.        29.69       0.8319
     0.7103    50.       957.2        2.211
     0.7254    70.       237.2        1.113
     0.7266    89.2       89.23       0.8319
     0.7279   143.4       20.31       0.7663
     0.7283    50.       898.3        2.211
     0.7301   110.        41.95       0.8319
     0.7311   130.        28.44       0.8319
     0.7487    70.       215.8        1.113
     0.7487    89.2       79.88       0.8319
     0.7489   110.        42.04       0.8319
     0.7499   130.        28.53       0.8319
     0.7514    50.       823.2        2.211
     0.7551   143.4       19.04       0.7663
     0.7617    70.       205.1        1.113
     0.7648    89.2       79.95       0.8319
     0.7678   110.        39.43       0.8319
     0.7688   130.        25.92       0.8319
     0.7694    50.       769.5        2.211
     0.771    143.4       19.77       0.7663
     0.7825    70.       194.3        1.113
     0.7838   110.        40.85       0.8319
     0.7839    89.2       74.64       0.8319
     0.7848    50.       715.9        2.211
     0.7901   130.        27.37       0.8319
     0.7924   143.4       20.52       0.7663
     0.803     89.2       70.67       0.8319
     0.8055    50.       683.5        2.211
     0.806     70.       188.7        1.113
     0.8087   143.4       19.89       0.7663
     0.8106   110.        39.63       0.8319
     0.8142   130.        27.48       0.8319
     0.8241    70.       167.4        1.113
     0.8265   110.        42.41       0.8319
     0.8275   130.        28.9        0.8319
     0.8288    50.       640.3        2.211
     0.8297   143.4       21.99       0.7663
     0.8298    89.2       70.8        0.8319
     0.8364    50.       586.9        2.211
     0.845     70.       161.8        1.113
     0.8463    89.2       64.12       0.8319
     0.8477   143.4       26.12       0.7663
     0.8479   110.        42.51       0.8319
     0.8487   130.        31.7        0.8319
     0.8606    70.       151.1        1.113
     0.8624    50.       559.6        2.211
     0.8673    89.2       69.62       0.8319
     0.8707   130.        23.69       0.8319
     0.8713   143.4       28.91       0.7663
     0.8763    70.       150.9        1.113
     0.8802   130.        39.96       0.8319
     0.883     50.       500.6        2.211
     0.8866   143.4       33.36       0.7663
     0.8887    89.2       70.4        0.8319
     0.8903   110.        48.11       0.8319
     0.8984    50.       457.6        2.211
     0.8987   130.        43.42       0.8319
     0.9004   110.        56.94       0.8319
     0.9044    89.2       75.88       0.8319
     0.905     70.       142.6        1.113
     0.9064   130.        48.19       0.8319
     0.912    143.4       40.57       0.7663
     0.9195   130.        52.3        0.8319
     0.9235    70.       152.9        1.113
     0.9249    89.2       87.46       0.8319
     0.9264   110.        67.87       0.8319
     0.9265   143.4       48.75       0.7663
     0.927    130.        59.09       0.8319
     0.9272    50.       456.8        2.211
     0.9402    50.       440.5        2.211
     0.9425   130.        66.6        0.8319
     0.9445    70.       160.5        1.113
     0.9471   110.        76.75       0.8319
     0.9476   130.        70.68       0.8319
     0.9479   143.4       62.72       0.7663
     0.9483    89.2       97.03       0.8319
     0.9578   130.        78.16       0.8319
     0.9605    70.       178.8        1.113
     0.9606    89.2      112.6        0.8319
     0.9643   143.4       74.64       0.7663
     0.9664    50.       434.5        2.211
     0.968    130.        84.96       0.8319
     0.9702   110.        90.38       0.8319
     0.9726   110.        95.12       0.8319
     0.9796    50.       444.8        2.211
     0.9811    89.2      124.9        0.8319
     0.9811   130.        89.08       0.8319
     0.9816    70.       191.7        1.113
     0.9818    70.       199.6        1.113
     0.9823    50.       466.         2.211
     0.9828   110.       101.9        0.8319
     0.9836   143.4       85.56       0.7663
     0.9928    50.       465.7        2.211
     0.9939   130.        95.89       0.8319
     0.9986   110.       105.4        0.8319
     0.9989   130.       100.7        0.8319
     1.002     89.2      129.7        0.8319
     1.005     70.       212.5        1.113
     1.007    143.4       91.06       0.7663
     1.008     89.2      128.4        0.8319
     1.009     50.       475.9        2.211
     1.009    110.       104.1        0.8319
     1.012    130.       101.4        0.8319
     1.013     70.       212.4        1.113
     1.014     50.       475.8        2.211
     1.019     89.2      124.4        0.8319
     1.02     110.       100.1        0.8319
     1.021    130.        96.02       0.8319
     1.024     89.2      121.7        0.8319
     1.026     70.       201.7        1.113
     1.026    130.        93.34       0.8319
     1.026    143.4       89.42       0.7663
     1.027     50.       475.4        2.211
     1.031    110.        97.42       0.8319
     1.034     70.       206.8        1.113
     1.035     50.       485.9        2.211
     1.035     89.2      115.7        0.8319
     1.037    110.        93.39       0.8319
     1.039     70.       201.5        1.113
     1.043    130.        89.36       0.8319
     1.044    143.4       80.66       0.7663
     1.046     89.2      111.         0.8319
     1.051     50.       496.1        2.211
     1.051    110.        88.05       0.8319
     1.052     70.       190.8        1.113
     1.054    130.        84.01       0.8319
     1.058     50.       474.6        2.211
     1.059    130.        78.63       0.8319
     1.064     89.2       96.22       0.8319
     1.065     70.       185.3        1.113
     1.066     50.       463.7        2.211
     1.067    143.4       70.9        0.7663
     1.068    110.        77.32       0.8319
     1.071     70.       174.7        1.113
     1.077     50.       458.1        2.211
     1.081     70.       169.3        1.113
     1.082    130.        70.63       0.8319
     1.085    143.4       64.18       0.7663
     1.086     89.2       85.51       0.8319
     1.087     50.       431.3        2.211
     1.087    110.        66.6        0.8319
     1.097     50.       409.7        2.211
     1.102     70.       147.9        1.113
     1.104    110.        57.22       0.8319
     1.108     50.       414.8        2.211
     1.108     89.2       73.46       0.8319
     1.113    143.4       58.84       0.7663
     1.114    130.        61.32       0.8319
     1.117     70.       137.2        1.113
     1.118     50.       409.1        2.211
     1.125     89.2       65.43       0.8319
     1.129     50.       387.6        2.211
     1.132    110.        41.14       0.8319
     1.135    143.4       54.17       0.7663
     1.136    130.        56.02       0.8319
     1.139     50.       376.7        2.211
     1.143     70.       126.3        1.113
     1.147     50.       365.8        2.211
     1.147     89.2       59.45       0.8319
     1.147    110.        47.97       0.8319
     1.152    143.4       49.13       0.7663
     1.153    130.        49.34       0.8319
     1.155     50.       349.7        2.211
     1.159     70.       115.5        1.113
     1.165     50.       349.4        2.211
     1.168     89.2       54.82       0.8319
     1.169    110.        44.01       0.8319
     1.174    130.        48.09       0.8319
     1.174    143.4       48.19       0.7663
     1.175     50.       322.5        2.211
     1.18      70.       110.         1.113
     1.183     50.       317.         2.211
     1.19      89.2       50.87       0.8319
     1.19     130.        46.14       0.8319
     1.191    110.        41.41       0.8319
     1.191    143.4       44.85       0.7663
     1.202     50.       305.9        2.211
     1.203     70.        93.85       1.113
     1.206     89.2       48.24       0.8319
     1.212    130.        42.87       0.8319
     1.212    143.4       45.59       0.7663
     1.218    110.        40.19       0.8319
     1.222     50.       289.4        2.211
     1.222     70.        93.61       1.113
     1.225     89.2       46.98       0.8319
     1.231    110.        36.2        0.8319
     1.234    143.4       42.95       0.7663
     1.236    130.        42.98       0.8319
     1.237     70.        93.4        1.113
     1.246     50.       278.1        2.211
     1.249     89.2       45.74       0.8319
     1.25     110.        36.96       0.8319
     1.255    130.        41.72       0.8319
     1.255    143.4       43.02       0.7663
     1.261     70.        82.55       1.113
     1.267     50.       250.9        2.211
     1.271     89.2       44.49       0.8319
     1.271    110.        37.06       0.8319
     1.271    143.4       43.75       0.7663
     1.279     70.        84.95       1.113
     1.282    130.        40.49       0.8319
     1.285     50.       234.5        2.211
     1.29      89.2       43.23       0.8319
     1.293    110.        36.49       0.8319
     1.293    143.4       41.78       0.7663
     1.295     70.        79.47       1.113
     1.295    130.        41.23       0.8319
     1.306     50.       218.         2.211
     1.309    143.4       42.51       0.7663
     1.314     89.2       42.67       0.8319
     1.314    110.        36.59       0.8319
     1.317    130.        41.33       0.8319
     1.321     70.        76.49       1.113
     1.327     50.       212.1        2.211
     1.33      89.2       42.07       0.8319
     1.33     110.        37.34       0.8319
     1.331    143.4       42.58       0.7663
     1.342     50.       190.4        2.211
     1.342     70.        76.22       1.113
     1.351    130.        42.17       0.8319
     1.355    143.4       41.98       0.7663
     1.357    110.        38.14       0.8319
     1.358     50.       168.7        2.211
     1.358     70.        76.01       1.113
     1.367     89.2       43.59       0.8319
     1.374    143.4       42.38       0.7663
     1.378    110.        38.92       0.8319
     1.378    130.        42.29       0.8319
     1.379     50.       184.1        2.211
     1.379     70.        78.38       1.113
     1.392    110.        39.65       0.8319
     1.395    143.4       42.45       0.7663
ENDDATA            297
ENDSUBENT          310
SUBENT        A1401004   19990323   19990505
BIB                  2          2
REACTION   (3-LI-7(P,EL)3-LI-7,,DA,,,EXP)
STATUS     (TABLE) Tabl.1
ENDBIB               2
COMMON               1          3
ANG
ADEG
 160.0
ENDCOMMON            3
DATA                 2        107
EN         DATA
MEV        MB/SR
     0.373    116.
     0.377    112.
     0.381    112.
     0.385    111.
     0.389    107.
     0.393    107.
     0.397    101.
     0.401    102.
     0.405    101.
     0.409    101.
     0.413     99.
     0.417    103.
     0.419    103.
     0.421    108.
     0.423    104.
     0.425    107.
     0.427    110.
     0.429    120.
     0.431    126.
     0.433    139.
     0.435    154.
     0.437    171.
     0.438    178.
     0.439    183.
     0.44     188.
     0.441    183.
     0.442    174.
     0.443    160.
     0.445    138.
     0.447    107.
     0.449     90.
     0.451     79.
     0.453     73.
     0.456     68.
     0.461     61.
     0.466     62.
     0.471     63.
     0.476     54.
     0.481     56.
     0.485     53.
     0.487     50.
     0.489     53.
     0.491     54.
     0.493     50.
     0.495     50.
     0.497     50.
     0.499     50.
     0.501     49.
     0.503     49.
     0.519     44.
     0.539     40.
     0.559     36.
     0.579     33.
     0.599     30.
     0.619     29.
     0.639     24.
     0.659     22.3
     0.679     22.4
     0.699     20.5
     0.719     21.
     0.739     19.5
     0.759     19.7
     0.779     18.9
     0.799     21.8
     0.809     22.2
     0.819     22.1
     0.829     22.6
     0.839     25.
     0.849     25.
     0.858     27.
     0.868     30.
     0.878     31.
     0.888     34.
     0.898     38.
     0.908     41.
     0.918     44.
     0.928     49.
     0.938     56.
     0.948     64.
     0.958     69.
     0.968     75.
     0.978     83.
     0.988     92.
     0.998     97.
     1.008    100.
     1.018    104.
     1.028    104.
     1.038    103.
     1.048     99.
     1.058     94.
     1.078     85.
     1.098     76.
     1.118     70.
     1.138     65.
     1.158     60.
     1.178     58.
     1.198     55.
     1.218     52.
     1.238     51.
     1.258     50.
     1.278     49.
     1.298     50.
     1.318     49.
     1.338     48.
     1.358     47.
     1.378     48.
     1.398     47.
ENDDATA            109
ENDSUBENT          120
SUBENT        A1401005   19990323   19990505
BIB                  3          9
REACTION   (3-LI-7(P,EL)3-LI-7,,DA,,,EXP)
COMMENT    MAxime of the observed differential cross section and
           the ratio to Rutherford cross section near the 441- and
           1030-keV anomalies at various center-of-mass angles.
           These values have been corrected for the effects of
           resolution in the apparatus. Note that the 1030-keV
           anomaly appears to be spherically symmetric at the
           angles greater than 100 degrees.
STATUS     (TABLE) Tabl.2
ENDBIB               9
NOCOMMON
DATA                 3         14
EN         ANG-CM     DATA
MEV        ADEG       B/SR
     0.441     50.         2.97
     0.441     70.         1.04
     0.441     89.2        0.549
     0.441    110.         0.328
     0.441    130.         0.233
     0.441    143.4        0.207
     0.441    160.         0.19
     1.03      50.         0.49
     1.03      70.         0.204
     1.03      89.2        0.129
     1.03     110.         0.105
     1.03     130.         0.101
     1.03     143.4        0.091
     1.03     160.         0.104
ENDDATA             16
ENDSUBENT           30
SUBENT        A1401006   19990323   19990505
BIB                  3          9
REACTION   (3-LI-7(P,EL)3-LI-7,,DA,,RTH,EXP)
COMMENT    MAxime of the observed differential cross section and
           the ratio to Rutherford cross section near the 441- and
           1030-keV anomalies at various center-of-mass angles.
           These values have been corrected for the effects of
           resolution in the apparatus. Note that the 1030-keV
           anomaly appears to be spherically symmetric at the
           angles greater than 100 degrees.
STATUS     (TABLE) Tabl.2
ENDBIB               9
NOCOMMON
DATA                 3         14
EN         ANG-CM     DATA
MEV        ADEG       NO-DIM
     0.441     50.         1.24
     0.441     70.         1.49
     0.441     89.2        1.49
     0.441    110.         1.88
     0.441    130.         2.
     0.441    143.4        2.16
     0.441    160.         2.28
     1.03      50.         1.14
     1.03      70.         1.53
     1.03      89.2        2.12
     1.03     110.         3.21
     1.03     130.         4.64
     1.03     143.4        5.15
     1.03     160.         6.88
ENDDATA             16
ENDSUBENT           30
ENDENTRY             6
