ENTRY            A1413   19990323   19990505
SUBENT        A1413001   19990323   19990505
BIB                 10         15
INSTITUTE  (1USAORE)
REFERENCE  (J,PR/C,10,(4),1299,197410)
AUTHOR     (C.A.BURKE,M.T.LUNNON,H.W.LEFEVRE)
TITLE      7Li(p,n0)7Be angular distributions to Ep = 3.8 MeV
FACILITY   (VDG)
SAMPLE     7Li(99.9%)
METHOD     (TOF)
DETECTOR   (SCIN) Neutrons were detected through proton and/or
           carbon recoils in a 6.3cm diam.x 1.3cm thick Naton 136
           plastic scint. The neutron detector was mounted on a
           cart which allowed flight paths of up to 3 m and
           angular displacement of 160 degr.
ERR-ANALYS (ERR-T) TOtal error
HISTORY    (19800828C) Compilation produced by Arzamas RFNC-VNIIEF
           (19990220U)CNPD: corrected 4-dig. year and lower cases.
ENDBIB              15
COMMON               1          3
ERR-T
PER-CENT
  5.5
ENDCOMMON            3
ENDSUBENT           22
SUBENT        A1413002   19990323   19990505
BIB                  4         14
REACTION   (3-LI-7(P,N)4-BE-7,PAR,DA,,,EXP)
ERR-ANALYS (EN-ERR) Digitizing error
           (DATA-ERR) Digitizing error
REL-REF    (A,A1479001,LEFEVRE+,J,AUJ,22,(6),669,1969) S.M.AUSTIN
           Private communication (Austin's zero degree data are
           plotted at the ref.)
           (A,,BERGSTROM+,J,AF,34,(14),153,196701)
           (A,A1480001,BEVINGTON+,J,PR,121,(3),871,196102)
           (A,A1514002,BORCHERS+,J,PR,129,(6),2679,196303)
           (A,,,T,PEETERMANS,1970) University of Liege
            (The table of sigma was given in the Liskien's
             paper (J,AND,15,57,1975))
           (A,A1395002,ELBAKR+,J,NIM,105,(3),519,197212)
STATUS     (CURVE) Fig 7 a
ENDBIB              14
COMMON               4          3
E-LVL      EN-ERR     ANG        DATA-ERR
MEV        MEV        ADEG       MB/SR
 0.0        0.005      0.         0.5
ENDCOMMON            3
DATA                 2        109
EN         DATA
MEV        MB/SR
     1.896    142.9
     1.9      107.7
     1.905     92.57
     1.917     83.73
     1.929     72.37
     1.942     66.05
     1.947     59.74
     1.96      57.19
     1.966     52.15
     1.985     48.32
     1.992     45.79
     1.998     43.26
     2.004     39.47
     2.016     35.66
     2.023     34.38
     2.042     31.82
     2.048     30.54
     2.055     30.52
     2.074     29.22
     2.087     30.44
     2.1       31.66
     2.106     34.16
     2.126     36.62
     2.132     40.38
     2.139     46.65
     2.152     52.9
     2.159     59.17
     2.173     66.69
     2.18      74.21
     2.193     85.5
     2.207     98.04
     2.214    111.9
     2.222    123.2
     2.235    135.7
     2.249    145.7
     2.262    152.
     2.276    158.2
     2.276    162.
     2.289    164.5
     2.295    162.
     2.308    158.1
     2.32     154.3
     2.333    151.8
     2.339    143.
     2.351    139.2
     2.358    137.9
     2.364    134.1
     2.383    130.3
     2.389    126.5
     2.395    122.7
     2.408    118.9
     2.42     115.1
     2.426    112.5
     2.439    108.7
     2.445    104.9
     2.458    101.1
     2.47      98.59
     2.483     96.04
     2.483     93.52
     2.496     90.97
     2.508     88.42
     2.514     87.15
     2.521     84.62
     2.533     83.32
     2.546     80.78
     2.559     78.22
     2.565     76.95
     2.584     75.64
     2.597     75.61
     2.61      73.06
     2.629     71.75
     2.641     67.94
     2.667     67.87
     2.693     65.29
     2.718     63.96
     2.744     62.63
     2.776     60.03
     2.795     58.72
     2.814     59.93
     2.84      57.34
     2.866     58.53
     2.904     55.91
     2.93      55.84
     2.962     54.5
     2.994     53.15
     3.026     53.07
     3.058     51.72
     3.103     50.34
     3.128     50.28
     3.16      50.19
     3.192     50.1
     3.237     48.72
     3.269     47.38
     3.314     47.26
     3.346     45.91
     3.385     45.81
     3.43      45.69
     3.474     44.31
     3.52      45.45
     3.545     42.86
     3.59      41.48
     3.616     41.42
     3.654     41.31
     3.686     41.22
     3.705     41.17
     3.737     41.09
     3.77      41.
     3.789     39.69
     3.808     40.9
ENDDATA            111
ENDSUBENT          134
SUBENT        A1413003   19990323   19990505
BIB                  3          4
REACTION   (3-LI-7(P,N)4-BE-7,PAR,DA,,,EXP)
ERR-ANALYS (EN-ERR) Digitizing error
           (DATA-ERR) Digitizing error
STATUS     (CURVE) Fig 8
ENDBIB               4
COMMON               2          3
E-LVL      EN-ERR
MEV        MEV
 0.0        0.01
ENDCOMMON            3
DATA                 4        670
EN         ANG        DATA       DATA-ERR
MEV        ADEG       MB/SR      MB/SR
     1.888     10.       142.6        1.278
     1.91      10.       104.1        1.278
     1.913     30.        90.96       1.358
     1.917     20.        81.22       1.409
     1.923     10.        92.19       1.278
     1.925     30.        76.03       1.358
     1.93      20.        73.78       1.409
     1.935     10.        80.31       1.278
     1.939     30.        70.05       1.358
     1.94      40.        56.93       1.461
     1.943     20.        61.88       1.409
     1.946     50.        41.98       1.365
     1.946     60.        31.03       0.3605
     1.949     10.        72.87       1.278
     1.952     30.        64.07       1.358
     1.957     20.        55.93       1.409
     1.96      50.        41.96       1.365
     1.96      60.        28.76       0.3605
     1.961     10.        59.51       1.278
     1.966     30.        55.11       1.358
     1.968     40.        53.92       1.461
     1.968     70.        25.64       0.3669
     1.971     20.        52.94       1.409
     1.973     80.        20.38       0.3927
     1.974     10.        55.04       1.278
     1.974     50.        38.97       1.365
     1.975     60.        33.25       0.3605
     1.982     40.        47.97       1.461
     1.984     20.        45.5        1.409
     1.986     90.        17.54       0.3664
     1.987     80.        21.13       0.3927
     1.988     10.        49.08       1.278
     1.993     30.        44.63       1.358
     1.996     40.        44.99       1.461
     1.997     70.        27.12       0.3669
     1.998     20.        42.51       1.409
     2.002     10.        46.1        1.278
     2.002     50.        35.95       1.365
     2.003     80.        24.13       0.3927
     2.006    100.        15.92       0.4231
     2.01      40.        42.         1.461
     2.015     10.        41.62       1.278
     2.018     80.        26.37       0.3927
     2.019     60.        33.22       0.3605
     2.02      30.        38.63       1.358
     2.023     40.        37.53       1.461
     2.026     20.        38.01       1.409
     2.027     70.        30.1        0.3669
     2.029     10.        38.63       1.278
     2.03      90.        20.51       0.3664
     2.031     50.        34.42       1.365
     2.031    110.        13.86       0.4231
     2.043     10.        34.16       1.278
     2.047     80.        27.86       0.3927
     2.049    100.        17.4        0.4231
     2.052     40.        36.01       1.461
     2.054     20.        32.04       1.409
     2.056     70.        31.58       0.3669
     2.057     10.        31.17       1.278
     2.057    120.        11.57       0.3931
     2.06      90.        22.74       0.3664
     2.062     60.        33.93       0.3605
     2.064     30.        37.07       1.358
     2.068    130.        10.93       0.3981
     2.074     50.        32.87       1.365
     2.076     80.        29.34       0.3927
     2.076     90.        26.48       0.3664
     2.077     30.        32.58       1.358
     2.079    100.        21.14       0.4231
     2.081     40.        34.49       1.461
     2.086     10.        29.64       1.278
     2.089     50.        35.82       1.365
     2.089    110.        16.83       0.4231
     2.093    140.        11.09       0.4155
     2.097     20.        29.01       1.409
     2.1       70.        32.29       0.3669
     2.1      160.        10.3        0.4889
     2.101    120.        13.79       0.3931
     2.104    110.        19.83       0.4231
     2.105     90.        29.46       0.3664
     2.105    150.        11.35       0.3776
     2.106     30.        34.02       1.358
     2.106     60.        35.39       0.3605
     2.109    100.        24.14       0.4231
     2.11      40.        34.45       1.461
     2.112    130.        13.9        0.3981
     2.115     10.        32.55       1.278
     2.115     70.        33.78       0.3669
     2.118     50.        35.77       1.365
     2.12      80.        31.57       0.3927
     2.122    140.        13.32       0.4155
     2.127     20.        34.9        1.409
     2.129    160.        11.78       0.4889
     2.132     50.        37.24       1.365
     2.135     80.        33.81       0.3927
     2.135    150.        13.57       0.3776
     2.136     30.        36.96       1.358
     2.136     60.        37.62       0.3605
     2.138    100.        27.13       0.4231
     2.141    130.        15.38       0.3981
     2.142     20.        40.82       1.409
     2.145     10.        36.95       1.278
     2.146    120.        17.53       0.3931
     2.147     50.        40.19       1.365
     2.148    110.        22.81       0.4231
     2.151     60.        40.61       0.3605
     2.151    140.        14.8        0.4155
     2.154     40.        38.85       1.461
     2.158     20.        46.73       1.409
     2.158     70.        36.         0.3669
     2.161     10.        45.81       1.278
     2.162     50.        43.13       1.365
     2.164     90.        32.42       0.3664
     2.165     30.        39.89       1.358
     2.165     80.        36.05       0.3927
     2.166     30.        44.36       1.358
     2.166     60.        42.85       0.3605
     2.168    100.        29.37       0.4231
     2.169     40.        44.76       1.461
     2.171    130.        17.6        0.3981
     2.173     20.        52.65       1.409
     2.173    160.        13.26       0.4889
     2.174     70.        38.25       0.3669
     2.175    120.        19.76       0.3931
     2.177     10.        59.12       1.278
     2.178    150.        15.03       0.3776
     2.181     60.        45.09       0.3605
     2.182     30.        56.26       1.358
     2.184     40.        49.19       1.461
     2.188     20.        57.08       1.409
     2.19      20.        74.89       1.409
     2.191     20.        82.31       1.409
     2.192     20.        88.25       1.409
     2.192     50.        52.         1.365
     2.193     10.        66.51       1.278
     2.194     10.        72.43       1.278
     2.194     80.        37.53       0.3927
     2.195    140.        16.27       0.4155
     2.197     30.        62.19       1.358
     2.197     60.        47.33       0.3605
     2.197    100.        30.86       0.4231
     2.198     60.        51.83       0.3605
     2.199     40.        55.11       1.461
     2.199     60.        54.83       0.3605
     2.2       40.        61.04       1.461
     2.2      130.        18.33       0.3981
     2.203     70.        40.48       0.3669
     2.207     50.        54.95       1.365
     2.207    110.        25.02       0.4231
     2.208     50.        60.89       1.365
     2.208     90.        33.89       0.3664
     2.21      10.        82.78       1.278
     2.213     30.        71.11       1.358
     2.214     60.        57.07       0.3605
     2.215     40.        68.44       1.461
     2.216    160.        12.48       0.4889
     2.217     40.        81.79       1.461
     2.218     70.        41.97       0.3669
     2.219    120.        20.49       0.3931
     2.221    110.        25.02       0.4231
     2.221    150.        14.25       0.3776
     2.222     20.       100.1        1.409
     2.222     80.        37.51       0.3927
     2.223     50.        65.33       1.365
     2.223     80.        35.25       0.3927
     2.224     20.       111.9        1.409
     2.224     50.        69.79       1.365
     2.225    100.        28.58       0.4231
     2.229     10.       109.4        1.278
     2.229     60.        59.31       0.3605
     2.23      30.        87.48       1.358
     2.231     10.       122.8        1.278
     2.231     60.        63.81       0.3605
     2.232     40.        89.19       1.461
     2.233     70.        44.21       0.3669
     2.235    150.        11.25       0.3776
     2.236     90.        30.86       0.3664
     2.238    140.        13.99       0.4155
     2.239    100.        26.31       0.4231
     2.245     30.        91.92       1.358
     2.246     60.        66.05       0.3605
     2.247     40.        95.1        1.461
     2.248     10.       134.6        1.278
     2.249     70.        47.21       0.3669
     2.249    110.        21.99       0.4231
     2.249    150.         8.99       0.3776
     2.25      10.       149.4        1.278
     2.252    140.        11.73       0.4155
     2.253    100.        23.28       0.4231
     2.254     20.       120.8        1.409
     2.254     50.        78.65       1.365
     2.256     20.       132.7        1.409
     2.256     20.       134.2        1.409
     2.257    130.        16.04       0.3981
     2.259    160.        10.21       0.4889
     2.261    120.        17.44       0.3931
     2.262     30.       106.8        1.358
     2.262     40.        98.05       1.461
     2.263    110.        19.72       0.4231
     2.264     90.        27.83       0.3664
     2.266     80.        34.47       0.3927
     2.266    140.        10.22       0.4155
     2.269     50.        83.09       1.365
     2.271     20.       140.1        1.409
     2.271    130.        13.78       0.3981
     2.273    160.         7.951      0.4889
     2.276     60.        69.03       0.3605
     2.277     30.       115.7        1.358
     2.277     70.        45.68       0.3669
     2.277     90.        25.56       0.3664
     2.277    150.         7.471      0.3776
     2.278     30.       120.2        1.358
     2.28      10.       155.3        1.278
     2.281    100.        20.25       0.4231
     2.284     50.        83.07       1.365
     2.287    160.         6.442      0.4889
     2.289     60.        66.01       0.3605
     2.289    120.        14.4        0.3931
     2.291     40.        99.49       1.461
     2.292    110.        17.44       0.4231
     2.293     30.       124.6        1.358
     2.294     80.        32.94       0.3927
     2.295     10.       158.2        1.278
     2.297     50.        77.1        1.365
     2.299    130.        12.26       0.3981
     2.299    130.         9.264      0.3981
     2.3       20.       143.         1.409
     2.301    160.         4.183      0.4889
     2.303     60.        64.5        0.3605
     2.303    120.        11.38       0.3931
     2.305     70.        43.4        0.3669
     2.305    110.        14.42       0.4231
     2.305    150.         5.203      0.3776
     2.306     90.        22.53       0.3664
     2.307     80.        29.92       0.3927
     2.309     10.       155.2        1.278
     2.309    100.        17.97       0.4231
     2.309    140.         7.946      0.4155
     2.314     20.       134.1        1.409
     2.317     60.        63.74       0.3605
     2.319     40.        95.01       1.461
     2.319     70.        41.13       0.3669
     2.322     30.       123.1        1.358
     2.323     10.       150.8        1.278
     2.326     50.        74.09       1.365
     2.327    130.         6.995      0.3981
     2.328     20.       131.1        1.409
     2.33      60.        55.47       0.3605
     2.332     70.        38.11       0.3669
     2.333     40.        90.54       1.461
     2.334    150.         4.432      0.3776
     2.336     10.       147.8        1.278
     2.336    140.         4.178      0.4155
     2.337    100.        14.94       0.4231
     2.339     50.        69.61       1.365
     2.341     20.       122.2        1.409
     2.345    120.         8.336      0.3931
     2.347     40.        86.07       1.461
     2.348     90.        20.24       0.3664
     2.348    110.        12.13       0.4231
     2.349     10.       143.3        1.278
     2.349     30.       117.1        1.358
     2.35      10.       138.9        1.278
     2.35      30.       112.6        1.358
     2.35      80.        27.63       0.3927
     2.353     50.        65.13       1.365
     2.355     20.       117.7        1.409
     2.357     60.        53.19       0.3605
     2.359    160.         4.902      0.4889
     2.361     70.        36.58       0.3669
     2.363     10.       135.9        1.278
     2.363     30.       108.1        1.358
     2.366    100.        14.17       0.4231
     2.367     50.        60.65       1.365
     2.37     130.         6.213      0.3981
     2.371     60.        50.93       0.3605
     2.377     10.       132.9        1.278
     2.377     30.       105.1        1.358
     2.383     20.       114.7        1.409
     2.385     60.        48.66       0.3605
     2.388    160.         4.135      0.4889
     2.389    120.         8.303      0.3931
     2.39      40.        81.56       1.461
     2.391     10.       128.4        1.278
     2.391    110.        11.35       0.4231
     2.392    150.         4.386      0.3776
     2.393     80.        26.09       0.3927
     2.395     50.        57.63       1.365
     2.395    140.         6.386      0.4155
     2.397     20.       108.7        1.409
     2.399     60.        47.9        0.3605
     2.403     70.        33.54       0.3669
     2.405     10.       125.4        1.278
     2.405     30.        99.12       1.358
     2.406     90.        19.44       0.3664
     2.407     80.        23.07       0.3927
     2.411     20.       105.8        1.409
     2.413     60.        45.64       0.3605
     2.413    130.         6.931      0.3981
     2.418     10.       120.9        1.278
     2.418     40.        77.07       1.461
     2.419     10.       115.         1.278
     2.419     30.        94.63       1.358
     2.425     20.        99.79       1.409
     2.427     60.        45.62       0.3605
     2.431    160.         4.862      0.4889
     2.432     10.       112.         1.278
     2.432     30.        87.16       1.358
     2.432     70.        32.01       0.3669
     2.434    110.        11.32       0.4231
     2.435    150.         5.1        0.3776
     2.438     20.        95.32       1.409
     2.438     50.        54.6        1.365
     2.438    100.        14.12       0.4231
     2.441     60.        43.36       0.3605
     2.445     10.       106.1        1.278
     2.446     40.        69.62       1.461
     2.446    120.         7.506      0.3931
     2.452     20.        90.85       1.409
     2.453    140.         7.096      0.4155
     2.455     60.        41.85       0.3605
     2.458     10.        98.64       1.278
     2.464     80.        21.52       0.3927
     2.467     50.        51.58       1.365
     2.471    130.         6.888      0.3981
     2.474    160.         4.838      0.4889
     2.475     30.        82.62       1.358
     2.477     90.        17.13       0.3664
     2.479    150.         5.814      0.3776
     2.48      20.        86.35       1.409
     2.483     60.        39.57       0.3605
     2.486     10.        94.15       1.278
     2.489     30.        79.62       1.358
     2.489     40.        65.11       1.461
     2.489     70.        30.46       0.3669
     2.492    110.        10.53       0.4231
     2.494     20.        83.36       1.409
     2.495     50.        48.57       1.365
     2.507     80.        22.24       0.3927
     2.51     100.        14.07       0.4231
     2.511     60.        38.79       0.3605
     2.514     10.        89.65       1.278
     2.517     30.        73.61       1.358
     2.517     40.        59.14       1.461
     2.519    120.         8.957      0.3931
     2.522    150.         5.78       0.3776
     2.525    140.         6.296      0.4155
     2.528     10.        85.18       1.278
     2.529    130.         7.595      0.3981
     2.532     70.        28.92       0.3669
     2.532    160.         5.556      0.4889
     2.535     90.        17.08       0.3664
     2.537     20.        78.85       1.409
     2.54      60.        37.27       0.3605
     2.551     80.        22.2        0.3927
     2.552     50.        44.02       1.365
     2.556     10.        77.72       1.278
     2.559     30.        67.59       1.358
     2.56      40.        56.12       1.461
     2.564    110.        11.23       0.4231
     2.565     20.        72.87       1.409
     2.566     50.        42.51       1.365
     2.568    100.        14.03       0.4231
     2.573    130.         8.313      0.3981
     2.58     150.         6.482      0.3776
     2.583     60.        35.73       0.3605
     2.583    140.         7.005      0.4155
     2.585     10.        77.67       1.278
     2.589     70.        28.12       0.3669
     2.59     160.         6.275      0.4889
     2.591    120.        10.41       0.3931
     2.592     90.        16.28       0.3664
     2.594     80.        22.17       0.3927
     2.603     40.        53.1        1.461
     2.608     20.        66.88       1.409
     2.61      50.        42.45       1.365
     2.612    100.        14.75       0.4231
     2.616     30.        63.03       1.358
     2.616    130.         8.281      0.3981
     2.622    110.        11.95       0.4231
     2.627     10.        73.14       1.278
     2.638    150.         6.436      0.3776
     2.64      60.        34.18       0.3605
     2.647     70.        27.32       0.3669
     2.648    160.         6.243      0.4889
     2.652     80.        22.13       0.3927
     2.655     10.        70.13       1.278
     2.655    140.         7.705      0.4155
     2.658     30.        57.         1.358
     2.665     20.        62.34       1.409
     2.665     90.        17.72       0.3664
     2.667     50.        39.39       1.365
     2.668     60.        31.9        0.3605
     2.674    130.         8.988      0.3981
     2.675     40.        48.55       1.461
     2.678    120.        11.1        0.3931
     2.684    100.        15.45       0.4231
     2.691    160.         6.219      0.4889
     2.694    110.        11.9        0.4231
     2.698     10.        65.61       1.278
     2.702     30.        55.44       1.358
     2.708     20.        57.83       1.409
     2.71      50.        37.83       1.365
     2.71     150.         7.128      0.3776
     2.711     60.        31.11       0.3605
     2.713    140.         7.665      0.4155
     2.717    130.         8.956      0.3981
     2.718     70.        25.76       0.3669
     2.724     80.        20.57       0.3927
     2.73      30.        52.42       1.358
     2.741     10.        64.05       1.278
     2.747     40.        45.49       1.461
     2.749    160.         6.937      0.4889
     2.75     120.        10.29       0.3931
     2.752     90.        18.4        0.3664
     2.753     50.        37.77       1.365
     2.754     60.        30.33       0.3605
     2.767     80.        21.29       0.3927
     2.767    110.        11.85       0.4231
     2.768    150.         7.082      0.3776
     2.771    100.        15.4        0.4231
     2.775    130.         8.164      0.3981
     2.785    140.         7.614      0.4155
     2.794     20.        57.7        1.409
     2.802     30.        50.81       1.358
     2.805     70.        24.93       0.3669
     2.811     50.        37.68       1.365
     2.812     60.        29.52       0.3605
     2.813     10.        62.44       1.278
     2.818    130.         8.881      0.3981
     2.819     40.        43.91       1.461
     2.821    160.         6.897      0.4889
     2.822    120.        10.99       0.3931
     2.824     90.        17.59       0.3664
     2.825     80.        21.24       0.3927
     2.837     20.        54.67       1.409
     2.839    110.        11.8        0.4231
     2.84     150.         6.276      0.3776
     2.842    140.         6.825      0.4155
     2.855     60.        28.74       0.3605
     2.857    100.        14.58       0.4231
     2.874     30.        49.21       1.358
     2.876     40.        40.87       1.461
     2.876    130.         8.839      0.3981
     2.877     70.        24.12       0.3669
     2.879    160.         6.115      0.4889
     2.883     50.        34.6        1.365
     2.896     90.        16.77       0.3664
     2.897     80.        21.19       0.3927
     2.898    150.         6.979      0.3776
     2.899     10.        57.84       1.278
     2.909     20.        53.09       1.409
     2.909    120.        10.92       0.3931
     2.911    110.        11.75       0.4231
     2.912     60.        28.69       0.3605
     2.915    100.        14.54       0.4231
     2.915    140.         8.273      0.4155
     2.937    160.         6.833      0.4889
     2.941     50.        34.51       1.365
     2.946     30.        49.1        1.358
     2.948     40.        43.74       1.461
     2.949     70.        24.06       0.3669
     2.955     80.        20.39       0.3927
     2.956     10.        56.25       1.278
     2.958    140.         8.243      0.4155
     2.963    130.         8.775      0.3981
     2.968     90.        16.72       0.3664
     2.969     80.        19.63       0.3927
     2.969    110.        11.71       0.4231
     2.97      60.        29.39       0.3605
     2.981     20.        51.5        1.409
     2.985    150.         7.659      0.3776
     2.987    100.        15.25       0.4231
     2.995    160.         6.801      0.4889
     2.996    120.        10.1        0.3931
     3.013     50.        34.4        1.365
     3.018     30.        47.49       1.358
     3.02      40.        40.68       1.461
     3.02     130.         8.732      0.3981
     3.021     70.        23.25       0.3669
     3.028     60.        28.59       0.3605
     3.031    140.         8.943      0.4155
     3.039     20.        49.93       1.409
     3.041    110.        11.66       0.4231
     3.056     80.        20.31       0.3927
     3.056    150.         6.105      0.3776
     3.057     10.        54.59       1.278
     3.059    100.        13.69       0.4231
     3.067    160.         6.011      0.4889
     3.069     90.        16.63       0.3664
     3.076     30.        45.91       1.358
     3.078     70.        22.45       0.3669
     3.082    120.        10.04       0.3931
     3.085     50.        32.8        1.365
     3.086     60.        27.79       0.3605
     3.099    110.        11.62       0.4231
     3.103    140.         8.892      0.4155
     3.107     40.        42.05       1.461
     3.107    130.         8.668      0.3981
     3.111     20.        46.86       1.409
     3.112     90.        15.09       0.3664
     3.113     80.        19.52       0.3927
     3.115     10.        53.01       1.278
     3.124    160.         5.979      0.4889
     3.129     60.        27.75       0.3605
     3.131    100.        13.64       0.4231
     3.136     70.        22.4        0.3669
     3.143     50.        32.71       1.365
     3.148     30.        44.31       1.358
     3.15     130.         8.637      0.3981
     3.155    120.        10.73       0.3931
     3.158    150.         6.025      0.3776
     3.168     20.        46.78       1.409
     3.171     80.        18.72       0.3927
     3.171    110.        12.32       0.4231
     3.175    140.         8.093      0.4155
     3.184     90.        15.78       0.3664
     3.189    100.        13.6        0.4231
     3.197    160.         6.689      0.4889
     3.201     60.        26.94       0.3605
     3.207     40.        37.47       1.461
     3.215     10.        49.86       1.278
     3.22      30.        42.7        1.358
     3.229     50.        32.58       1.365
     3.23     150.         6.716      0.3776
     3.237     70.        22.32       0.3669
     3.237    130.         9.322      0.3981
     3.24      20.        45.19       1.409
     3.242     90.        14.98       0.3664
     3.243     80.        18.67       0.3927
     3.243    110.        11.52       0.4231
     3.244     60.        26.9        0.3605
     3.261    100.        13.55       0.4231
     3.262    140.         8.782      0.4155
     3.269    160.         7.4        0.4889
     3.27     120.        10.65       0.3931
     3.28      40.        37.38       1.461
     3.286     80.        18.63       0.3927
     3.287     10.        49.74       1.278
     3.288    150.         7.418      0.3776
     3.309    130.        10.02       0.3981
     3.315    110.        12.22       0.4231
     3.316     50.        30.96       1.365
     3.316     60.        26.84       0.3605
     3.321     30.        42.54       1.358
     3.324     70.        21.49       0.3669
     3.327     20.        43.58       1.409
     3.333    100.        14.26       0.4231
     3.341    160.         7.36       0.4889
     3.342    120.        10.59       0.3931
     3.343     90.        16.4        0.3664
     3.344     80.        17.84       0.3927
     3.346    150.         8.121      0.3776
     3.349    140.         9.471      0.4155
     3.373     50.        30.87       1.365
     3.374     10.        48.1        1.278
     3.381     40.        37.24       1.461
     3.381     70.        21.44       0.3669
     3.388     60.        26.02       0.3605
     3.399    160.         8.078      0.4889
     3.402     80.        19.3        0.3927
     3.402    110.        12.16       0.4231
     3.407     30.        42.41       1.358
     3.411    130.         9.944      0.3981
     3.415     90.        16.34       0.3664
     3.418    150.         8.064      0.3776
     3.42     100.        14.95       0.4231
     3.431     50.        32.27       1.365
     3.435    140.         9.411      0.4155
     3.442     20.        44.9        1.409
     3.446     60.        25.22       0.3605
     3.447    150.         8.789      0.3776
     3.454     70.        21.38       0.3669
     3.457    160.         8.797      0.4889
     3.458    120.        11.26       0.3931
     3.46      80.        19.25       0.3927
     3.474    110.        12.11       0.4231
     3.475     10.        47.92       1.278
     3.482     40.        37.11       1.461
     3.483    130.        10.64       0.3981
     3.487     90.        16.28       0.3664
     3.489     80.        19.23       0.3927
     3.492    100.        14.9        0.4231
     3.494     30.        40.78       1.358
     3.503     60.        25.17       0.3605
     3.507    140.         9.361      0.4155
     3.518     50.        32.13       1.365
     3.52     150.         9.48       0.3776
     3.532     80.        19.2        0.3927
     3.533     10.        47.82       1.278
     3.54      70.        20.56       0.3669
     3.543     20.        44.76       1.409
     3.544    160.         9.499      0.4889
     3.545    120.        11.19       0.3931
     3.55     100.        14.86       0.4231
     3.551     30.        40.69       1.358
     3.555    130.        10.59       0.3981
     3.56      90.        16.22       0.3664
     3.561     60.        25.87       0.3605
     3.561    110.        12.81       0.4231
     3.569     40.        38.48       1.461
     3.575     80.        18.41       0.3927
     3.577    150.         8.686      0.3776
     3.58     140.        10.06       0.4155
     3.605     50.        32.         1.365
     3.612     70.        21.25       0.3669
     3.615     20.        43.17       1.409
     3.616    160.         9.459      0.4889
     3.618     80.        19.13       0.3927
     3.619     10.        46.18       1.278
     3.619     60.        25.07       0.3605
     3.619    110.        12.77       0.4231
     3.622    100.        14.06       0.4231
     3.635    150.         9.389      0.3776
     3.638     30.        39.07       1.358
     3.642    130.        11.27       0.3981
     3.646     90.        16.14       0.3664
     3.646    120.        11.11       0.3931
     3.652    140.        10.01       0.4155
     3.655     40.        35.4        1.461
     3.659    160.        10.19       0.4889
     3.662     10.        44.62       1.278
     3.666    100.        14.78       0.4231
     3.676     80.        19.84       0.3927
     3.677     50.        31.89       1.365
     3.684     70.        20.43       0.3669
     3.691     60.        25.01       0.3605
     3.691    110.        12.72       0.4231
     3.702     20.        41.57       1.409
     3.704     90.        16.09       0.3664
     3.704    120.        11.82       0.3931
     3.71      30.        38.95       1.358
     3.71     140.        10.72       0.4155
     3.714    130.        11.97       0.3981
     3.717    160.        10.15       0.4889
     3.72      10.        44.52       1.278
     3.722    150.        10.82       0.3776
     3.723    100.        14.74       0.4231
     3.727     40.        35.31       1.461
     3.734     50.        31.8        1.365
     3.734     80.        18.29       0.3927
     3.742     70.        21.14       0.3669
     3.747     90.        14.56       0.3664
     3.749     60.        25.71       0.3605
     3.749    110.        12.68       0.4231
     3.753     30.        38.88       1.358
     3.753    140.        10.69       0.4155
     3.76      20.        41.49       1.409
     3.761    120.        11.78       0.3931
     3.763     50.        31.76       1.365
     3.77      40.        35.25       1.461
     3.775    160.        10.87       0.4889
     3.777     80.        19.01       0.3927
     3.778     10.        45.9        1.278
     3.78     150.        10.02       0.3776
     3.786    130.        11.17       0.3981
     3.792    110.        12.65       0.4231
     3.796    100.        16.2        0.4231
     3.8       70.        21.09       0.3669
     3.803     20.        41.42       1.409
     3.805     90.        16.01       0.3664
     3.807     50.        31.69       1.365
     3.807     60.        24.91       0.3605
     3.811     30.        40.28       1.358
     3.811    140.        11.4        0.4155
     3.814     40.        36.68       1.461
     3.819    160.        11.6        0.4889
     3.821     10.        45.82       1.278
     3.823    150.         9.988      0.3776
     3.834    120.        13.23       0.3931
ENDDATA            672
ENDSUBENT          685
SUBENT        A1413004   19990323   19990505
BIB                  3          4
REACTION   (3-LI-7(P,N)4-BE-7,PAR,SIG,,,EXP)
ERR-ANALYS (EN-ERR) Digitizing error
           (DATA-ERR) Digitizing error
STATUS     (CURVE) Fig 9
ENDBIB               4
COMMON               3          3
E-LVL      EN-ERR     DATA-ERR
MEV        MEV        MB
 0.0        0.0035      3.3
ENDCOMMON            3
DATA                 2         75
EN         DATA
MEV        MB
     2.086    307.2
     2.094    315.1
     2.11     326.9
     2.118    338.8
     2.127    350.6
     2.135    366.5
     2.151    382.2
     2.168    402.
     2.176    413.9
     2.177    433.7
     2.185    449.5
     2.193    469.3
     2.194    489.2
     2.21     508.9
     2.219    532.7
     2.236    560.4
     2.251    556.3
     2.267    556.2
     2.283    548.2
     2.299    524.3
     2.306    504.4
     2.314    488.5
     2.314    472.6
     2.345    448.6
     2.345    432.8
     2.361    424.8
     2.369    420.8
     2.377    408.8
     2.392    400.8
     2.4      392.8
     2.408    380.9
     2.416    376.8
     2.424    368.9
     2.432    356.9
     2.448    352.9
     2.464    348.8
     2.479    340.8
     2.495    332.8
     2.511    328.7
     2.535    320.6
     2.559    312.6
     2.575    308.5
     2.599    308.4
     2.615    304.3
     2.639    296.3
     2.655    296.2
     2.671    292.1
     2.695    292.
     2.711    287.9
     2.727    279.9
     2.775    271.7
     2.815    267.5
     2.847    263.4
     2.879    263.2
     2.919    259.
     2.967    254.8
     2.991    250.7
     3.039    254.4
     3.087    250.2
     3.143    245.9
     3.191    245.7
     3.239    241.4
     3.279    241.2
     3.327    237.
     3.368    240.8
     3.392    248.6
     3.432    244.4
     3.488    244.1
     3.528    243.9
     3.584    239.6
     3.64     239.3
     3.681    239.1
     3.713    242.9
     3.761    238.6
     3.793    238.4
ENDDATA             77
ENDSUBENT           90
ENDENTRY             4
