ENTRY            A1410   19990323   19990505
SUBENT        A1410001   19990323   19990505
BIB                  9         13
INSTITUTE  (1USACAL)
REFERENCE  (J,PR,130,(5),2034,196306)
AUTHOR     (J.A.MCCRAY)
TITLE      Elastic scattering of protons from 6Li nuclei
FACILITY   (VDG)
SAMPLE     Two 6Li metal samples (94.5% and 99.7% purity).
DETECTOR   (CSICR)
           (MAGSP) 10.5-in. (for energies from 0.45 to 1.2MeV) and
            (16-in. for energies from 1.0 to 2.9 MeV) magnetic
           spectrometers
ERR-ANALYS (ERR-T) Probable error in absolute values
HISTORY    (19800730C) Compilation produced by Arzamas RFNC-VNIIEF
           (19990220U)CNPD: corrected 4-dig. year and lower cases.
ENDBIB              13
COMMON               1          3
ERR-T
PER-CENT
  5.
ENDCOMMON            3
ENDSUBENT           20
SUBENT        A1410002   19990323   19990505
BIB                  3          4
REACTION   (3-LI-6(P,EL)3-LI-6,,DA,,RTH,EXP)
ERR-ANALYS (EN-ERR) Digitizing error
           (DATA-ERR) Digitizing error
STATUS     (CURVE) Fig. 3
ENDBIB               4
COMMON               2          3
EN-ERR     DATA-ERR
MEV        NO-DIM
 0.006      0.16
ENDCOMMON            3
DATA                 3        214
EN         ANG-CM     DATA
MEV        ADEG       NO-DIM
     0.3943   126.6        0.9329
     0.426    126.6        1.088
     0.4344   159.7        1.228
     0.4747    90.45       1.094
     0.4766   126.6        1.077
     0.4912   159.7        1.216
     0.5336   126.6        1.227
     0.5417   159.7        1.045
     0.5778   126.6        1.218
     0.5925   159.7        1.354
     0.5948    90.45       1.068
     0.616    126.6        1.696
     0.6367   159.7        1.345
     0.6453    90.45       1.057
     0.6601   126.6        1.362
     0.6746   159.7        1.337
     0.6769    90.45       1.05
     0.6981   126.6        1.516
     0.7086    90.45       1.207
     0.7125   159.7        1.329
     0.7359   126.6        1.345
     0.7442   159.7        1.482
     0.7466    90.45       1.362
     0.774    126.6        1.662
     0.7822   159.7        1.474
     0.7845    90.45       1.19
     0.8264   159.7        1.464
     0.8309   126.6        1.649
     0.8351    90.45       1.342
     0.858    159.7        1.458
     0.8731    90.45       1.497
     0.8751   126.6        1.64
     0.8961   159.7        1.77
     0.9111    90.45       1.489
     0.9133   126.6        1.956
     0.9278   159.7        1.923
     0.9511   126.6        1.785
     0.9554    90.45       1.643
     0.9659   159.7        2.235
     0.987     90.45       1.636
     0.9955   126.6        2.1
     1.01     159.7        2.385
     1.031     90.45       1.789
     1.04     126.6        2.091
     1.042    159.7        3.019
     1.065    126.6        2.572
     1.069     90.45       1.618
     1.086    159.7        3.009
     1.11     126.6        2.562
     1.113     90.45       1.445
     1.118    159.7        3.003
     1.139     90.45       1.603
     1.144    159.7        3.637
     1.148    126.6        3.04
     1.176    159.7        3.95
     1.183     90.45       1.92
     1.192    126.6        3.031
     1.215     90.45       1.749
     1.22     159.7        4.421
     1.224    126.6        3.348
     1.253     90.45       2.068
     1.262    126.6        3.826
     1.265    159.7        5.052
     1.291     90.45       2.223
     1.297    159.7        5.845
     1.3      126.6        3.98
     1.329     90.45       2.214
     1.335    159.7        6.797
     1.338    126.6        4.297
     1.364    126.6        4.615
     1.367     90.45       2.206
     1.374    159.7        7.749
     1.4      159.7        8.384
     1.405     90.45       2.688
     1.408    126.6        5.579
     1.419    159.7        9.5
     1.436     90.45       2.844
     1.445    159.7       10.61
     1.447    126.6        6.381
     1.466    126.6        6.864
     1.468     90.45       2.837
     1.471    159.7       11.57
     1.491    159.7       13.
     1.494     90.45       3.158
     1.498    126.6        7.83
     1.519     90.45       3.316
     1.524    159.7       14.76
     1.53     126.6        8.634
     1.545     90.45       3.8
     1.55     126.6        9.278
     1.55     159.7       16.19
     1.563    126.6        9.924
     1.564    159.7       18.27
     1.57      90.45       4.121
     1.595     90.45       4.442
     1.601    126.6       11.05
     1.603    159.7       20.18
     1.623    159.7       21.78
     1.627     90.45       4.599
     1.627    126.6       11.86
     1.653     90.45       4.92
     1.653    126.6       12.66
     1.656    159.7       24.01
     1.673    126.6       13.63
     1.676    159.7       25.29
     1.678     90.45       5.567
     1.704     90.45       5.725
     1.705    126.6       14.27
     1.708    159.7       26.56
     1.728    159.7       28.16
     1.729     90.45       5.883
     1.73     126.6       14.75
     1.748     90.45       6.368
     1.749    126.6       15.07
     1.766    159.7       28.47
     1.775    126.6       15.39
     1.78      90.45       6.525
     1.785    159.7       29.11
     1.806     90.45       6.846
     1.807    126.6       15.71
     1.811    159.7       28.78
     1.83     159.7       29.26
     1.831     90.45       6.84
     1.832    126.6       15.06
     1.845    126.6       15.7
     1.856     90.45       6.835
     1.863    126.6       15.21
     1.867    159.7       27.81
     1.881     90.45       6.993
     1.882    126.6       14.88
     1.886    159.7       27.64
     1.904    159.7       26.68
     1.907    126.6       14.55
     1.919     90.45       6.984
     1.926    126.6       14.22
     1.935    159.7       25.87
     1.945     90.45       6.979
     1.957    126.6       13.57
     1.966    159.7       24.43
     1.97      90.45       6.973
     1.982    126.6       13.08
     1.989     90.45       6.969
     1.991    159.7       23.78
     2.013    126.6       12.42
     2.033     90.45       6.796
     2.034    159.7       22.65
     2.053    159.7       22.17
     2.057    126.6       12.25
     2.077     90.45       6.787
     2.096    159.7       21.04
     2.101    126.6       12.08
     2.128     90.45       6.776
     2.134    159.7       19.75
     2.139    126.6       11.58
     2.165    159.7       18.94
     2.166     90.45       6.604
     2.177    126.6       11.25
     2.197     90.45       6.76
     2.209    159.7       18.77
     2.215    126.6       11.24
     2.24     159.7       17.81
     2.242     90.45       6.751
     2.253    126.6       11.07
     2.277    159.7       17.16
     2.28      90.45       6.906
     2.284    126.6       10.9
     2.318     90.45       6.897
     2.322    126.6       10.89
     2.328    159.7       16.83
     2.347    126.6       10.89
     2.356     90.45       7.052
     2.366    159.7       17.3
     2.379    126.6       10.72
     2.4       90.45       7.043
     2.403    159.7       16.65
     2.423    126.6       11.04
     2.431     90.45       7.199
     2.448    159.7       16.8
     2.468    126.6       11.19
     2.476     90.45       7.19
     2.492    159.7       16.15
     2.504    159.7       15.51
     2.512    126.6       10.85
     2.514     90.45       7.181
     2.548    159.7       15.66
     2.55     126.6       11.01
     2.552     90.45       7.5
     2.58     159.7       15.81
     2.581    126.6       10.84
     2.596     90.45       7.49
     2.631    159.7       15.96
     2.632    126.6       11.64
     2.634     90.45       7.971
     2.666     90.45       7.801
     2.675    159.7       16.11
     2.676    126.6       11.47
     2.691     90.45       7.796
     2.702    126.6       11.62
     2.706    159.7       15.79
     2.729     90.45       8.441
     2.733    126.6       11.78
     2.744    159.7       15.94
     2.767     90.45       8.106
     2.784    126.6       12.42
     2.789    159.7       16.25
     2.799     90.45       8.425
     2.829    126.6       12.41
     2.833    159.7       16.72
     2.837     90.45       8.744
     2.861    126.6       13.05
     2.869     90.45       8.737
     2.871    159.7       16.87
     2.886    126.6       13.21
     2.909    159.7       17.34
ENDDATA            216
ENDSUBENT          229
SUBENT        A1410003   19990323   19990505
BIB                  3          4
REACTION   (3-LI-6(P,EL)3-LI-6,,DA,,,EXP)
ERR-ANALYS (EN-ERR) Digitizing error
           (DATA-ERR) Digitizing error
STATUS     (CURVE) Fig 4
ENDBIB               4
COMMON               3          3
EN-ERR     ANG-CM     DATA-ERR
MEV        ADEG       MB/SR
 0.01         90.00     0.5
ENDCOMMON            3
DATA                 2         68
EN         DATA
MEV        MB/SR
     0.7839   126.4
     0.8161   120.
     0.8268   114.6
     0.8591   109.8
     0.8805   106.1
     0.902    101.2
     0.9342    96.96
     0.9557    92.68
     0.9772    91.07
     1.009     88.93
     1.02      85.71
     1.063     84.11
     1.063     79.82
     1.095     78.21
     1.149     77.14
     1.16      75.
     1.192     75.54
     1.213     73.93
     1.256     73.39
     1.321     70.18
     1.353     69.11
     1.407     70.71
     1.428     73.39
     1.46      75.
     1.493     78.21
     1.525     80.89
     1.536     83.57
     1.546     87.32
     1.568     92.68
     1.611     97.5
     1.632    102.3
     1.664    108.2
     1.675    113.6
     1.697    116.2
     1.718    119.5
     1.75     121.1
     1.772    123.7
     1.804    124.3
     1.836    124.8
     1.847    123.2
     1.89     122.7
     1.901    119.5
     1.933    116.2
     1.944    113.6
     1.965    111.4
     1.997    106.6
     2.029    101.8
     2.083     97.5
     2.137     93.75
     2.158     88.93
     2.212     86.79
     2.255     82.5
     2.298     80.36
     2.33      79.29
     2.373     77.14
     2.405     75.54
     2.459     75.
     2.491     72.86
     2.534     71.79
     2.566     70.18
     2.609     69.64
     2.642     67.5
     2.695     68.04
     2.738     67.5
     2.77      66.96
     2.813     65.89
     2.856     66.96
     2.889     64.82
ENDDATA             70
ENDSUBENT           83
ENDENTRY             3
