ENTRY            A1432   19990323   19990505
SUBENT        A1432001   19990323   19990505
BIB                  9         17
INSTITUTE  (3AULCBR)
REFERENCE  (J,NP/A,147,65,197005)
AUTHOR     (D.L.POWELL,G.M.CRAWLEY,B.V.N.RAO,B.A.ROBSON)
TITLE      Deuteron-induced reactions in 6Li, 9Be and 10B at
           bombarding energies of 4.5 to 6.0 MeV
FACILITY   (VDGT)
SAMPLE     The 6Li,9Be and 10B targets were prepared by
           evaporation of the enriched isotope onto a 20 mu-g/cm2
           carbon substrate. The target thickness was
           approximately 100 mu-g/cm2
DETECTOR   (SOLST) Silicon surface-barrier counters
ERR-ANALYS (ERR-T) The estimated error in the absolute cross sect.
           (ERR-S) From graphic bars (statistical). The were given
           only at that points, where the error greater than point
           (DATA-ERR) digitizing error.
HISTORY    (19800805C) Compilation produced by RFNC-VNIIEF Sarov
           (19990220U)CNPD: corrected 4-dig. year and lower cases.
ENDBIB              17
COMMON               1          3
ERR-T
PER-CENT
  15.0
ENDCOMMON            3
ENDSUBENT           24
SUBENT        A1432002   19990323   19990505
BIB                  3          3
REACTION   (3-LI-6(D,P)3-LI-7,PAR,DA,,,EXP)
ERR-ANALYS (ANG-ERR) Digitizing error
STATUS     (CURVE) Fig 2
ENDBIB               3
COMMON               2          3
ANG-ERR    DATA-ERR
ADEG       PER-CENT
  0.5       0.7
ENDCOMMON            3
DATA                 5        365
EN         E-LVL      ANG        DATA       ERR-S
MEV        MEV        ADEG       MB/SR      MB/SR
     4.5        0.        28.96       8.425
     4.5        0.        34.14       7.503
     4.5        0.        39.3        6.059
     4.5        0.        45.4        4.582
     4.5        0.        51.01       3.194
     4.5        0.        56.15       2.339
     4.5        0.        62.26       1.858
     4.5        0.        66.98       1.766
     4.5        0.        72.2        1.852
     4.5        0.        77.42       1.974
     4.5        0.        82.65       2.247
     4.5        0.        87.87       2.356
     4.5        0.        93.08       2.43
     4.5        0.        97.81       2.349
     4.5        0.       103.         2.346
     4.5        0.       107.7        2.23
     4.5        0.       112.9        2.156
     4.5        0.       117.7        2.118
     4.5        0.       122.4        1.981
     4.5        0.       126.6        1.854
     4.5        0.       131.4        1.763
     4.5        0.       136.1        1.76
     4.5        0.       141.3        1.758
     4.5        0.       144.6        1.756
     4.5        0.       149.8        1.842
     4.5        0.       154.1        1.751
     4.5        0.       158.3        1.749
     4.5        0.       163.1        1.747
     4.5        0.       166.9        1.774
     4.5        0.48      26.45       6.906
     4.5        0.48      28.81       6.787
     4.5        0.48      32.1        6.454
     4.5        0.48      34.45       6.241
     4.5        0.48      36.79       5.653
     4.5        0.48      38.19       5.207
     4.5        0.48      41.47       4.489
     4.5        0.48      45.22       3.933
     4.5        0.48      51.28       2.784
     4.5        0.48      54.08       2.401
     4.5        0.48      56.41       2.037
     4.5        0.48      59.21       1.729
     4.5        0.48      62.01       1.49
     4.5        0.48      67.17       1.305
     4.5        0.48      72.83       1.281
     4.5        0.48      78.02       1.278
     4.5        0.48      83.7        1.362
     4.5        0.48      87.95       1.382
     4.5        0.48      93.14       1.379
     4.5        0.48      98.33       1.332
     4.5        0.48     101.2        1.309
     4.5        0.48     103.         1.286
     4.5        0.48     107.8        1.284
     4.5        0.48     112.9        1.2
     4.5        0.48     118.1        1.178
     4.5        0.48     122.8        1.157
     4.5        0.48     126.6        1.064
     4.5        0.48     129.9        1.081
     4.5        0.48     132.3        1.134
     4.5        0.48     137.         1.169
     4.5        0.48     140.8        1.186      0.1009
     4.5        0.48     145.         1.264      0.118
     4.5        0.48     149.8        1.347      0.1056
     4.5        0.48     153.5        1.345      0.1057
     4.5        0.48     158.3        1.365      0.1276
     4.5        0.48     162.5        1.385      0.1292
     4.5        0.48     164.4        1.384
     4.75       0.        15.15       4.89       0.5465
     4.75       0.        20.9        6.621
     4.75       0.        26.15       8.522      0.8242
     4.75       0.        28.51       8.094
     4.75       0.        34.18       7.551
     4.75       0.        37.45       6.262      0.699
     4.75       0.        40.27       5.749
     4.75       0.        45.41       4.091
     4.75       0.        49.13       2.913      0.3686
     4.75       0.        51.01       2.815
     4.75       0.        56.16       2.107
     4.75       0.        59.44       1.777
     4.75       0.        62.26       1.604
     4.75       0.        63.68       1.604
     4.75       0.        67.         1.63
     4.75       0.        69.84       1.656
     4.75       0.        72.21       1.683
     4.75       0.        75.54       1.799
     4.75       0.        78.39       1.891
     4.75       0.        80.77       2.022
     4.75       0.        83.15       2.163
     4.75       0.        85.52       2.198
     4.75       0.        88.84       2.233
     4.75       0.        93.1        2.23
     4.75       0.        94.99       2.192
     4.75       0.        98.77       2.189
     4.75       0.       103.5        2.15
     4.75       0.       108.2        2.147
     4.75       0.       113.4        2.072
     4.75       0.       115.8        2.036
     4.75       0.       118.2        2.
     4.75       0.       121.9        1.931
     4.75       0.       127.1        1.802
     4.75       0.       132.3        1.739
     4.75       0.       136.6        1.708
     4.75       0.       140.8        1.677
     4.75       0.       145.1        1.675
     4.75       0.       150.3        1.673
     4.75       0.       154.6        1.671
     4.75       0.       158.4        1.697
     4.75       0.       163.6        1.666
     4.75       0.       167.4        1.722
     4.75       0.48      14.64       5.494      0.615
     4.75       0.48      20.79       6.169
     4.75       0.48      26.         6.813      0.6581
     4.75       0.48      28.84       6.691
     4.75       0.48      31.2        6.572
     4.75       0.48      33.57       6.24
     4.75       0.48      36.41       5.536
     4.75       0.48      37.83       5.084      0.5682
     4.75       0.48      39.72       4.911
     4.75       0.48      42.56       4.212
     4.75       0.48      44.93       3.674
     4.75       0.48      48.72       2.528      0.2703
     4.75       0.48      51.09       2.441
     4.75       0.48      55.82       1.827
     4.75       0.48      60.08       1.439
     4.75       0.48      61.5        1.277
     4.75       0.48      66.71       1.132
     4.75       0.48      70.97       1.13
     4.75       0.48      72.86       1.168
     4.75       0.48      78.07       1.127
     4.75       0.48      82.8        1.245
     4.75       0.48      87.53       1.201
     4.75       0.48      92.27       1.219
     4.75       0.48      97.95       1.156
     4.75       0.48     103.2        1.134
     4.75       0.48     107.9        1.094
     4.75       0.48     112.6        1.11
     4.75       0.48     117.8        1.071
     4.75       0.48     123.         1.033
     4.75       0.48     126.8        1.014
     4.75       0.48     132.         1.047
     4.75       0.48     136.3        1.081
     4.75       0.48     140.6        1.079
     4.75       0.48     144.3        1.114      0.1247
     4.75       0.48     150.         1.23       0.1375
     4.75       0.48     153.8        1.228      0.1186
     4.75       0.48     159.         1.247      0.1336
     4.75       0.48     162.8        1.332      0.1081
     5.         0.        12.85       9.65       0.4006
     5.         0.        18.05       9.777
     5.         0.        24.2        9.837      0.4667
     5.         0.        26.1        9.701
     5.         0.        28.96       9.365
     5.         0.        31.82       9.028
     5.         0.        33.74       8.626
     5.         0.        35.17       8.291      0.4
     5.         0.        37.54       8.221
     5.         0.        43.3        6.748
     5.         0.        46.65       6.077      0.4
     5.         0.        48.09       5.676
     5.         0.        49.06       5.341
     5.         0.        51.95       4.405
     5.         0.        53.86       3.936
     5.         0.        57.69       3.264
     5.         0.        60.55       2.795
     5.         0.        62.92       2.792
     5.         0.        65.28       2.922
     5.         0.        68.11       3.119
     5.         0.        70.46       3.383
     5.         0.        72.81       3.647
     5.         0.        76.12       3.776
     5.         0.        78.01       3.907
     5.         0.        81.3        4.237
     5.         0.        86.5        4.364
     5.         0.        91.71       4.425
     5.         0.        96.44       4.486
     5.         0.       101.2        4.547
     5.         0.       106.4        4.608
     5.         0.       111.6        4.402
     5.         0.       116.3        4.129
     5.         0.       120.1        3.992
     5.         0.       125.4        3.519
     5.         0.       130.1        3.513
     5.         0.       132.5        3.377
     5.         0.       134.4        3.242
     5.         0.       139.1        3.036
     5.         0.       143.4        3.298
     5.         0.       148.6        3.225
     5.         0.       151.9        3.155
     5.         0.       156.6        3.282
     5.         0.       160.9        3.211
     5.         0.       165.1        3.206
     5.         0.48      15.5        7.676      0.4598
     5.         0.48      22.18       8.585
     5.         0.48      27.4        8.905      0.4598
     5.         0.48      29.77       8.835
     5.         0.48      32.12       8.634
     5.         0.48      34.47       8.236
     5.         0.48      38.72       8.032      0.3957
     5.         0.48      41.05       7.371
     5.         0.48      42.92       6.909
     5.         0.48      46.67       6.18
     5.         0.48      49.44       4.927      0.4598
     5.         0.48      52.27       4.66
     5.         0.48      57.4        3.272
     5.         0.48      62.54       1.884
     5.         0.48      67.73       1.612
     5.         0.48      70.57       1.542
     5.         0.48      73.41       1.603
     5.         0.48      77.2        1.597
     5.         0.48      80.04       1.658
     5.         0.48      83.36       1.718
     5.         0.48      87.62       1.711
     5.         0.48      91.88       1.704
     5.         0.48      94.25       1.832
     5.         0.48      99.46       1.823
     5.         0.48     105.1        1.814
     5.         0.48     108.9        1.808
     5.         0.48     113.6        1.668
     5.         0.48     118.9        1.594
     5.         0.48     123.6        1.455
     5.         0.48     127.4        1.186
     5.         0.48     132.6        1.309
     5.         0.48     135.4        1.107
     5.         0.48     137.3        0.9727
     5.         0.48     141.5        0.5716     0.3934
     5.         0.48     146.7        0.6287     0.3277
     5.         0.48     150.5        1.214      0.3941
     5.         0.48     154.8        1.338      0.3941
     5.         0.48     159.5        0.9362     0.3284
     5.         0.48     163.8        0.4037     0.3949
     5.25       0.        19.05       8.253
     5.25       0.        23.31       8.82
     5.25       0.        28.05       9.425
     5.25       0.        30.89       8.8
     5.25       0.        33.25       8.08
     5.25       0.        35.15       7.173
     5.25       0.        39.41       6.257
     5.25       0.        44.62       4.304
     5.25       0.        50.3        2.862
     5.25       0.        53.14       2.414
     5.25       0.        55.5        2.107
     5.25       0.        58.34       1.87
     5.25       0.        62.13       1.746
     5.25       0.        63.55       1.745
     5.25       0.        66.86       1.714
     5.25       0.        69.23       1.802
     5.25       0.        73.02       1.926
     5.25       0.        77.75       2.093
     5.25       0.        82.49       2.314
     5.25       0.        87.22       2.473
     5.25       0.        92.43       2.427
     5.25       0.        97.63       2.465
     5.25       0.       101.9        2.59
     5.25       0.       107.6        2.5
     5.25       0.       112.3        2.539
     5.25       0.       117.5        2.329
     5.25       0.       122.7        2.406
     5.25       0.       126.5        2.134
     5.25       0.       131.2        1.992
     5.25       0.       136.         1.923
     5.25       0.       140.2        1.92
     5.25       0.       144.5        2.018
     5.25       0.       149.2        2.049
     5.25       0.       153.         2.013
     5.25       0.       158.2        2.079
     5.25       0.       162.5        1.974
     5.25       0.       166.3        1.971
     5.25       0.48      17.33       5.335      0.592
     5.25       0.48      29.31       7.555      0.7246
     5.25       0.48      31.2        7.549
     5.25       0.48      36.81       6.366
     5.25       0.48      41.03       5.745      0.6376
     5.25       0.48      42.88       5.19
     5.25       0.48      48.4        3.518
     5.25       0.48      52.55       2.684      0.2978
     5.25       0.48      53.44       2.306
     5.25       0.48      59.46       1.7
     5.25       0.48      64.55       1.275
     5.25       0.48      70.21       1.209
     5.25       0.48      75.4        1.167
     5.25       0.48      80.62       1.204
     5.25       0.48      85.41       1.351
     5.25       0.48      91.55       1.325
     5.25       0.48      96.26       1.237
     5.25       0.48     101.         1.214
     5.25       0.48     106.7        1.252
     5.25       0.48     110.9        1.189
     5.25       0.48     114.7        1.187
     5.25       0.48     120.4        1.145
     5.25       0.48     125.1        1.162
     5.25       0.48     130.3        1.084
     5.25       0.48     134.5        1.012      0.0887
     5.25       0.48     139.3        1.136      0.126
     5.25       0.48     143.1        1.192      0.1323
     5.25       0.48     148.4        1.408      0.1562
     5.25       0.48     152.6        1.314      0.1458
     5.25       0.48     156.5        1.526      0.1619
     5.25       0.48     161.7        1.575      0.151
     5.5        0.        21.9        7.47
     5.5        0.        25.22       7.982
     5.5        0.        29.98       8.669
     5.5        0.        35.64       7.957
     5.5        0.        41.71       5.396
     5.5        0.        46.86       4.049
     5.5        0.        51.95       2.283
     5.5        0.        54.3        2.133
     5.5        0.        58.07       1.959
     5.5        0.        60.41       1.712
     5.5        0.        63.71       1.572
     5.5        0.        65.61       1.625
     5.5        0.        67.98       1.679
     5.5        0.        71.31       1.794
     5.5        0.        74.64       1.95
     5.5        0.        79.86       2.117
     5.5        0.        84.62       2.378
     5.5        0.        89.36       2.456
     5.5        0.        95.51       2.452
     5.5        0.       100.2        2.448
     5.5        0.       105.4        2.324
     5.5        0.       109.7        2.283
     5.5        0.       114.         2.242
     5.5        0.       119.6        2.201
     5.5        0.       124.4        2.055
     5.5        0.       128.1        1.887
     5.5        0.       133.3        1.792
     5.5        0.       138.1        1.85
     5.5        0.       141.8        1.787
     5.5        0.       144.2        1.786
     5.5        0.       147.1        1.845
     5.5        0.       148.9        1.844
     5.5        0.       151.3        1.874
     5.5        0.       152.7        1.874
     5.5        0.       155.1        1.872
     5.5        0.       157.9        1.902
     5.5        0.       159.4        1.934
     5.5        0.       163.6        1.837
     5.5        0.       167.9        1.865
     5.5        0.48      16.         4.879      0.4704
     5.5        0.48      27.42       6.475      0.6923
     5.5        0.48      29.78       6.469
     5.5        0.48      35.45       6.133
     5.5        0.48      38.71       4.751      0.6902
     5.5        0.48      41.05       4.007
     5.5        0.48      43.85       3.437
     5.5        0.48      47.15       3.101
     5.5        0.48      48.52       2.487
     5.5        0.48      49.91       2.098      0.2345
     5.5        0.48      52.24       1.77
     5.5        0.48      58.35       1.465
     5.5        0.48      63.02       1.042
     5.5        0.48      69.16       1.005
     5.5        0.48      74.39       1.091
     5.5        0.48      79.13       1.127
     5.5        0.48      85.3        1.223
     5.5        0.48      89.55       1.16
     5.5        0.48      95.22       1.138
     5.5        0.48      99.96       1.136
     5.5        0.48     105.1        1.024
     5.5        0.48     109.9        0.9877
     5.5        0.48     114.1        0.9371
     5.5        0.48     124.         0.8721
     5.5        0.48     128.8        0.8852
     5.5        0.48     133.         0.8836     0.0987
     5.5        0.48     137.8        0.9122     0.1289
     5.5        0.48     141.6        0.9746     0.1236
     5.5        0.48     147.3        1.132      0.1213
ENDDATA            367
ENDSUBENT          379
SUBENT        A1432003   19990323   19990505
BIB                  3          3
REACTION   (4-BE-9(D,P)4-BE-10,PAR,DA,,,EXP)
ERR-ANALYS (ANG-ERR) Digitizing errror
STATUS     (CURVE) Fig 3
ENDBIB               3
COMMON               2          3
ANG-ERR    DATA-ERR
ADEG       PER-CENT
     0.5    0.7
ENDCOMMON            3
DATA                 5        376
EN         E-LVL      ANG        DATA       ERR-S
MEV        MEV        ADEG       MB/SR      MB/SR
     4.5        0.        16.98       3.725
     4.5        0.        22.32       4.95
     4.5        0.        27.74       4.685
     4.5        0.        33.19       3.814
     4.5        0.        38.11       2.989
     4.5        0.        44.14       1.978
     4.5        0.        59.52       0.6295
     4.5        0.        70.87       0.6435
     4.5        0.        75.16       0.7491
     4.5        0.        81.11       0.7504
     4.5        0.        86.49       0.8258
     4.5        0.        91.36       0.8269
     4.5        0.        96.23       0.7974
     4.5        0.       101.1        0.7131
     4.5        0.       106.         0.6623
     4.5        0.       110.9        0.6758
     4.5        0.       115.2        0.6043
     4.5        0.       120.6        0.6285
     4.5        0.       125.5        0.6061
     4.5        0.       130.3        0.6302
     4.5        0.       134.6        0.6804
     4.5        0.       139.5        0.6686
     4.5        0.       148.2        0.6702
     4.5        0.       153.6        0.6109
     4.5        0.       162.3        0.5573
     4.5        3.37      18.38       4.824
     4.5        3.37      23.78       6.741
     4.5        3.37      29.19       6.267
     4.5        3.37      34.05       5.511
     4.5        3.37      56.22       1.381      0.1452
     4.5        3.37      72.43       1.09
     4.5        3.37      77.3        1.071
     4.5        3.37      82.7        1.072
     4.5        3.37      87.57       0.9968
     4.5        3.37      92.43       1.115
     4.5        3.37      97.3        1.202
     4.5        3.37     102.7        1.139
     4.5        3.37     107.6        1.228
     4.5        3.37     111.9        1.323
     4.5        3.37     117.3        1.208
     4.5        3.37     122.2        1.351
     4.5        3.37     125.9        1.328
     4.5        3.37     131.4        1.405
     4.5        3.37     136.2        1.381
     4.5        3.37     140.         1.489
     4.5        3.37     144.9        1.49
     4.5        3.37     149.2        1.492
     4.5        3.37     154.6        1.439
     4.5        3.37     158.4        1.523
     4.5        3.37     163.8        1.553
     4.75       0.        17.41       3.794
     4.75       0.        22.8        4.172
     4.75       0.        28.73       4.504
     4.75       0.        33.63       3.811
     4.75       0.        39.1        2.777
     4.75       0.        45.12       1.949
     4.75       0.        55.07       0.6982
     4.75       0.        61.04       0.625
     4.75       0.        70.77       0.6268
     4.75       0.        76.15       0.7023
     4.75       0.        81.55       0.744
     4.75       0.        86.41       0.745
     4.75       0.        91.28       0.746
     4.75       0.        96.7        0.6933
     4.75       0.       101.6        0.6205
     4.75       0.       105.9        0.5984
     4.75       0.       111.3        0.5666
     4.75       0.       116.2        0.6001
     4.75       0.       121.6        0.6358
     4.75       0.       125.9        0.6018
     4.75       0.       130.8        0.6742
     4.75       0.       135.1        0.714
     4.75       0.       139.9        0.7706
     4.75       0.       144.2        0.7432
     4.75       0.       149.1        0.7582
     4.75       0.       154.         0.6914
     4.75       0.       157.2        0.732
     4.75       0.       162.1        0.6311
     4.75       3.37      18.18       5.472
     4.75       3.37      24.13       7.634
     4.75       3.37      29.56       7.352
     4.75       3.37      35.53       5.941
     4.75       3.37      39.87       5.609      0.8212
     4.75       3.37      61.63       1.162
     4.75       3.37      67.6        1.077
     4.75       3.37      73.03       0.9222
     4.75       3.37      77.91       0.9601
     4.75       3.37      82.78       1.102
     4.75       3.37      88.21       1.041
     4.75       3.37      94.17       1.194
     4.75       3.37      99.05       1.15
     4.75       3.37     103.4        1.221
     4.75       3.37     107.7        1.198
     4.75       3.37     113.1        1.224
     4.75       3.37     118.         1.35
     4.75       3.37     123.5        1.276
     4.75       3.37     128.3        1.277
     4.75       3.37     132.1        1.329
     4.75       3.37     137.         1.357
     4.75       3.37     140.8        1.385
     4.75       3.37     144.6        1.441
     4.75       3.37     150.         1.361
     4.75       3.37     154.9        1.417
     4.75       3.37     159.2        1.475
     4.75       3.37     164.1        1.477
     5.         0.        20.54       3.72
     5.         0.        25.95       4.403
     5.         0.        30.81       4.327
     5.         0.        36.76       3.665
     5.         0.        41.62       2.577
     5.         0.        47.57       1.683
     5.         0.        58.38       0.704
     5.         0.        72.97       0.6318
     5.         0.        79.46       0.6691
     5.         0.        84.32       0.7215
     5.         0.        88.65       0.7496
     5.         0.        93.51       0.6838
     5.         0.        98.92       0.6239
     5.         0.       103.8        0.6018
     5.         0.       108.6        0.5805
     5.         0.       113.5        0.5296
     5.         0.       118.9        0.5402
     5.         0.       123.2        0.5934
     5.         0.       128.1        0.6282
     5.         0.       133.         0.7031
     5.         0.       137.8        0.7306
     5.         0.       142.7        0.7879
     5.         0.       146.5        0.774
     5.         0.       150.3        0.7747
     5.         0.       155.1        0.7613
     5.         0.       160.5        0.7344
     5.         0.       164.3        0.7351
     5.         3.37      15.41       5.911
     5.         3.37      20.84       5.703
     5.         3.37      26.8        5.927
     5.         3.37      32.29       5.023
     5.         3.37      64.97       0.9211
     5.         3.37      70.42       0.8564
     5.         3.37      75.83       0.8898
     5.         3.37      80.69       0.9417
     5.         3.37      86.1        0.9605
     5.         3.37      92.02       1.095
     5.         3.37      96.9        1.096
     5.         3.37     102.3        1.139
     5.         3.37     106.7        1.099
     5.         3.37     111.         1.184
     5.         3.37     116.4        1.122
     5.         3.37     120.7        1.187
     5.         3.37     125.6        1.233
     5.         3.37     129.9        1.19
     5.         3.37     135.4        1.236
     5.         3.37     138.6        1.237
     5.         3.37     143.5        1.309
     5.         3.37     147.8        1.31
     5.         3.37     153.2        1.312
     5.         3.37     157.6        1.266
     5.         3.37     162.4        1.39
     5.25       0.        17.98       3.709
     5.25       0.        22.79       4.48
     5.25       0.        28.19       4.487
     5.25       0.        34.2        3.657
     5.25       0.        38.61       2.662
     5.25       0.        45.22       1.732
     5.25       0.        56.29       0.6678
     5.25       0.        66.07       0.5656
     5.25       0.        71.44       0.6459
     5.25       0.        76.26       0.7515
     5.25       0.        82.2        0.7815
     5.25       0.        86.56       0.6735
     5.25       0.        91.98       0.6376
     5.25       0.        97.41       0.5924
     5.25       0.       101.8        0.5503
     5.25       0.       106.7        0.4924
     5.25       0.       112.         0.5217
     5.25       0.       116.9        0.5526
     5.25       0.       121.2        0.5744
     5.25       0.       126.1        0.5861
     5.25       0.       130.9        0.6568
     5.25       0.       136.3        0.7361
     5.25       0.       141.1        0.7798
     5.25       0.       144.9        0.8415
     5.25       0.       148.7        0.8113
     5.25       0.       154.1        0.7538
     5.25       0.       159.         0.7692
     5.25       0.       162.8        0.7416
     5.25       3.37      18.35       5.96
     5.25       3.37      23.76       6.542
     5.25       3.37      29.73       6.429
     5.25       3.37      34.65       5.064
     5.25       3.37      67.54       0.9016
     5.25       3.37      72.98       0.854
     5.25       3.37      77.3        0.9201
     5.25       3.37      83.25       0.9915
     5.25       3.37      88.67       1.03
     5.25       3.37      94.08       1.11
     5.25       3.37     100.         1.132
     5.25       3.37     104.4        1.071
     5.25       3.37     109.3        1.133
     5.25       3.37     113.6        1.199
     5.25       3.37     118.5        1.2
     5.25       3.37     122.8        1.179
     5.25       3.37     128.2        1.18
     5.25       3.37     132.6        1.159
     5.25       3.37     136.9        1.249
     5.25       3.37     141.2        1.25
     5.25       3.37     146.7        1.298
     5.25       3.37     150.4        1.323
     5.25       3.37     155.3        1.3
     5.25       3.37     159.7        1.209
     5.25       3.37     164.         1.279
     5.5        0.        18.74       3.834
     5.5        0.        24.12       4.38
     5.5        0.        30.07       4.226
     5.5        0.        34.98       3.507
     5.5        0.        41.53       2.553
     5.5        0.        45.95       1.628
     5.5        0.        56.95       0.6628
     5.5        0.        67.78       0.6167
     5.5        0.        72.62       0.7043
     5.5        0.        78.02       0.7188
     5.5        0.        83.41       0.7616
     5.5        0.        88.3        0.6687
     5.5        0.        93.2        0.5761
     5.5        0.        98.09       0.5252
     5.5        0.       103.         0.4879
     5.5        0.       107.8        0.4705
     5.5        0.       113.2        0.4625
     5.5        0.       118.1        0.4992
     5.5        0.       122.9        0.5389
     5.5        0.       127.8        0.6155
     5.5        0.       132.1        0.6399
     5.5        0.       137.5        0.7309
     5.5        0.       141.3        0.7597
     5.5        0.       145.6        0.7326
     5.5        0.       151.         0.791
     5.5        0.       154.8        0.7484
     5.5        0.       160.2        0.7638
     5.5        0.       164.         0.7227
     5.5        3.37      18.36       5.836
     5.5        3.37      24.28       6.657
     5.5        3.37      30.24       5.959
     5.5        3.37      35.14       5.137
     5.5        3.37      40.57       4.429      0.6176
     5.5        3.37      46.56       3.545      0.5707
     5.5        3.37      50.96       2.535      0.4082
     5.5        3.37      57.52       1.715      0.3135
     5.5        3.37      62.47       1.118
     5.5        3.37      67.93       0.8457
     5.5        3.37      73.35       0.8156
     5.5        3.37      78.19       0.8796
     5.5        3.37      83.6        0.8971
     5.5        3.37      89.52       1.004
     5.5        3.37      94.38       1.024
     5.5        3.37      99.78       1.064
     5.5        3.37     104.1        1.046
     5.5        3.37     109.5        1.086
     5.5        3.37     113.3        1.108
     5.5        3.37     118.1        1.172
     5.5        3.37     123.         1.152
     5.5        3.37     128.4        1.09
     5.5        3.37     132.7        1.176
     5.5        3.37     136.5        1.199
     5.5        3.37     140.8        1.245
     5.5        3.37     145.7        1.223
     5.5        3.37     150.         1.224
     5.5        3.37     155.4        1.203
     5.5        3.37     159.8        1.204
     5.5        3.37     163.6        1.118
     5.75       0.        23.24       3.453
     5.75       0.        28.11       3.862
     5.75       0.        33.51       4.163
     5.75       0.        39.46       3.403
     5.75       0.        44.86       2.312
     5.75       0.        50.27       1.542
     5.75       0.        61.08       0.6138
     5.75       0.        70.81       0.6267
     5.75       0.        76.76       0.6756
     5.75       0.        87.57       0.6649
     5.75       0.        91.89       0.6297
     5.75       0.        97.3        0.5644
     5.75       0.       102.2        0.4785
     5.75       0.       106.5        0.4287
     5.75       0.       111.9        0.4137
     5.75       0.       117.3        0.4714
     5.75       0.       122.2        0.4896
     5.75       0.       127.6        0.5087
     5.75       0.       131.4        0.5584
     5.75       0.       136.2        0.648
     5.75       0.       141.6        0.7116
     5.75       0.       145.4        0.7957
     5.75       0.       150.3        0.7537
     5.75       0.       155.1        0.7829
     5.75       0.       158.9        0.7693
     5.75       0.       163.8        0.7286
     5.75       0.       168.1        0.716
     5.75       3.37      18.45       6.103
     5.75       3.37      24.96       6.337
     5.75       3.37      29.85       6.005
     5.75       3.37      35.29       5.388      0.7343
     5.75       3.37      62.23       0.8899
     5.75       3.37      68.76       0.7986
     5.75       3.37      73.66       0.7164
     5.75       3.37      79.06       0.8148
     5.75       3.37      84.46       0.9438
     5.75       3.37      89.87       0.9978
     5.75       3.37      94.73       1.074
     5.75       3.37     100.2        1.037
     5.75       3.37     105.         1.057
     5.75       3.37     109.9        1.117
     5.75       3.37     114.2        1.16
     5.75       3.37     119.1        1.119
     5.75       3.37     124.         1.227
     5.75       3.37     128.9        1.121
     5.75       3.37     132.7        1.207
     5.75       3.37     138.1        1.186
     5.75       3.37     141.9        1.187
     5.75       3.37     146.8        1.232
     5.75       3.37     151.1        1.105
     5.75       3.37     156.6        1.067
     5.75       3.37     160.4        1.011
     5.75       3.37     165.8        1.012
     6.         0.        19.61       3.641
     6.         0.        24.97       4.566
     6.         0.        30.38       4.405
     6.         0.        35.31       3.267
     6.         0.        41.33       2.292
     6.         0.        46.85       1.358
     6.         0.        52.35       0.867
     6.         0.        57.83       0.6195
     6.         0.        67.54       0.6823
     6.         0.        71.3        0.7788
     6.         0.        78.32       0.7804
     6.         0.        83.73       0.7671
     6.         0.        88.1        0.6132
     6.         0.        93.53       0.5488
     6.         0.        98.45       0.4307
     6.         0.       103.3        0.4001
     6.         0.       108.2        0.3859
     6.         0.       113.6        0.4575
     6.         0.       117.4        0.4495
     6.         0.       123.8        0.5432
     6.         0.       127.6        0.5541
     6.         0.       132.4        0.6094
     6.         0.       137.3        0.709
     6.         0.       141.6        0.6837
     6.         0.       146.4        0.752
     6.         0.       151.3        0.7818
     6.         0.       155.6        0.7975
     6.         0.       160.5        0.7409
     6.         0.       164.8        0.728
     6.         3.37      18.15       5.995
     6.         3.37      23.53       6.58
     6.         3.37      29.5        6.008
     6.         3.37      35.46       5.691      0.6885
     6.         3.37      61.87       0.8114
     6.         3.37      67.85       0.701
     6.         3.37      73.24       0.7554
     6.         3.37      78.63       0.7991
     6.         3.37      83.47       0.8933
     6.         3.37      89.4        0.9451
     6.         3.37      94.26       0.9635
     6.         3.37      99.1        1.057
     6.         3.37     104.5        1.059
     6.         3.37     108.8        1.04
     6.         3.37     113.1        1.206
     6.         3.37     118.         1.185
     6.         3.37     122.9        1.231
     6.         3.37     127.7        1.144
     6.         3.37     132.         1.188
     6.         3.37     136.4        1.211
     6.         3.37     140.7        1.19
     6.         3.37     145.6        1.191
     6.         3.37     149.9        1.128
     6.         3.37     155.3        1.03
     6.         3.37     159.1        0.9933
     6.         3.37     163.5        0.9235
ENDDATA            378
ENDSUBENT          390
SUBENT        A1432004   19990323   19990505
BIB                  3          3
REACTION   (5-B-10(D,P)5-B-11,PAR,DA,,,EXP)
ERR-ANALYS (ANG-ERR) Digitizing error
STATUS     (CURVE) Fig 4,5
ENDBIB               3
COMMON               2          3
ANG-ERR    DATA-ERR
ADEG       PER-CENT
 0.4        0.7
ENDCOMMON            3
DATA                 5        312
EN         E-LVL      ANG        DATA       ERR-S
MEV        MEV        ADEG       MB/SR      MB/SR
     4.5        0.        21.39       1.542
     4.5        0.        32.15       1.462
     4.5        0.        37.53       1.343
     4.5        0.        47.81       1.008
     4.5        0.        53.19       0.8955
     4.5        0.        58.08       0.8226
     4.5        0.        69.34       0.7174
     4.5        0.        79.61       0.6363
     4.5        0.        88.91       0.546
     4.5        0.        99.18       0.5178
     4.5        0.       109.         0.5707
     4.5        0.       119.2        0.6186
     4.5        0.       127.6        0.5968
     4.5        0.       138.3        0.636
     4.5        0.       147.1        0.6239
     4.5        0.       157.4        0.6325
     4.5        2.12      20.68       0.519
     4.5        2.12      32.01       0.2724
     4.5        2.12      36.89       0.2388
     4.5        2.12      48.09       0.1994
     4.5        2.12      53.44       0.1899
     4.5        2.12      58.27       0.1998
     4.5        2.12      68.94       0.2003
     4.5        2.12      79.13       0.1974
     4.5        2.12      88.88       0.1594
     4.5        2.12      98.6        0.147
     4.5        2.12     109.3        0.1473
     4.5        2.12     119.         0.1293
     4.5        2.12     128.2        0.1581
     4.5        2.12     138.3        0.1584
     4.5        2.12     147.1        0.1485
     4.5        2.12     157.2        0.218
     4.5        4.44      21.05       1.564
     4.5        4.44      31.75       1.557
     4.5        4.44      36.62       1.268
     4.5        4.44      47.8        0.9471
     4.5        4.44      52.18       0.7092
     4.5        4.44      58.01       0.6725
     4.5        4.44      68.71       0.5847
     4.5        4.44      78.93       0.5086
     4.5        4.44      88.65       0.5419
     4.5        4.44      98.87       0.6074
     4.5        4.44     109.1        0.6693
     4.5        4.44     118.3        0.6231
     4.5        4.44     127.6        0.6103
     4.5        4.44     138.3        0.6724
     4.5        4.44     146.5        0.6477
     4.5        4.44     156.3        0.6451
     4.5        5.02      31.95       0.7444     0.238
     4.5        5.02      36.82       0.6409     0.2049
     4.5        5.02      47.51       0.3878     0.0601
     4.5        5.02      52.51       0.2878
     4.5        5.02      58.29       0.303
     4.5        5.02      69.39       0.3248
     4.5        5.02      78.57       0.3365
     4.5        5.02      89.23       0.305
     4.5        5.02      99.4        0.2811
     4.5        5.02     109.6        0.277
     4.5        5.02     119.2        0.264
     4.5        5.02     128.4        0.2432
     4.75       0.        17.04       1.178
     4.75       0.        27.88       1.539
     4.75       0.        38.11       1.296
     4.75       0.        48.79       0.9692
     4.75       0.        58.53       0.8161
     4.75       0.        69.76       0.7602
     4.75       0.        80.         0.6733
     4.75       0.        90.24       0.5864
     4.75       0.       100.         0.5373
     4.75       0.       109.8        0.583
     4.75       0.       120.1        0.5812
     4.75       0.       129.4        0.6308
     4.75       0.       139.2        0.6397
     4.75       0.       148.         0.6065
     4.75       0.       158.3        0.6361
     4.75       2.12      15.79       0.3815     0.0461
     4.75       2.12      26.05       0.2851     0.0307
     4.75       2.12      36.78       0.2275
     4.75       2.12      47.93       0.2243
     4.75       2.12      58.18       0.1789     0.0219
     4.75       2.12      68.36       0.1764     0.0213
     4.75       2.12      78.54       0.1768
     4.75       2.12      88.78       0.1457
     4.75       2.12      98.49       0.139
     4.75       2.12     108.7        0.1371
     4.75       2.12     118.4        0.1373
     4.75       2.12     128.5        0.1568
     4.75       2.12     137.7        0.1973
     4.75       2.12     146.9        0.1977
     4.75       2.12     157.         0.2257
     4.75       4.44      26.34       1.375
     4.75       4.44      36.1        1.261
     4.75       4.44      47.32       0.9024
     4.75       4.44      57.07       0.7496
     4.75       4.44      68.29       0.6539
     4.75       4.44      78.54       0.6095
     4.75       4.44      88.78       0.6273
     4.75       4.44      98.54       0.6457
     4.75       4.44     108.8        0.6869
     4.75       4.44     118.         0.5997
     4.75       4.44     127.8        0.6486
     4.75       4.44     137.6        0.6148
     4.75       4.44     146.3        0.6228
     4.75       4.44     156.6        0.571
     4.75       5.02      36.79       0.4619     0.1375
     4.75       5.02      48.49       0.3183     0.0343
     4.75       5.02      58.64       0.3295
     4.75       5.02      69.28       0.3145     0.0323
     4.75       5.02      78.96       0.305      0.0368
     4.75       5.02      89.6        0.3007
     4.75       5.02      99.74       0.3063     0.0314
     4.75       5.02     109.5        0.2566
     4.75       5.02     120.6        0.215
     4.75       5.02     129.7        0.2841     0.0291
     4.75       5.02     138.9        0.346      0.0373
     4.75       5.02     147.6        0.3467
     4.75       5.02     157.7        0.4155     0.0448
     5.         0.        20.9        1.362
     5.         0.        31.67       1.313
     5.         0.        37.54       1.225
     5.         0.        47.81       0.9007
     5.         0.        58.09       0.8114
     5.         0.        68.36       0.7433
     5.         0.        79.13       0.6925
     5.         0.        83.53       0.6464
     5.         0.        88.91       0.6239
     5.         0.        94.29       0.5725
     5.         0.        98.7        0.5435
     5.         0.       109.         0.57
     5.         0.       118.8        0.6081
     5.         0.       128.1        0.6168
     5.         0.       137.8        0.6361
     5.         0.       147.1        0.6344
     5.         0.       156.9        0.6543
     5.         2.12      19.54       0.288      0.0035
     5.         2.12      30.3        0.2409     0.0029
     5.         2.12      35.6        0.2533
     5.         2.12      46.44       0.1858     0.002
     5.         2.12      57.54       0.2022     0.0019
     5.         2.12      66.88       0.1609
     5.         2.12      77.48       0.181
     5.         2.12      82.39       0.1614
     5.         2.12      87.3        0.144
     5.         2.12      92.65       0.1395
     5.         2.12      97.53       0.1329
     5.         2.12     107.7        0.1311
     5.         2.12     117.8        0.1523
     5.         2.12     127.5        0.1526
     5.         2.12     137.1        0.1802
     5.         2.12     146.3        0.2025
     5.         2.12     155.9        0.2513
     5.         4.44      20.57       1.59
     5.         4.44      30.78       1.433
     5.         4.44      36.62       1.429
     5.         4.44      46.83       0.9064
     5.         4.44      56.56       0.7639
     5.         4.44      67.74       0.7731
     5.         4.44      77.95       0.6514
     5.         4.44      82.82       0.6501
     5.         4.44      87.68       0.6275
     5.         4.44      93.03       0.6366
     5.         4.44      97.89       0.6353
     5.         4.44     107.6        0.5629
     5.         4.44     117.3        0.5701
     5.         4.44     127.1        0.5584
     5.         4.44     136.8        0.5561
     5.         4.44     146.5        0.5181
     5.         4.44     155.8        0.4747
     5.         5.02      22.23       0.3417     0.0421
     5.         5.02      32.31       0.4454     0.0462
     5.         5.02      37.66       0.3974
     5.         5.02      49.32       0.3217     0.035
     5.         5.02      59.5        0.2874
     5.         5.02      69.62       0.3178
     5.         5.02      79.83       0.2572
     5.         5.02      84.63       0.2889     0.0299
     5.         5.02      89.96       0.2798
     5.         5.02      95.27       0.2848
     5.         5.02     100.1        0.2758
     5.         5.02     109.8        0.2345     0.0289
     5.         5.02     119.9        0.2862     0.0353
     5.         5.02     130.         0.338
     5.         5.02     139.2        0.297
     5.         5.02     147.9        0.3449
     5.         5.02     158.         0.3752
     5.25       0.        19.92       1.403
     5.25       0.        31.18       1.266
     5.25       0.        36.56       1.202
     5.25       0.        42.43       0.9984
     5.25       0.        47.32       0.8297
     5.25       0.        52.71       0.8012
     5.25       0.        57.6        0.7737
     5.25       0.        68.36       0.746
     5.25       0.        79.13       0.6727
     5.25       0.        88.91       0.5772
     5.25       0.        98.7        0.5474
     5.25       0.       109.         0.5643
     5.25       0.       118.8        0.622
     5.25       0.       128.5        0.6856
     5.25       0.       137.8        0.6953
     5.25       2.12      19.78       0.2502     0.0451
     5.25       2.12      30.03       0.2196     0.0396
     5.25       2.12      35.88       0.2057
     5.25       2.12      41.18       0.2201
     5.25       2.12      46.62       0.1805
     5.25       2.12      51.47       0.1807
     5.25       2.12      57.31       0.1722
     5.25       2.12      67.41       0.2003     0.0415
     5.25       2.12      76.69       0.1787
     5.25       2.12      86.96       0.1517
     5.25       2.12      97.22       0.1309
     5.25       2.12     107.5        0.1023
     5.25       2.12     117.1        0.1293
     5.25       2.12     127.2        0.1385
     5.25       2.12     136.3        0.1901
     5.25       4.44      20.08       1.238
     5.25       4.44      30.29       1.318
     5.25       4.44      36.13       1.17
     5.25       4.44      41.48       1.038
     5.25       4.44      46.83       0.8064
     5.25       4.44      51.69       0.7783
     5.25       4.44      57.04       0.7144
     5.25       4.44      67.25       0.6654
     5.25       4.44      77.47       0.5894
     5.25       4.44      87.19       0.6276
     5.25       4.44      97.41       0.556
     5.25       4.44     107.1        0.5094
     5.25       4.44     116.9        0.5158
     5.25       4.44     126.6        0.5224
     5.25       4.44     136.8        0.5289
     5.25       5.02      38.         0.383      0.0401
     5.25       5.02      43.76       0.4379     0.0458
     5.25       5.02      48.72       0.2755     0.0302
     5.25       5.02      54.05       0.2624
     5.25       5.02      59.87       0.2418
     5.25       5.02      70.01       0.2505
     5.25       5.02      80.16       0.251
     5.25       5.02      89.82       0.26
     5.25       5.02     100.         0.2281     0.0238
     5.25       5.02     110.1        0.2403
     5.25       5.02     120.2        0.289
     5.25       5.02     130.4        0.3147
     5.25       5.02     139.6        0.2854
     5.5        0.        23.01       1.367
     5.5        0.        33.74       1.23
     5.5        0.        39.09       1.089
     5.5        0.        44.43       0.9324
     5.5        0.        49.27       0.7846
     5.5        0.        54.64       0.7315
     5.5        0.        60.02       0.7304
     5.5        0.        70.78       0.728
     5.5        0.        81.04       0.6778
     5.5        0.        90.77       0.5695
     5.5        0.       101.         0.4867
     5.5        0.       111.3        0.5286
     5.5        0.       121.1        0.6043
     5.5        0.       130.4        0.6678
     5.5        0.       140.2        0.6774
     5.5        0.       150.         0.6639
     5.5        0.       159.3        0.6509
     5.5        2.12      12.89       0.2936
     5.5        2.12      24.53       0.2626
     5.5        2.12      34.22       0.2386
     5.5        2.12      40.53       0.2132
     5.5        2.12      45.86       0.2
     5.5        2.12      51.19       0.1815
     5.5        2.12      56.04       0.1817
     5.5        2.12      61.86       0.1705
     5.5        2.12      72.04       0.1794
     5.5        2.12      81.74       0.1603
     5.5        2.12      91.43       0.13
     5.5        2.12     101.6        0.1303
     5.5        2.12     111.8        0.1327
     5.5        2.12     122.         0.1396
     5.5        2.12     131.7        0.1311
     5.5        2.12     140.9        0.1623
     5.5        2.12     151.6        0.2404
     5.5        2.12     160.3        0.27
     5.5        4.44      27.         1.301
     5.5        4.44      37.14       1.172
     5.5        4.44      42.45       1.094
     5.5        4.44      47.66       0.9083
     5.5        4.44      52.9        0.7669
     5.5        4.44      57.66       0.6696
     5.5        4.44      63.98       0.6679
     5.5        4.44      73.63       0.5918
     5.5        4.44      83.35       0.5894
     5.5        4.44      93.98       0.5308
     5.5        4.44     104.1        0.4944
     5.5        4.44     113.3        0.4607
     5.5        4.44     123.1        0.5072
     5.5        4.44     133.3        0.505
     5.5        4.44     142.1        0.4867
     5.5        4.44     152.2        0.4609
     5.5        4.44     161.9        0.4514
     5.5        5.02      25.24       0.2604     0.0267
     5.5        5.02      35.39       0.4051     0.0795
     5.5        5.02      41.67       0.3503     0.036
     5.5        5.02      46.51       0.393      0.0404
     5.5        5.02      51.82       0.2374
     5.5        5.02      56.66       0.2086
     5.5        5.02      62.46       0.1864
     5.5        5.02      72.61       0.2271     0.0193
     5.5        5.02      82.76       0.2202     0.0205
     5.5        5.02      92.43       0.2555     0.0217
     5.5        5.02     102.6        0.2399     0.0223
     5.5        5.02     112.7        0.2043
     5.5        5.02     122.9        0.2185     0.0267
     5.5        5.02     133.         0.2262     0.0244
     5.5        5.02     142.2        0.2266
     5.5        5.02     151.9        0.2672
     5.5        5.02     161.6        0.3255
ENDDATA            314
ENDSUBENT          326
SUBENT        A1432005   19990323   19990505
BIB                  3          3
REACTION   (3-LI-6(D,EL)3-LI-6,,DA,,,EXP)
ERR-ANALYS (ANG-ERR) Digitizing error
STATUS     (CURVE) Fig.6
ENDBIB               3
COMMON               2          3
ANG-ERR    DATA-ERR
ADEG       PER-CENT
 0.6        0.4
ENDCOMMON            3
DATA                 4        127
EN         ANG-CM     DATA       ERR-S
MEV        ADEG       MB/SR      MB/SR
     4.5       40.94     234.8
     4.5       47.32     162.4
     4.5       52.97     103.1
     4.5       59.34      68.73
     4.5       65.36      47.55
     4.5       71.02      31.7
     4.5       76.69      24.5
     4.5       83.1       22.23
     4.5       88.8       22.26       2.613
     4.5       99.48      21.23       2.23
     4.5      104.5       19.02
     4.5      109.8       18.13
     4.5      114.1       18.83
     4.5      119.1       18.39
     4.5      123.7       19.58
     4.5      128.3       19.12
     4.5      132.6       19.86
     4.5      136.2       19.63
     4.5      140.1       19.89
     4.5      144.        20.66
     4.5      148.7       21.2
     4.5      151.9       21.74
     4.5      155.8       21.49
     4.5      158.6       21.24
     4.5      162.2       21.52
     4.5      166.1       20.
     4.5      170.        20.27
     4.75      39.58     232.7
     4.75      46.39     151.2
     4.75      52.85     100.7
     4.75      58.96      61.48
     4.75      65.05      43.01
     4.75      71.51      28.29
     4.75      77.23      22.96
     4.75     104.7       18.26
     4.75     109.7       18.97
     4.75     114.7       19.47
     4.75     119.3       20.99
     4.75     124.3       22.91
     4.75     127.8       20.77
     4.75     133.2       21.58
     4.75     137.1       22.69
     4.75     140.3       24.15
     4.75     144.6       24.47
     4.75     148.8       23.61
     4.75     152.4       26.08
     4.75     156.3       25.15
     4.75     159.9       24.56
     4.75     162.7       24.27
     4.75     167.        23.41
     4.75     170.2       21.22
     5.        39.57     243.6
     5.        46.43     150.9
     5.        52.57      93.41
     5.        59.08      53.72
     5.        65.18      43.09
     5.        70.96      28.03       3.29
     5.        76.7       22.2        2.331
     5.        83.12      21.69       5.723
     5.        94.17      21.21       5.269
     5.       104.5       20.24
     5.       109.5       19.53
     5.       114.1       21.04
     5.       118.7       23.54
     5.       123.7       24.45
     5.       128.3       24.78
     5.       133.        25.11
     5.       136.5       27.06
     5.       140.4       27.08
     5.       144.4       27.44
     5.       149.        27.13
     5.       152.2       30.33
     5.       156.1       29.62
     5.       159.3       30.01
     5.       162.5       28.58
     5.       166.4       28.26
     5.       170.        26.59
     5.25      47.12     150.1
     5.25      53.59      90.74
     5.25      59.7       52.22
     5.25      65.45      34.83
     5.25      71.55      23.81
     5.25      94.73      18.94
     5.25     100.1       20.42
     5.25     105.1       20.69
     5.25     110.8       20.72
     5.25     115.4       21.26
     5.25     119.7       23.19
     5.25     124.6       25.62
     5.25     128.5       26.28
     5.25     133.9       27.98
     5.25     137.8       28.7
     5.25     141.4       30.54
     5.25     145.6       31.72
     5.25     149.5       32.94
     5.25     153.5       35.06
     5.25     157.        35.52
     5.25     160.9       35.99
     5.25     163.4       35.14
     5.25     167.4       35.6
     5.25     171.3       35.63
     5.5       38.68     197.1
     5.5       45.23     124.5
     5.5       51.43      73.91
     5.5       58.01      41.23
     5.5       63.49      25.4
     5.5       68.15      23.01
     5.5       87.09      18.7
     5.5       93.17      17.59
     5.5       98.12      19.95
     5.5      103.1       19.97
     5.5      107.7       19.99
     5.5      113.5       18.58
     5.5      117.7       21.59
     5.5      122.7       21.61
     5.5      127.3       23.6
     5.5      131.9       24.22
     5.5      135.8       25.8
     5.5      139.4       26.14
     5.5      143.3       27.85
     5.5      147.5       28.93
     5.5      151.5       29.69
     5.5      155.        31.23
     5.5      157.9       30.48
     5.5      161.1       31.66
     5.5      165.7       28.69
     5.5      169.3       29.8
ENDDATA            129
ENDSUBENT          141
SUBENT        A1432006   19990323   19990505
BIB                  3          3
REACTION   (4-BE-9(D,EL)4-BE-9,,DA,,,EXP)
ERR-ANALYS (ANG-ERR) Digitizing error
STATUS     (CURVE) Fig 6 right
ENDBIB               3
COMMON               2          3
ANG-ERR    DATA-ERR
ADEG       PER-CENT
 0.4        0.5
ENDCOMMON            3
DATA                 4        141
EN         ANG-CM     DATA-CM    ERR-S
MEV        ADEG       MB/SR      MB/SR
     4.5       36.54     533.2      111.4
     4.5       41.7      320.2       67.68
     4.5       48.01     173.4       45.46
     4.5       53.52      87.77
     4.5       59.27      47.96
     4.5       64.96      29.93
     4.5       81.67      25.49
     4.5       87.1       26.56
     4.5       92.81      26.91
     4.5       97.78      24.08
     4.5      103.        21.76
     4.5      108.2       19.86
     4.5      113.2       17.27
     4.5      117.        16.67
     4.5      139.9       11.13
     4.75      47.16     156.4       20.47
     4.75      52.78      74.92       9.307
     4.75      58.36      38.36
     4.75      75.51      25.31
     4.75      80.93      26.37
     4.75      86.38      26.46
     4.75      91.87      24.85
     4.75      97.09      23.33
     4.75     102.3       20.5
     4.75     107.6       18.7
     4.75     112.3       16.74
     4.75     117.        13.37
     4.75     126.6        8.699
     4.75     130.6        9.408
     4.75     151.9       14.6
     4.75     155.8       18.03
     4.75     159.9       20.06
     4.75     163.9       22.32
     5.        37.04     446.3       97.63
     5.        42.97     260.9       30.29
     5.        48.7      128.6       14.16
     5.        54.46      58.72
     5.        60.42      32.12       3.201
     5.        77.15      24.89
     5.        82.59      25.21
     5.        87.76      25.77
     5.        93.79      23.98
     5.        98.74      21.46
     5.       103.7       19.03
     5.       108.9       16.72
     5.       113.9       14.97
     5.       123.         9.824
     5.       128.         8.877
     5.       135.1        7.589
     5.       149.1       12.65
     5.       153.4       15.48
     5.       157.1       17.56
     5.       161.2       20.48
     5.       165.5       21.95
     5.25      33.68     446.3       98.71
     5.25      39.78     243.6       32.44
     5.25      45.15     116.3
     5.25      51.13      49.56
     5.25      56.72      25.79
     5.25      67.71      22.51
     5.25      73.94      23.7
     5.25      78.82      24.93
     5.25      84.54      25.01
     5.25      89.79      22.39
     5.25      94.76      20.03
     5.25     100.3       17.93
     5.25     105.3       15.15
     5.25     114.2       10.51
     5.25     119.5        8.719
     5.25     133.7        9.491
     5.25     137.2       10.07
     5.25     141.2       10.49
     5.25     145.5       13.09
     5.25     149.7       15.
     5.25     154.        17.84
     5.25     158.        20.05
     5.25     161.7       22.75
     5.5       36.3      445.3       86.1
     5.5       42.45     227.1       29.31
     5.5       48.65     105.7
     5.5       54.04      42.8
     5.5       60.01      30.13       4.284
     5.5       71.28      22.58
     5.5       77.48      23.68
     5.5       82.81      23.71
     5.5       87.68      24.49
     5.5       93.08      21.69
     5.5       98.47      19.51
     5.5      103.        16.5
     5.5      113.5       10.61       1.384
     5.5      131.         7.961
     5.5      136.3        8.348
     5.5      139.8        9.593
     5.5      144.1       10.69
     5.5      148.1       12.48
     5.5      152.4       15.73
     5.5      156.8       17.53
     5.5      159.8       21.09
     5.5      164.2       22.8
     5.75      36.86     434.6       73.1
     5.75      41.65     211.8       27.64
     5.75      48.29      89.95
     5.75      53.65      34.3
     5.75      70.79      22.13
     5.75      76.99      24.32
     5.75      82.34      24.
     5.75      86.83      22.27
     5.75      92.66      20.67
     5.75      98.07      18.04
     5.75     113.        10.45
     5.75     127.         8.218
     5.75     131.         7.741
     5.75     136.3        7.877
     5.75     139.8        9.337
     5.75     144.2       11.24
     5.75     148.1       14.39
     5.75     152.        17.86
     5.75     156.4       20.54
     5.75     159.9       25.11
     5.75     163.8       27.15
     6.        40.31     241.4       44.18
     6.        45.81     112.6       12.7
     6.        51.77      46.49
     6.        57.3       18.61
     6.        74.24      14.2
     6.        80.9       15.12
     6.        85.35      14.69
     6.        96.06      11.89
     6.       101.4       10.22
     6.       111.7        6.784
     6.       125.1        5.251
     6.       130.         5.022
     6.       133.6        4.729
     6.       139.4        4.958
     6.       142.9        6.147
     6.       146.8        7.506
     6.       150.8       10.04       1.156
     6.       155.2       12.27       1.244
     6.       159.1       13.88       1.565
     6.       163.1       14.32       1.648
     6.       166.6       17.22       1.944
ENDDATA            143
ENDSUBENT          155
SUBENT        A1432007   19990323   19990505
BIB                  3          3
REACTION   (4-BE-9(D,P)4-BE-10,PAR,DA,,REL,EXP)
ERR-ANALYS (EN-ERR) Digitizing error
STATUS     (CURVE) Fig 7
ENDBIB               3
COMMON               3          3
E-LVL      EN-ERR     DATA-ERR
MEV        MEV        ARB-UNITS
 0.0        0.002      0.002
ENDCOMMON            3
DATA                 4         95
EN         ANG        DATA       ERR-S
MEV        ADEG       ARB-UNITS  ARB-UNITS
     4.489    160.         0.642      0.0262
     4.492    145.         0.7796     0.0311
     4.497    115.         0.8214     0.0312
     4.497    130.         0.7729     0.0326
     4.499    100.         0.9229     0.0283
     4.59     160.         0.7084     0.0278
     4.594    145.         0.8744     0.0327
     4.597    100.         0.8978     0.0314
     4.597    130.         0.7962     0.0326
     4.6      115.         0.7933     0.0296
     4.69     160.         0.7516     0.0278
     4.694    145.         0.8916     0.0327
     4.698    100.         0.9135     0.033
     4.699    115.         0.8822     0.0312
     4.699    130.         0.8553     0.0311
     4.742    160.         0.7671     0.0293
     4.745    145.         0.9336     0.0296
     4.749    100.         0.8648     0.0314
     4.751    115.         0.8635     0.0312
     4.751    130.         0.9019     0.0311
     4.792    160.         0.7964     0.0293
     4.795    145.         0.9476     0.0311
     4.799    100.         0.8538     0.0314
     4.801    115.         0.7839     0.0296
     4.801    130.         0.8739     0.0295
     4.893    160.         0.8551     0.0278
     4.895    145.         0.9958     0.0311
     4.901    100.         0.8365     0.0299
     4.901    115.         0.8666     0.0312
     4.901    130.         0.9578     0.0342
     4.993    160.         0.9014     0.0324
     4.997    145.         0.9802     0.0311
     4.999    115.         0.8307     0.0312
     5.       100.         0.8019     0.0299
     5.003    130.         0.9205     0.0326
     5.092    160.         0.8705     0.0324
     5.099    145.         0.9989     0.0264
     5.1      100.         0.8129     0.0267
     5.101    115.         0.812      0.0296
     5.103    130.         0.891      0.0295
     5.194    160.         0.818      0.0293
     5.197    145.         1.002      0.0296
     5.201    100.         0.673      0.0283
     5.201    115.         0.7699     0.0296
     5.203    130.         0.8895     0.0311
     5.244    160.         0.8659     0.0324
     5.247    145.         0.9927     0.0296
     5.249    100.         0.6714     0.0283
     5.252    115.         0.7434     0.0296
     5.252    130.         0.9112     0.0295
     5.294    160.         0.8983     0.0309
     5.298    145.         0.9927     0.0311
     5.299    100.         0.706      0.0283
     5.302    115.         0.7792     0.0312
     5.302    130.         0.8475     0.0342
     5.393    160.         0.8551     0.034
     5.396    145.         0.9958     0.0296
     5.4      100.         0.6792     0.0299
     5.402    115.         0.7122     0.0312
     5.402    130.         0.9097     0.028
     5.495    160.         0.8489     0.0293
     5.498    100.         0.6903     0.0283
     5.498    145.         0.946      0.0296
     5.501    115.         0.6685     0.0328
     5.504    130.         0.8895     0.0281
     5.595    160.         0.781      0.0278
     5.598    145.         0.96       0.0296
     5.6      100.         0.5708     0.0299
     5.602    115.         0.6825     0.0312
     5.602    130.         0.8646     0.0311
     5.695    160.         0.7532     0.034
     5.699    145.         0.9024     0.0342
     5.701    100.         0.5833     0.033
     5.702    115.         0.7137     0.0281
     5.704    130.         0.9128     0.0311
     5.745    160.         0.8412     0.0324
     5.748    145.         0.9273     0.0296
     5.751    100.         0.5896     0.0283
     5.753    115.         0.6576     0.0312
     5.754    130.         0.8926     0.0311
     5.795    160.         0.8767     0.0309
     5.799    100.         0.5912     0.0283
     5.799    145.         0.9398     0.0311
     5.801    115.         0.7184     0.0281
     5.804    130.         0.8382     0.0311
     5.894    160.         0.8628     0.0293
     5.898    100.         0.5456     0.0252
     5.899    145.         0.8776     0.0311
     5.901    115.         0.7481     0.0328
     5.904    130.         0.8289     0.028
     5.997    145.         0.9118     0.0327
     5.997    160.         0.8288     0.0309
     5.998    100.         0.533      0.0252
     6.004    115.         0.6935     0.0296
     6.004    130.         0.9034     0.028
ENDDATA             97
ENDSUBENT          109
SUBENT        A1432008   19990323   19990505
BIB                  3          3
REACTION   (4-BE-9(D,P)4-BE-10,PAR,DA,,REL,EXP)
ERR-ANALYS (EN-ERR) Digitizing error
STATUS     (CURVE) Fig 8
ENDBIB               3
COMMON               3          3
E-LVL      EN-ERR     DATA-ERR
MEV        MEV        ARB-UNITS
  3.370     0.002      0.002
ENDCOMMON            3
DATA                 4         94
EN         ANG        DATA       ERR-S
MEV        ADEG       ARB-UNITS  ARB-UNITS
     4.491    115.         1.96       0.0465
     4.493    160.         2.002      0.0454
     4.495    100.         2.031      0.0466
     4.496    130.         1.858      0.0435
     4.506    145.         2.         0.0408
     4.593    160.         1.973      0.0454
     4.594    115.         1.802      0.0465
     4.595    130.         1.81       0.0435
     4.597    100.         1.941      0.0482
     4.609    145.         1.873      0.0454
     4.694    115.         1.833      0.045
     4.695    130.         1.771      0.0449
     4.695    160.         1.911      0.047
     4.698    100.         1.922      0.0466
     4.742    115.         1.814      0.045
     4.745    160.         1.84       0.0454
     4.746    130.         1.762      0.0435
     4.748    100.         1.812      0.0513
     4.756    145.         1.721      0.0454
     4.793    115.         1.901      0.0465
     4.795    130.         1.752      0.0435
     4.795    160.         1.851      0.0454
     4.798    100.         1.933      0.0451
     4.807    145.         1.851      0.0439
     4.891    115.         1.963      0.045
     4.895    130.         1.705      0.0435
     4.895    160.         1.771      0.0454
     4.899    100.         1.762      0.0466
     4.906    145.         1.742      0.0439
     4.991    115.         1.834      0.0465
     4.993    130.         1.744      0.0404
     4.995    160.         1.812      0.0438
     4.999    100.         1.762      0.0451
     5.005    145.         1.775      0.0454
     5.091    115.         1.823      0.0481
     5.094    130.         1.621      0.0449
     5.095    160.         1.623      0.0438
     5.099    100.         1.703      0.0435
     5.105    145.         1.734      0.047
     5.193    115.         1.794      0.045
     5.194    130.         1.606      0.0435
     5.195    160.         1.584      0.0423
     5.197    100.         1.852      0.0435
     5.205    145.         1.693      0.0454
     5.242    115.         1.704      0.0465
     5.244    130.         1.744      0.0404
     5.245    160.         1.632      0.0454
     5.247    100.         1.784      0.0451
     5.254    145.         1.734      0.0439
     5.291    115.         1.823      0.0465
     5.295    130.         1.611      0.0449
     5.295    160.         1.574      0.0423
     5.298    100.         1.771      0.0451
     5.305    145.         1.643      0.047
     5.392    115.         1.795      0.0465
     5.395    160.         1.449      0.0438
     5.396    130.         1.62       0.0435
     5.398    100.         1.804      0.0466
     5.404    145.         1.433      0.0376
     5.493    115.         1.685      0.0465
     5.495    160.         1.444      0.0391
     5.496    130.         1.639      0.0449
     5.498    100.         1.773      0.0466
     5.503    145.         1.613      0.047
     5.593    115.         1.695      0.045
     5.594    160.         1.325      0.0407
     5.596    100.         1.834      0.0435
     5.596    130.         1.659      0.0435
     5.604    145.         1.654      0.0439
     5.692    115.         1.785      0.0434
     5.695    160.         1.294      0.0407
     5.696    130.         1.621      0.0419
     5.698    100.         1.725      0.0466
     5.704    145.         1.46       0.0454
     5.742    115.         1.775      0.0434
     5.745    160.         1.275      0.036
     5.747    130.         1.554      0.0419
     5.748    100.         1.725      0.0466
     5.756    145.         1.464      0.0408
     5.793    115.         1.705      0.045
     5.795    160.         1.299      0.0391
     5.796    130.         1.672      0.0449
     5.797    100.         1.734      0.0466
     5.805    145.         1.525      0.0408
     5.891    115.         1.795      0.0434
     5.894    160.         1.236      0.0376
     5.895    130.         1.63       0.0449
     5.897    100.         1.697      0.0435
     5.903    145.         1.483      0.0454
     5.991    115.         1.825      0.045
     5.992    160.         1.178      0.0376
     5.995    130.         1.639      0.0435
     5.997    100.         1.684      0.042
     6.003    145.         1.475      0.0392
ENDDATA             96
ENDSUBENT          108
SUBENT        A1432009   19990323   19990505
BIB                  3          3
REACTION   (4-BE-9(D,EL)4-BE-9,PAR,DA,,REL,EXP)
ERR-ANALYS (EN-ERR) Digitizing error
STATUS     (CURVE) Fig 9
ENDBIB               3
COMMON               3          3
E-LVL      EN-ERR     DATA-ERR
MEV        MEV        ARB-UNITS
 0.0        0.002      0.002
ENDCOMMON            3
DATA                 4         46
EN         ANG        DATA       ERR-S
MEV        ADEG       ARB-UNITS  ARB-UNITS
     4.497    160.         1.316      0.068
     4.597    160.         1.335      0.0695
     4.694    160.         1.293      0.0711
     4.747    160.         1.343      0.0695
     4.755    145.         0.4559     0.0876
     4.795    160.         1.284      0.0695
     4.805    130.         0.761      0.0363
     4.805    145.         0.5843     0.0907
     4.895    160.         1.332      0.0695
     4.903    145.         0.5876     0.0845
     4.993    160.         1.336      0.0695
     5.005    130.         0.7028     0.0379
     5.006    145.         0.5441     0.097
     5.093    160.         1.373      0.0695
     5.104    145.         0.5693     0.0907
     5.105    130.         0.7345     0.0395
     5.191    160.         1.364      0.0695
     5.203    130.         0.6683     0.0347
     5.205    145.         0.532      0.0907
     5.241    160.         1.286      0.0695
     5.252    145.         0.4445     0.097
     5.254    130.         0.6541     0.0379
     5.292    160.         1.395      0.068
     5.303    130.         0.6636     0.0379
     5.303    145.         0.551      0.0876
     5.39     160.         1.436      0.0742
     5.402    130.         0.6543     0.0442
     5.402    145.         0.5543     0.0907
     5.489    160.         1.534      0.0695
     5.501    145.         0.6641     0.097
     5.502    130.         0.6733     0.0379
     5.587    160.         1.645      0.0711
     5.6      130.         0.6308     0.0363
     5.601    145.         0.6173     0.0939
     5.636    160.         1.706      0.0711
     5.7      130.         0.6499     0.0395
     5.701    145.         0.7959     0.0876
     5.75     130.         0.6405     0.0363
     5.751    145.         0.9149     0.0907
     5.785    160.         1.596      0.1777
     5.8      130.         0.6263     0.0395
     5.884    160.         1.698      0.0726
     5.898    130.         0.6233     0.0379
     5.899    145.         0.9246     0.0876
     5.998    145.         1.172      0.0907
     5.999    130.         0.6944     0.0379
ENDDATA             48
ENDSUBENT           60
ENDENTRY             9
