ENTRY            A1489   20120410   20130502   20130409       A078
SUBENT        A1489001   20120410   20130502   20130409       A078
BIB                  7         10
INSTITUTE  (2SWTZUR)
REFERENCE  (J,NP/A,242,(1),129,197504)
AUTHOR     (W.Auwarter,V.Meyer)
TITLE      Excited states of 10B from the 6Li(alpha,gamma)
           and 9Be(p,gamma) reactions
FACILITY   (VDG,2SWTZUR)
DETECTOR   (GELI) 40 cm**3
HISTORY    (19800811C) Compilation produced by RFNC-VNIIEF Sarov
           (19990321U)CNPD: corrected 4-dig. year and lower cases.
           (20120410D)Subent002 was deleted-Background counting-sb
ENDBIB              10
NOCOMMON             0          0
ENDSUBENT           13
NOSUBENT      A1489002   20120410   20130502   20130409       A078
SUBENT        A1489003   19990324   19990505   20050926       0000
BIB                  6         12
REACTION   (3-LI-6(A,G)5-B-10,PAR,DA,,REL,EXP)
SAMPLE     The target was produced by evaporating metallic lithium
            (99.3% 6Li) at the fast rate (>100 microg/cm2*min)
           onto a 0.1 mm thick tantalum backing
ERR-ANALYS (EN-ERR) Digitizing error
           (DATA-ERR) From graphic bars (statistical) and
           the digitizing
COMMENT    The transition to the ground state included escape
           peaks
FLAG       (1.) Target's thickness 50 keV
           (2.) Target's thickness 70 keV
STATUS     (CURVE) FIG 1
ENDBIB              12
COMMON               2          3
ANG        EN-ERR
ADEG       MEV
 0.         0.003
ENDCOMMON            3
DATA                 5         70
EN         E-LVL      DATA       DATA-ERR   FLAG
MEV        MEV        ARB-UNITS  ARB-UNITS  NO-DIM
     3.872      0.       163.         6.321      1.
     3.952      1.74     417.        12.92       1.
     3.961      0.       229.7        6.321      1.
     3.992      1.74     627.        12.92       1.
     4.001      0.       155.3        6.321      1.
     4.029      1.74     901.7       12.92       1.
     4.041      0.       220.1        6.321      1.
     4.072      1.74    1138.        38.7        1.
     4.072      1.74    1073.        39.1        1.
     4.079      1.74    1371.        64.6        2.
     4.087      0.       240.9       31.6        1.
     4.116      1.74    1387.        77.5        2.
     4.117      1.74    1051.        51.7        1.
     4.124      0.       286.6        6.321      2.
     4.131      0.       223.6        6.321      1.
     4.152      1.74     898.4       25.84       1.
     4.162      1.74    1210.        51.7        2.
     4.173      0.       263.2        6.321      2.
     4.174      0.       212.7        6.321      1.
     4.206      1.74     721.4       65.         1.
     4.206      1.74     980.2       65.04       2.
     4.209      0.       289.9        6.321      2.
     4.211      0.       233.1        6.321      1.
     4.246      1.74     686.        51.67       1.
     4.246      1.74     841.4       64.16       2.
     4.258      0.       260.2        6.321      1.
     4.261      0.       310.9        6.321      2.
     4.293      1.74     754.4       38.75       2.
     4.303      0.       325.2        6.321      2.
     4.334      1.74     524.9       12.92       1.
     4.338      1.74     706.1       39.18       2.
     4.346      0.       289.         6.321      1.
     4.346      0.       333.2        6.321      2.
     4.423      1.74     596.6       12.92       1.
     4.434      0.       330.4       31.59       1.
     4.464      1.74     664.6       38.75       2.
     4.469      0.       357.1       37.7        2.
     4.469      0.       350.6       38.12       1.
     4.488      1.74     575.8       38.75       1.
     4.504      0.       383.8       31.38       1.
     4.556      1.74     555.5       12.92       1.
     4.568      0.       341.9        6.321      1.
     4.619      1.74     573.5       12.92       1.
     4.638      0.       382.7       31.39       1.
     4.693      1.74     682.7       12.92       1.
     4.703      0.       448.3       25.27       1.
     4.756      1.74     649.        12.92       1.
     4.768      0.       444.7       31.39       1.
     4.834      1.74     719.9       12.92       1.
     4.839      0.       523.4       44.02       1.
     4.876      1.74     813.7       51.67       2.
     4.879      0.       543.8       37.91       2.
     4.904      1.74     725.4       12.92       1.
     4.911      0.       557.7       31.6        1.
     4.929      1.74     830.8       12.92       2.
     4.931      0.       558.5       25.27       2.
     4.973      1.74    1028.        12.92       2.
     4.976      0.       661.4       25.28       2.
     5.019      1.74    1135.        12.92       2.
     5.023      0.       752.        31.39       2.
     5.069      0.       785.4       31.38       2.
     5.071      1.74    1191.        38.7        2.
     5.114      1.74    1117.        12.92       2.
     5.121      0.       774.6       37.91       2.
     5.159      1.74    1056.        12.92       2.
     5.169      0.       725.9       31.6        2.
     5.211      1.74    1112.        12.92       2.
     5.218      0.       645.5       31.8        2.
     5.256      1.74    1245.        12.92       2.
     5.264      0.       634.7       31.59       2.
ENDDATA             72
ENDSUBENT           93
SUBENT        A1489004   19990324   19990505   20050926       0000
BIB                  5         10
REACTION   (3-LI-6(A,G)5-B-10,PAR,DA,,REL,EXP)
SAMPLE     The target was produced by evaporating metallic lithium
            (99.3% 6Li) at the fast rate (>100 microg/cm2*min)
           onto a 0.1 mm thick tantalum backing
ERR-ANALYS (EN-ERR) Digitizing error
           (DATA-ERR) From graphic bars (statistical) and
           the digitizing
FLAG       (1.) Target's thickness 50 keV
           (2.) Target's thickness 70 keV
STATUS     (CURVE) Fig 1
ENDBIB              10
COMMON               4          3
ANG        EN-ERR     E-LVL-MIN  E-LVL-MAX
ADEG       MEV        MEV        MEV
 0.          0.003      0.0        0.72
ENDCOMMON            3
DATA                 4         32
EN         DATA       DATA-ERR   FLAG
MEV        ARB-UNITS  ARB-UNITS  NO-DIM
     3.994    244.3       12.48       1.
     4.036    297.5       12.48       1.
     4.082    363.6       12.48       1.
     4.121    304.        12.48       1.
     4.124    429.2       12.48       2.
     4.168    395.        12.48       2.
     4.169    320.2       12.48       1.
     4.209    398.3       12.48       2.
     4.211    310.9       12.48       1.
     4.248    376.2       12.48       1.
     4.251    451.5       12.48       2.
     4.294    454.7       12.48       2.
     4.341    458.4       12.48       2.
     4.343    383.5       12.48       1.
     4.433    452.9       12.48       1.
     4.463    505.2       12.48       2.
     4.499    520.5       12.48       1.
     4.564    500.5       12.48       1.
     4.626    555.3       12.48       1.
     4.694    623.        12.48       1.
     4.763    653.2       12.48       1.
     4.824    745.5       12.48       1.
     4.873    786.6       12.48       2.
     4.908    839.4       12.48       1.
     4.934    841.4       12.48       2.
     4.974   1019.        12.48       2.
     5.024   1198.        12.48       2.
     5.068   1139.        12.48       2.
     5.114   1180.        12.48       2.
     5.154   1083.        12.48       2.
     5.209    974.9       12.48       2.
     5.253    990.6       62.77       2.
ENDDATA             34
ENDSUBENT           53
SUBENT        A1489005   19990324   19990505   20050926       0000
BIB                  4          6
REACTION   (3-LI-6(A,G)5-B-10,,SIG,,,EXP)
SAMPLE     The target was produced by evaporating metallic lithium
            (99.3% 6Li) at the fast rate (>100 microg/cm2*min)
           onto a 0.1 mm thick tantalum backing
ERR-ANALYS (ERR-T) Total error
STATUS     (TABLE) From the text p.137
ENDBIB               6
NOCOMMON
DATA                 3          1
EN         DATA       ERR-T
MEV        MB         MB
     4.06       0.0018     0.0004
ENDDATA              3
ENDSUBENT           14
SUBENT        A1489006   19990324   19990505   20050926       0000
BIB                  4          7
REACTION   (4-BE-9(P,G)5-B-10,PAR,DA,,REL,EXP)
SAMPLE     The target consist of ultrapure Be-9 evaporated onto
           tantalum backing.
ERR-ANALYS (EN-ERR) Digitizing error
           (DATA-ERR) Digitizing error
           (DATA-ERR1) Error from the graphic bars (statistical)
STATUS     (CURVE) Fig 6
ENDBIB               7
COMMON               2          3
ANG        EN-ERR
ADEG       MEV
 0.         0.001
ENDCOMMON            3
DATA                 5        252
EN         E-LVL      DATA       DATA-ERR   DATA-ERR1
MEV        MEV        ARB-UNITS  ARB-UNITS  ARB-UNITS
     0.2289     1.74     243.2       11.76
     0.2544     5.11     135.9       11.24
     0.2555     0.718    280.4        5.848
     0.2566     0.       408.1        9.479
     0.2566     5.17      20.37       1.163     19.73
     0.2844     5.92      90.38      11.86
     0.2855     5.11     233.9       11.24
     0.2866     0.718    582.8        5.848
     0.2866     2.154    196.5        2.359     28.84
     0.2877     0.       656.9        9.479
     0.2877     1.74     927.3       11.76
     0.2877     5.17      51.46       1.163     26.68
     0.3155     0.718    803.8        5.848
     0.3155     5.92     267.7       11.86
     0.3166     0.       752.         9.479
     0.3166     1.74    1517.        11.76
     0.3166     2.154    364.6        2.359     28.84
     0.3166     5.11     320.2       11.24
     0.3177     5.17      98.8        1.163     32.5
     0.3422     0.718    850.4        5.848
     0.3433     2.154    383.8        2.359     38.45
     0.3433     5.92     445.1       11.86
     0.3444     5.11     288.4       11.24
     0.3455     0.      1024.         9.479
     0.3455     1.74    1659.        11.76
     0.3466     5.17     138.         1.163     33.66
     0.3744     5.11     268.8       11.24
     0.3755     2.154    268.3        2.359     33.64
     0.3766     0.718    757.5        5.848
     0.3766     5.92     219.9       11.86
     0.3777     0.      1143.         9.479
     0.3777     5.17     166.8        1.163     46.42
     0.3789     1.74    1316.        11.76
     0.4055     0.718    548.4        5.848
     0.4055     2.154    205.8        2.359     28.84
     0.4055     5.11     213.8       11.24
     0.4066     0.      1558.         9.479
     0.4066     1.74     997.4       11.76
     0.4077     5.17     157.3        1.163     38.3
     0.4355     0.718    467.1        5.848
     0.4355     2.154    157.6        2.359     28.84
     0.4366     0.      1842.       189.6
     0.4366     1.74     749.3       11.76
     0.4366     5.92      53.83      11.86
     0.4377     5.11     135.5       11.24
     0.4388     5.17     114.1        1.163     27.84
     0.4633     0.718    467.3        5.848
     0.4633     2.154     51.79       2.359
     0.4644     1.74     465.9       11.76
     0.4644     5.11     127.2       11.24
     0.4644     5.92      89.15      11.86
     0.4655     0.      2044.       189.6       82.84
     0.4655     5.17     140.6        1.163     27.85
     0.5044     0.718    444.2        5.848
     0.5055     0.      2671.       189.6       82.84
     0.5055     0.      2375.       189.6       94.67
     0.5055     2.154     56.47       2.359
     0.5066     1.74     418.4       11.76
     0.5066     5.11     144.3       11.24
     0.5077     5.17     156.5        1.163     29.01
     0.5088     0.      1356.       189.6
     0.5099     5.17     126.3        1.163     26.68
     0.5411     2.154      3.495      2.359
     0.5444     0.718    409.5        5.848
     0.5444     5.92     183.3       11.86
     0.5455     1.74     335.5       11.76
     0.5455     5.11      90.43      11.24
     0.5466     0.      1602.       189.6
     0.5466     6.13      91.68       4.673     37.46
     0.5477     5.17     127.2        1.163     27.84
     0.5799     2.154      3.378      2.359
     0.5833     0.718    502.7        5.848
     0.5833     1.74     193.6       11.76
     0.5844     0.      1611.       189.6
     0.5855     5.11     201.4       11.24
     0.5855     5.92     230.4       11.86
     0.5866     5.17     126.9        1.163     25.53
     0.5866     6.13     133.5        4.673     42.13
     0.6233     0.718    444.7        5.848
     0.6266     0.      2094.       189.6
     0.6266     1.74     205.2       11.76
     0.6266     5.92     159.1       11.86
     0.6277     5.11     112.7       11.24
     0.6299     5.17     128.8        1.163     30.18
     0.6622     0.718    572.7        5.848
     0.6655     1.74     181.3       11.76
     0.6655     5.92     218.        11.86
     0.6666     0.      2340.       189.6
     0.6666     6.13      81.23       4.673     42.13
     0.6677     5.11     282.5       11.24
     0.6677     5.17     110.         1.163     29.01
     0.701      0.718    665.9        5.848
     0.7033     5.92     347.9       11.86
     0.7044     1.74     133.8       11.76
     0.7055     0.      2822.       189.6
     0.7055     5.17     138.7        1.163     32.51
     0.7066     5.11     228.6       11.24
     0.7077     6.13     137.         4.673     42.13
     0.7433     0.718    689.3        5.848
     0.7444     1.74     157.2       11.76
     0.7455     0.      3068.       189.6
     0.7455     5.92      87.22      11.86
     0.7466     5.11     233.6       11.24
     0.7466     6.13      57.1        4.673     37.45
     0.7477     5.17     118.6        1.163     33.66
     0.7844     5.92     300.        11.86
     0.791      0.718    817.4        5.848
     0.791      2.154     50.81       2.359     38.45
     0.7921     1.74       3.431     11.76
     0.7921     5.92     347.3       11.86
     0.7933     0.      3789.       189.6
     0.7933     5.11     321.9       11.24
     0.7933     6.13     103.5        4.673     56.18
     0.811      0.718    875.6        5.848
     0.8133     2.154    137.3        2.359
     0.8144     0.      4504.       189.6
     0.8155     5.11     371.9       11.24
     0.8155     5.92     572.        11.86
     0.8155     6.13      98.59       4.673     56.18
     0.8332     0.718   1108.         5.848
     0.8344     1.74      14.95      11.76
     0.8355     2.154    170.8        2.359     28.84
     0.8366     5.92     725.8       11.86
     0.8388     0.      5457.       189.6
     0.8388     5.11     468.9       11.24
     0.8388     6.13     149.9        4.673     46.81
     0.8555     0.718   1225.         5.848
     0.8588     0.      6645.       189.6
     0.8588     2.154    310.1        2.359     33.64
     0.8588     5.92     974.2       11.86
     0.861      5.11     577.6       11.24
     0.861      6.13     177.8        4.673     65.54
     0.8777     0.718   1434.         5.848
     0.881      2.154    526.4        2.359     48.06
     0.881      5.92    1412.        11.86     106.5
     0.8821     0.      8781.       189.6
     0.8821     6.13     313.3        4.673     65.54
     0.8832     5.11     956.9       11.24
     0.8988     0.718   2155.         5.848
     0.9021     5.92    1838.        11.86     106.5
     0.9032     0.     0.1257E+05   189.6
     0.9032     2.154    617.6        2.359     57.67
     0.9044     5.11    1324.        11.24      70.59
     0.9044     6.13     369.3        4.673     79.58
     0.921      0.718   3097.         5.848     93.
     0.9266     0.     0.1920E+05   189.6
     0.9266     2.154    901.1        2.359     67.28
     0.9266     5.92    2655.        11.86     106.5
     0.9277     5.11    1868.        11.24      82.36
     0.9277     6.13     532.9        4.673     93.64
     0.9366     0.718   4050.         5.848    255.8
     0.9399     5.92    3530.        11.86     142.1
     0.9421     0.     0.2820E+05   189.6
     0.9421     6.13     706.         4.673    107.7
     0.9432     0.718   3957.         5.848    104.6
     0.9432     2.154    992.4        2.359     81.71
     0.9455     5.11    2400.        11.24     105.9
     0.9455     5.92    3779.        11.86     130.2
     0.9488     0.     0.3033E+05   189.6
     0.9488     2.154    925.1        2.359     86.52
     0.951      6.13     631.         4.673    107.7
     0.9521     5.11    2530.        11.24     105.9
     0.9532     0.718   3817.         5.848    139.5
     0.9543     5.92    4051.        11.86     153.9
     0.9577     0.     0.3625E+05   189.6
     0.9577     2.154    934.7        2.359    100.9
     0.9599     5.11    2555.        11.24     105.9
     0.9599     6.13     682.5        4.673    112.4
     0.961      0.718   3771.         5.848    139.5
     0.9632     0.     0.4265E+05   189.6
     0.9632     5.92    4158.        11.86     153.9
     0.9655     2.154    934.6        2.359     91.32
     0.9677     5.11    2226.        11.24     105.9
     0.9677     6.13     612.2        4.673    107.7
     0.9699     0.718   3934.         5.848    139.5
     0.971      5.92    4584.        11.86     165.7
     0.9721     0.     0.5212E+05   189.6
     0.9743     2.154    800.         2.359    100.9
     0.9743     6.13     907.         4.673    131.1
     0.9755     5.11    2251.        11.24     129.4
     0.9755     5.92    5140.        11.86     165.7
     0.9788     0.     0.6087E+05   189.6
     0.9788     0.718   3480.         5.848    139.5
     0.9821     2.154    699.1        2.359    105.7
     0.9832     6.13     696.3        4.673    135.8
     0.9843     5.11    2229.        11.24     129.4
     0.9855     0.     0.6892E+05   189.6
     0.9866     0.718   3411.         5.848    151.1
     0.9866     5.92    5317.        11.86     177.6
     0.991      2.154    593.3        2.359    110.5
     0.991      5.92    5755.        11.86     201.2
     0.991      6.13     499.6        4.673    126.4
     0.9921     0.     0.7413E+05   189.6
     0.9932     5.11    2018.        11.24     129.4
     0.9943     0.718   3492.         5.848    174.4
     0.9977     6.13     298.2        4.673    149.8
     0.9988     2.154    857.6        2.359    120.2
     0.9999     5.92    4607.        11.86     177.5
     1.001      0.     0.7839E+05   189.6
     1.001      0.718   3329.         5.848    186.
     1.001      5.11    2160.        11.24     153.
     1.005      2.154   1055.         2.359    144.2
     1.005      6.13     377.7        4.673    168.5
     1.007      5.11    1584.        11.24     141.2
     1.019      0.     0.5946E+05   189.6
     1.019      0.718   2411.         5.848    139.5
     1.02       5.92    3198.        11.86     165.7
     1.022      6.13     452.5        4.673    121.7
     1.023      2.154    809.5        2.359    110.5
     1.024      5.11    1351.        11.24     129.3
     1.043      0.718   2237.         5.848    127.9
     1.044      0.     0.3580E+05   189.6
     1.045      0.     0.3556E+05   189.6
     1.045      5.92    1861.        11.86     106.5
     1.048      2.154    780.6        2.359     86.51
     1.048      5.11    1072.        11.24      82.36
     1.07       0.718   2469.         5.848    116.3
     1.071      0.     0.2232E+05   189.6
     1.071      2.154    650.8        2.359     67.29
     1.071      5.92     960.9       11.86
     1.072      5.11     722.1       11.24      70.59
     1.072      6.13     264.8        4.673     84.28
     1.088      5.11     394.6       11.24      58.83
     1.088      5.92     487.3       11.86     106.5
     1.089      0.     0.1640E+05   189.6
     1.089      5.18    1833.       132.6
     1.091      5.11     818.5       11.24      82.53
     1.098      0.     0.1451E+05   189.6
     1.098      5.18   0.1289E+05   132.6
     1.099      5.11    1031.        11.24     105.9
     1.099      5.92     274.2       11.86     130.2
     1.105      0.     0.1333E+05   189.6
     1.105      5.92     451.7       11.86     106.5
     1.107      5.11     667.6       11.24      70.59
     1.107      5.18     201.8      132.6
     1.121      5.92     498.9       11.86
     1.121      6.13     180.1        4.673     98.3
     1.122      2.154    448.7        2.359     52.87
     1.122      5.11     787.3       11.24
     1.123      0.     0.1120E+05   189.6
     1.163      0.718   1249.         5.848
     1.163      6.13     465.3        4.673     70.22
     1.164      5.92     226.4       11.86
     1.167      2.154    323.7        2.359     48.06
     1.167      5.11     557.6       11.24
     1.168      0.      8374.       189.6
     1.207      6.13     591.3        4.673     60.86
     1.208      0.718   1249.         5.848
     1.209      5.92     237.9       11.86
     1.211      2.154    188.9        2.359     48.06
     1.211      5.11     433.9       11.24
     1.212      0.      7674.       189.6
ENDDATA            254
ENDSUBENT          270
SUBENT        A1489007   19990324   19990505   20050926       0000
BIB                  4          5
REACTION   (4-BE-9(P,G)5-B-10,,SIG,,,EXP)
SAMPLE     The target consist of ultrapure 9Be evaporated onto
           tantalum backing.
ERR-ANALYS (ERR-T) Total error
STATUS     (TABLE) From the text p.137
ENDBIB               5
NOCOMMON
DATA                 3          1
EN         DATA       ERR-T
MEV        MB         MB
     0.338      0.012      0.002
ENDDATA              3
ENDSUBENT           13
ENDENTRY             7
