ENTRY            13523   20050720   20050909                  1336
SUBENT        13523001   20050720   20050909                  1336
BIB                  8         14
INSTITUTE  (1USAANL)
REFERENCE  (J,JP/G,18,629,1992)
           (R,ANL-NDM-120,1991)
AUTHOR     (A.B.Smith,P.T.Guenther,J.F.Whalen,S.Chiba)
TITLE      Fast-neutron total and scattering cross sections of
            58Ni and nuclear models
FACILITY   (DYNAM) Tandem Dynamitron
SAMPLE     Metallic nickel, enriched to more than 99 atom% 58Ni.
           Sample contained a fractional percent of carbon, but,
           otherwise, appeared to be chemecally pure.
STATUS     (APRVD) A.B.Smith, 91/11/19
HISTORY    (19911101C)
           (19920423A) Reference update
           (20050720C) DR Format updated and reference corrected
ENDBIB              14
NOCOMMON             0          0
ENDSUBENT           17
SUBENT        13523002   19920622   20050909                  1336
BIB                 11         18
REACTION   (28-NI-58(N,EL)28-NI-58,,DA)
INC-SOURCE (D-D)
INC-SPECT  Mean energy determined to about 10 KeV.
METHOD     (TOF). Flight path about 5 m.
DETECTOR   (SCIN) Organic liquid scintillators.
MONITOR    (1-H-1(N,EL)1-H-1,,DA) Polyethylene
           Relative energy dependence of detectors determined
            Relative to neutrons emitted by 252Cf spontaneous
            fission.
CORRECTION Corrected for multiple-event, angular-resolution, and
            beam-attenuation effects
ERR-ANALYS (DATA-ERR) Estimate of total uncertainty.  Includes all
            known statistical and systematic uncertainties, plus
            a 0.5 mb/sr contribution for undentified uncertainty
            sources.
STATUS     Data received by email from A.B.Smith, 91/10/31
COMMENT    Multiple measurements at same angle
HISTORY    (19920622U) Comment added
ENDBIB              18
COMMON               2          3
EN-ERR     ANG-ERR
KEV        ADEG
 10.        0.2
ENDCOMMON            3
DATA                 4        949
EN         ANG        DATA       DATA-ERR
MEV        ADEG       B/SR       PER-CENT
 4.500      0.1640E+02 0.1500E+01 0.4000E+01
 4.500      0.1940E+02 0.1410E+01 0.4000E+01
 4.500      0.2010E+02 0.1310E+01 0.4000E+01
 4.500      0.2030E+02 0.1280E+01 0.4000E+01
 4.500      0.2430E+02 0.1150E+01 0.4000E+01
 4.500      0.2540E+02 0.1030E+01 0.4000E+01
 4.500      0.2620E+02 0.1050E+01 0.4000E+01
 4.500      0.2720E+02 0.1020E+01 0.4000E+01
 4.500      0.2920E+02 0.9200E+00 0.4000E+01
 4.500      0.3000E+02 0.8260E+00 0.4000E+01
 4.500      0.3020E+02 0.8170E+00 0.4000E+01
 4.500      0.3420E+02 0.6750E+00 0.4000E+01
 4.500      0.3540E+02 0.5780E+00 0.4000E+01
 4.500      0.3720E+02 0.5590E+00 0.4000E+01
 4.500      0.3990E+02 0.4110E+00 0.4000E+01
 4.500      0.4210E+02 0.3390E+00 0.4000E+01
 4.500      0.4510E+02 0.2660E+00 0.4000E+01
 4.500      0.4640E+02 0.2320E+00 0.4000E+01
 4.500      0.5010E+02 0.1560E+00 0.4000E+01
 4.500      0.5310E+02 0.1140E+00 0.4000E+01
 4.500      0.5490E+02 0.8360E-01 0.4000E+01
 4.500      0.5580E+02 0.7560E-01 0.4000E+01
 4.500      0.5760E+02 0.6050E-01 0.4000E+01
 4.500      0.6060E+02 0.4270E-01 0.4680E+01
 4.500      0.6110E+02 0.3850E-01 0.5190E+01
 4.500      0.6290E+02 0.3510E-01 0.5700E+01
 4.500      0.6560E+02 0.2430E-01 0.8230E+01
 4.500      0.6850E+02 0.2030E-01 0.9850E+01
 4.500      0.7000E+02 0.2180E-01 0.9170E+01
 4.500      0.7090E+02 0.2040E-01 0.9800E+01
 4.500      0.7300E+02 0.2080E-01 0.9620E+01
 4.500      0.7600E+02 0.2240E-01 0.8930E+01
 4.500      0.7670E+02 0.2270E-01 0.8810E+01
 4.500      0.7880E+02 0.2580E-01 0.7750E+01
 4.500      0.8100E+02 0.2720E-01 0.7350E+01
 4.500      0.8400E+02 0.3230E-01 0.6190E+01
 4.500      0.8520E+02 0.3280E-01 0.6100E+01
 4.500      0.8850E+02 0.3940E-01 0.5080E+01
 4.500      0.9150E+02 0.4130E-01 0.4840E+01
 4.500      0.9200E+02 0.4150E-01 0.4830E+01
 4.500      0.9440E+02 0.4610E-01 0.4340E+01
 4.500      0.9650E+02 0.4800E-01 0.4170E+01
 4.500      0.9950E+02 0.5070E-01 0.4000E+01
 4.500      0.1000E+03 0.4840E-01 0.4140E+01
 4.500      0.1020E+03 0.4650E-01 0.4300E+01
 4.500      0.1040E+03 0.5140E-01 0.4000E+01
 4.500      0.1070E+03 0.4960E-01 0.4030E+01
 4.500      0.1070E+03 0.4730E-01 0.4240E+01
 4.500      0.1100E+03 0.4480E-01 0.4460E+01
 4.500      0.1120E+03 0.4850E-01 0.4120E+01
 4.500      0.1150E+03 0.4820E-01 0.4810E+01
 4.500      0.1170E+03 0.4500E-01 0.4440E+01
 4.500      0.1190E+03 0.4100E-01 0.4880E+01
 4.500      0.1220E+03 0.3580E-01 0.5590E+01
 4.500      0.1250E+03 0.3230E-01 0.6190E+01
 4.500      0.1270E+03 0.3080E-01 0.6490E+01
 4.500      0.1300E+03 0.2700E-01 0.7410E+01
 4.500      0.1320E+03 0.2140E-01 0.7100E+01
 4.500      0.1350E+03 0.2090E-01 0.9570E+01
 4.500      0.1380E+03 0.1960E-01 0.1020E+02
 4.500      0.1410E+03 0.1850E-01 0.1080E+02
 4.500      0.1420E+03 0.1830E-01 0.1090E+02
 4.500      0.1430E+03 0.1810E-01 0.1100E+02
 4.500      0.1450E+03 0.1860E-01 0.1080E+02
 4.500      0.1460E+03 0.1850E-01 0.1080E+02
 4.500      0.1470E+03 0.1900E-01 0.1050E+02
 4.500      0.1470E+03 0.1990E-01 0.1010E+02
 4.500      0.1480E+03 0.2040E-01 0.9800E+01
 4.500      0.1510E+03 0.2160E-01 0.9260E+01
 4.500      0.1520E+03 0.2200E-01 0.9090E+01
 4.500      0.1530E+03 0.2560E-01 0.7810E+01
 4.500      0.1560E+03 0.2870E-01 0.6970E+01
 4.500      0.1570E+03 0.3150E-01 0.6350E+01
 4.500      0.1570E+03 0.2780E-01 0.7220E+01
 5.000      0.1640E+02 0.1620E+01 0.4000E+01
 5.000      0.1940E+02 0.1480E+01 0.4000E+01
 5.000      0.2010E+02 0.1400E+01 0.4000E+01
 5.000      0.2010E+02 0.1450E+01 0.4000E+01
 5.000      0.2430E+02 0.1160E+01 0.4000E+01
 5.000      0.2520E+02 0.1100E+01 0.4000E+01
 5.000      0.2620E+02 0.1100E+01 0.4000E+01
 5.000      0.2720E+02 0.9570E+00 0.4000E+01
 5.000      0.2920E+02 0.9340E+00 0.4000E+01
 5.000      0.3000E+02 0.8490E+00 0.4000E+01
 5.000      0.3000E+02 0.8720E+00 0.4000E+01
 5.000      0.3420E+02 0.6360E+00 0.4000E+01
 5.000      0.3510E+02 0.5760E+00 0.4000E+01
 5.000      0.3720E+02 0.4870E+00 0.4000E+01
 5.000      0.3990E+02 0.4080E+00 0.4000E+01
 5.000      0.4210E+02 0.3250E+00 0.4000E+01
 5.000      0.4510E+02 0.2370E+00 0.4000E+01
 5.000      0.4540E+02 0.2330E+00 0.4000E+01
 5.000      0.4640E+02 0.2240E+00 0.4000E+01
 5.000      0.5010E+02 0.1250E+00 0.4000E+01
 5.000      0.5390E+02 0.7570E-01 0.4000E+01
 5.000      0.5760E+02 0.4730E-01 0.4230E+01
 5.000      0.6070E+02 0.3260E-01 0.6130E+01
 5.000      0.6560E+02 0.1790E-01 0.1120E+02
 5.000      0.6850E+02 0.1560E-01 0.1280E+02
 5.000      0.7300E+02 0.1860E-01 0.1080E+02
 5.000      0.7600E+02 0.2180E-01 0.9170E+01
 5.000      0.7650E+02 0.2380E-01 0.1050E+02
 5.000      0.7880E+02 0.2630E-01 0.7600E+01
 5.000      0.8100E+02 0.2880E-01 0.6940E+01
 5.000      0.8400E+02 0.3280E-01 0.6100E+01
 5.000      0.8530E+02 0.3310E-01 0.7550E+01
 5.000      0.8630E+02 0.3590E-01 0.5570E+01
 5.000      0.8850E+02 0.3760E-01 0.5320E+01
 5.000      0.9150E+02 0.4020E-01 0.4980E+01
 5.000      0.9180E+02 0.4070E-01 0.6160E+01
 5.000      0.9440E+02 0.4080E-01 0.4900E+01
 5.000      0.9650E+02 0.4250E-01 0.4710E+01
 5.000      0.9950E+02 0.4410E-01 0.4540E+01
 5.000      0.1010E+03 0.4280E-01 0.5850E+01
 5.000      0.1020E+03 0.4310E-01 0.4640E+01
 5.000      0.1040E+03 0.4410E-01 0.4540E+01
 5.000      0.1070E+03 0.4420E-01 0.4520E+01
 5.000      0.1070E+03 0.4000E-01 0.6270E+01
 5.000      0.1100E+03 0.4190E-01 0.4770E+01
 5.000      0.1120E+03 0.3970E-01 0.5040E+01
 5.000      0.1150E+03 0.3600E-01 0.5560E+01
 5.000      0.1160E+03 0.3790E-01 0.6600E+01
 5.000      0.1170E+03 0.3470E-01 0.5760E+01
 5.000      0.1190E+03 0.3270E-01 0.6120E+01
 5.000      0.1220E+03 0.2790E-01 0.7170E+01
 5.000      0.1250E+03 0.2660E-01 0.7520E+01
 5.000      0.1270E+03 0.2200E-01 0.9090E+01
 5.000      0.1300E+03 0.1820E-01 0.1100E+02
 5.000      0.1320E+03 0.1780E-01 0.1120E+02
 5.000      0.1320E+03 0.1850E-01 0.1340E+02
 5.000      0.1350E+03 0.1670E-01 0.1200E+02
 5.000      0.1380E+03 0.1400E-01 0.1430E+02
 5.000      0.1410E+03 0.1450E-01 0.1710E+02
 5.000      0.1420E+03 0.1360E-01 0.1470E+02
 5.000      0.1430E+03 0.1350E-01 0.1480E+02
 5.000      0.1450E+03 0.1220E-01 0.1640E+02
 5.000      0.1460E+03 0.1280E-01 0.1560E+02
 5.000      0.1470E+03 0.1520E-01 0.1320E+02
 5.000      0.1470E+03 0.1390E-01 0.1790E+02
 5.000      0.1480E+03 0.1560E-01 0.1280E+02
 5.000      0.1510E+03 0.1800E-01 0.1390E+02
 5.000      0.1520E+03 0.2020E-01 0.9900E+01
 5.000      0.1530E+03 0.1970E-01 0.1020E+02
 5.000      0.1560E+03 0.2590E-01 0.7720E+01
 5.000      0.1570E+03 0.2650E-01 0.9470E+01
 5.000      0.1570E+03 0.3090E-01 0.6470E+01
 5.500      0.1780E+02 0.1710E+01 0.4000E+01
 5.500      0.2010E+02 0.1410E+01 0.4000E+01
 5.500      0.2070E+02 0.1460E+01 0.4000E+01
 5.500      0.2520E+02 0.1090E+01 0.4000E+01
 5.500      0.2560E+02 0.1110E+01 0.4000E+01
 5.500      0.2760E+02 0.1010E+01 0.4000E+01
 5.500      0.2860E+02 0.8870E+00 0.4000E+01
 5.500      0.2990E+02 0.8740E+00 0.4000E+01
 5.500      0.3000E+02 0.8090E+00 0.4000E+01
 5.500      0.3090E+02 0.7960E+00 0.4000E+01
 5.500      0.3510E+02 0.5790E+00 0.4000E+01
 5.500      0.3550E+02 0.5370E+00 0.4000E+01
 5.500      0.3850E+02 0.3880E+00 0.4000E+01
 5.500      0.3970E+02 0.3780E+00 0.4000E+01
 5.500      0.4350E+02 0.2510E+00 0.4000E+01
 5.500      0.4620E+02 0.1910E+00 0.4000E+01
 5.500      0.4650E+02 0.1650E+00 0.4000E+01
 5.500      0.5150E+02 0.7980E-01 0.4250E+01
 5.500      0.5460E+02 0.5520E-01 0.4000E+01
 5.500      0.5570E+02 0.5040E-01 0.4000E+01
 5.500      0.5890E+02 0.2860E-01 0.6010E+01
 5.500      0.6190E+02 0.1950E-01 0.7850E+01
 5.500      0.6690E+02 0.1820E-01 0.8310E+01
 5.500      0.6980E+02 0.2010E-01 0.1490E+02
 5.500      0.6990E+02 0.2020E-01 0.7560E+01
 5.500      0.7070E+02 0.2260E-01 0.6640E+01
 5.500      0.7440E+02 0.2670E-01 0.5720E+01
 5.500      0.7740E+02 0.3180E-01 0.4770E+01
 5.500      0.7860E+02 0.2990E-01 0.5020E+01
 5.500      0.8240E+02 0.3540E-01 0.4240E+01
 5.500      0.8530E+02 0.3350E-01 0.8980E+01
 5.500      0.8540E+02 0.3500E-01 0.4290E+01
 5.500      0.8610E+02 0.3430E-01 0.4370E+01
 5.500      0.8990E+02 0.3530E-01 0.4250E+01
 5.500      0.9290E+02 0.3800E-01 0.4000E+01
 5.500      0.9420E+02 0.3360E-01 0.4460E+01
 5.500      0.9790E+02 0.3300E-01 0.4560E+01
 5.500      0.1010E+03 0.3060E-01 0.4900E+01
 5.500      0.1010E+03 0.3080E-01 0.4870E+01
 5.500      0.1050E+03 0.2920E-01 0.5150E+01
 5.500      0.1070E+03 0.2810E-01 0.1070E+02
 5.500      0.1080E+03 0.2770E-01 0.5440E+01
 5.500      0.1090E+03 0.2660E-01 0.5640E+01
 5.500      0.1130E+03 0.2380E-01 0.6350E+01
 5.500      0.1160E+03 0.2070E-01 0.7320E+01
 5.500      0.1160E+03 0.1870E-01 0.1600E+02
 5.500      0.1170E+03 0.2050E-01 0.7320E+01
 5.500      0.1210E+03 0.1760E-01 0.8610E+01
 5.500      0.1230E+03 0.1500E-01 0.1990E+02
 5.500      0.1240E+03 0.1520E-01 0.9870E+01
 5.500      0.1240E+03 0.1480E-01 0.1020E+02
 5.500      0.1290E+03 0.1150E-01 0.1300E+02
 5.500      0.1320E+03 0.1060E-01 0.1510E+02
 5.500      0.1320E+03 0.1030E-01 0.1460E+02
 5.500      0.1320E+03 0.9810E-02 0.1530E+02
 5.500      0.1360E+03 0.1030E-01 0.1460E+02
 5.500      0.1390E+03 0.1050E-01 0.1430E+02
 5.500      0.1410E+03 0.8950E-02 0.1680E+02
 5.500      0.1410E+03 0.1020E-01 0.1470E+02
 5.500      0.1440E+03 0.1190E-01 0.1260E+02
 5.500      0.1470E+03 0.1340E-01 0.1120E+02
 5.500      0.1470E+03 0.1350E-01 0.1110E+02
 5.500      0.1470E+03 0.1180E-01 0.2540E+02
 5.500      0.1470E+03 0.1180E-01 0.1270E+02
 5.500      0.1490E+03 0.1580E-01 0.9530E+01
 5.500      0.1510E+03 0.1530E-01 0.9800E+01
 5.500      0.1510E+03 0.1860E-01 0.1610E+02
 5.500      0.1540E+03 0.2070E-01 0.7390E+01
 5.500      0.1570E+03 0.2120E-01 0.1420E+02
 5.500      0.1570E+03 0.2300E-01 0.6720E+01
 5.500      0.1570E+03 0.2490E-01 0.6050E+01
 5.900      0.2010E+02 0.1530E+01 0.4000E+01
 5.900      0.2010E+02 0.1430E+01 0.4000E+01
 5.900      0.2030E+02 0.1580E+01 0.4000E+01
 5.900      0.2520E+02 0.1050E+01 0.4000E+01
 5.900      0.2570E+02 0.1090E+01 0.5000E+01
 5.900      0.2810E+02 0.9270E+00 0.4000E+01
 5.900      0.2990E+02 0.8530E+00 0.4000E+01
 5.900      0.3000E+02 0.7910E+00 0.4000E+01
 5.900      0.3010E+02 0.8730E+00 0.4000E+01
 5.900      0.3040E+02 0.8620E+00 0.5000E+01
 5.900      0.3510E+02 0.5520E+00 0.4000E+01
 5.900      0.3510E+02 0.6120E+00 0.4000E+01
 5.900      0.3560E+02 0.5790E+00 0.5000E+01
 5.900      0.3810E+02 0.3870E+00 0.4000E+01
 5.900      0.3980E+02 0.3460E+00 0.4000E+01
 5.900      0.4540E+02 0.1740E+00 0.4000E+01
 5.900      0.4600E+02 0.1720E+00 0.4010E+01
 5.900      0.4640E+02 0.1680E+00 0.4000E+01
 5.900      0.5080E+02 0.1000E+00 0.5000E+01
 5.900      0.5100E+02 0.8550E-01 0.4370E+01
 5.900      0.5470E+02 0.4360E-01 0.5620E+01
 5.900      0.5580E+02 0.4030E-01 0.4000E+01
 5.900      0.5850E+02 0.2930E-01 0.5120E+01
 5.900      0.6090E+02 0.1930E-01 0.1260E+02
 5.900      0.6130E+02 0.1770E-01 0.8470E+01
 5.900      0.6150E+02 0.1800E-01 0.8330E+01
 5.900      0.6650E+02 0.1670E-01 0.8980E+01
 5.900      0.6950E+02 0.1890E-01 0.7940E+01
 5.900      0.6980E+02 0.1820E-01 0.1360E+02
 5.900      0.7090E+02 0.2030E-01 0.7390E+01
 5.900      0.7400E+02 0.2330E-01 0.6440E+01
 5.900      0.7650E+02 0.2470E-01 0.1010E+02
 5.900      0.7690E+02 0.2830E-01 0.5300E+01
 5.900      0.7720E+02 0.2440E-01 0.6150E+01
 5.900      0.7880E+02 0.2900E-01 0.5170E+01
 5.900      0.8190E+02 0.3380E-01 0.4440E+01
 5.900      0.8210E+02 0.3340E-01 0.5000E+01
 5.900      0.8490E+02 0.3270E-01 0.4590E+01
 5.900      0.8530E+02 0.3420E-01 0.7330E+01
 5.900      0.8620E+02 0.3350E-01 0.4480E+01
 5.900      0.8940E+02 0.3570E-01 0.4200E+01
 5.900      0.9180E+02 0.3390E-01 0.7400E+01
 5.900      0.9240E+02 0.3480E-01 0.4310E+01
 5.900      0.9270E+02 0.3520E-01 0.5000E+01
 5.900      0.9440E+02 0.3420E-01 0.4390E+01
 5.900      0.9740E+02 0.3480E-01 0.4310E+01
 5.900      0.9770E+02 0.3270E-01 0.5000E+01
 5.900      0.1000E+03 0.3010E-01 0.4980E+01
 5.900      0.1010E+03 0.2880E-01 0.5210E+01
 5.900      0.1010E+03 0.2730E-01 0.9160E+01
 5.900      0.1050E+03 0.2760E-01 0.5430E+01
 5.900      0.1070E+03 0.2380E-01 0.1050E+02
 5.900      0.1080E+03 0.2410E-01 0.6220E+01
 5.900      0.1080E+03 0.2660E-01 0.5640E+01
 5.900      0.1090E+03 0.2360E-01 0.6360E+01
 5.900      0.1130E+03 0.2170E-01 0.6910E+01
 5.900      0.1130E+03 0.2230E-01 0.6730E+01
 5.900      0.1160E+03 0.1780E-01 0.8430E+01
 5.900      0.1160E+03 0.1770E-01 0.1400E+02
 5.900      0.1170E+03 0.1670E-01 0.8980E+01
 5.900      0.1200E+03 0.1510E-01 0.9930E+01
 5.900      0.1230E+03 0.1240E-01 0.1210E+02
 5.900      0.1230E+03 0.1150E-01 0.2170E+02
 5.900      0.1250E+03 0.1220E-01 0.1230E+02
 5.900      0.1280E+03 0.1070E-01 0.1400E+02
 5.900      0.1290E+03 0.8290E-02 0.1810E+02
 5.900      0.1320E+03 0.8210E-02 0.1830E+02
 5.900      0.1320E+03 0.6880E-02 0.2180E+02
 5.900      0.1360E+03 0.7170E-02 0.2090E+02
 5.900      0.1390E+03 0.7100E-02 0.2500E+02
 5.900      0.1390E+03 0.6310E-02 0.2380E+02
 5.900      0.1410E+03 0.6240E-02 0.3970E+02
 5.900      0.1420E+03 0.7260E-02 0.2070E+02
 5.900      0.1440E+03 0.8460E-02 0.1770E+02
 5.900      0.1460E+03 0.9590E-02 0.1560E+02
 5.900      0.1470E+03 0.1180E-01 0.1270E+02
 5.900      0.1470E+03 0.9910E-02 0.1510E+02
 5.900      0.1470E+03 0.1060E-01 0.1420E+02
 5.900      0.1490E+03 0.1140E-01 0.1320E+02
 5.900      0.1510E+03 0.1230E-01 0.2000E+02
 5.900      0.1520E+03 0.1650E-01 0.9090E+01
 5.900      0.1540E+03 0.1810E-01 0.8290E+01
 5.900      0.1570E+03 0.2360E-01 0.6360E+01
 5.900      0.1570E+03 0.2170E-01 0.6910E+01
 5.900      0.1570E+03 0.2340E-01 0.1070E+02
 6.500      0.1920E+02 0.1650E+01 0.5000E+01
 6.500      0.2010E+02 0.1620E+01 0.5000E+01
 6.500      0.2420E+02 0.1270E+01 0.5000E+01
 6.500      0.2520E+02 0.1160E+01 0.5000E+01
 6.500      0.2910E+02 0.8790E+00 0.5000E+01
 6.500      0.3010E+02 0.8590E+00 0.5000E+01
 6.500      0.3410E+02 0.5790E+00 0.5000E+01
 6.500      0.3520E+02 0.5130E+00 0.5000E+01
 6.500      0.4300E+02 0.2390E+00 0.5000E+01
 6.500      0.4550E+02 0.1430E+00 0.5000E+01
 6.500      0.4550E+02 0.1590E+00 0.5000E+01
 6.500      0.4550E+02 0.1430E+00 0.5000E+01
 6.500      0.4600E+02 0.1480E+00 0.5010E+01
 6.500      0.5000E+02 0.7920E-01 0.5000E+01
 6.500      0.5100E+02 0.6400E-01 0.5920E+01
 6.500      0.5400E+02 0.3490E-01 0.6400E+01
 6.500      0.5480E+02 0.3490E-01 0.5000E+01
 6.500      0.5480E+02 0.3290E-01 0.5950E+01
 6.500      0.5850E+02 0.1590E-01 0.9430E+01
 6.500      0.6150E+02 0.1070E-01 0.1400E+02
 6.500      0.6650E+02 0.1370E-01 0.1090E+02
 6.500      0.6940E+02 0.1860E-01 0.8060E+01
 6.500      0.6990E+02 0.1750E-01 0.1140E+02
 6.500      0.6990E+02 0.1890E-01 0.7940E+01
 6.500      0.7390E+02 0.2410E-01 0.6220E+01
 6.500      0.7660E+02 0.2610E-01 0.5770E+01
 6.500      0.7660E+02 0.2540E-01 0.7910E+01
 6.500      0.7690E+02 0.2990E-01 0.5020E+01
 6.500      0.7790E+02 0.2710E-01 0.5540E+01
 6.500      0.8190E+02 0.3310E-01 0.5000E+01
 6.500      0.8390E+02 0.3110E-01 0.5000E+01
 6.500      0.8490E+02 0.3370E-01 0.5000E+01
 6.500      0.8540E+02 0.2900E-01 0.6900E+01
 6.500      0.8540E+02 0.3110E-01 0.5000E+01
 6.500      0.8940E+02 0.3220E-01 0.5000E+01
 6.500      0.9190E+02 0.2930E-01 0.5120E+01
 6.500      0.9240E+02 0.2910E-01 0.5150E+01
 6.500      0.9350E+02 0.2840E-01 0.5280E+01
 6.500      0.9740E+02 0.2780E-01 0.5400E+01
 6.500      0.1000E+03 0.2360E-01 0.6360E+01
 6.500      0.1010E+03 0.2380E-01 0.6300E+01
 6.500      0.1010E+03 0.2160E-01 0.6940E+01
 6.500      0.1050E+03 0.2400E-01 0.6250E+01
 6.500      0.1070E+03 0.1800E-01 0.8330E+01
 6.500      0.1080E+03 0.1900E-01 0.7890E+01
 6.500      0.1090E+03 0.1660E-01 0.9040E+01
 6.500      0.1130E+03 0.1640E-01 0.9150E+01
 6.500      0.1150E+03 0.1210E-01 0.1240E+02
 6.500      0.1160E+03 0.1350E-01 0.1110E+02
 6.500      0.1160E+03 0.1200E-01 0.1250E+02
 6.500      0.1200E+03 0.1080E-01 0.1390E+02
 6.500      0.1230E+03 0.7370E-02 0.2700E+02
 6.500      0.1230E+03 0.8960E-02 0.1670E+02
 6.500      0.1230E+03 0.9380E-02 0.1600E+02
 6.500      0.1240E+03 0.7060E-02 0.2120E+02
 6.500      0.1280E+03 0.6440E-02 0.2330E+02
 6.500      0.1310E+03 0.5340E-02 0.2810E+02
 6.500      0.1310E+03 0.5880E-02 0.2550E+02
 6.500      0.1320E+03 0.4860E-02 0.4080E+02
 6.500      0.1320E+03 0.5560E-02 0.2700E+02
 6.500      0.1360E+03 0.5440E-02 0.2760E+02
 6.500      0.1390E+03 0.5470E-02 0.2740E+02
 6.500      0.1410E+03 0.5080E-02 0.3920E+02
 6.500      0.1410E+03 0.5680E-02 0.2640E+02
 6.500      0.1440E+03 0.7190E-02 0.2090E+02
 6.500      0.1460E+03 0.8890E-02 0.1690E+02
 6.500      0.1470E+03 0.9640E-02 0.1560E+02
 6.500      0.1470E+03 0.9570E-02 0.1570E+02
 6.500      0.1470E+03 0.9800E-02 0.1530E+02
 6.500      0.1490E+03 0.1020E-01 0.1470E+02
 6.500      0.1510E+03 0.1330E-01 0.1230E+02
 6.500      0.1540E+03 0.1640E-01 0.9150E+01
 6.500      0.1560E+03 0.1800E-01 0.8330E+01
 6.500      0.1570E+03 0.2100E-01 0.9200E+01
 6.500      0.1570E+03 0.1910E-01 0.8500E+01
 7.140      0.1780E+02 0.1920E+01 0.4500E+01
 7.140      0.1970E+02 0.1670E+01 0.5000E+01
 7.140      0.1980E+02 0.1620E+01 0.5000E+01
 7.140      0.2070E+02 0.1600E+01 0.4500E+01
 7.140      0.2480E+02 0.1240E+01 0.5000E+01
 7.140      0.2500E+02 0.1190E+01 0.5000E+01
 7.140      0.2560E+02 0.1220E+01 0.4500E+01
 7.140      0.2760E+02 0.1050E+01 0.4500E+01
 7.140      0.2860E+02 0.9490E+00 0.4500E+01
 7.140      0.2970E+02 0.9540E+00 0.5000E+01
 7.140      0.2970E+02 0.9150E+00 0.5000E+01
 7.140      0.3470E+02 0.5630E+00 0.4500E+01
 7.140      0.3470E+02 0.5410E+00 0.4500E+01
 7.140      0.3550E+02 0.5040E+00 0.4500E+01
 7.140      0.3850E+02 0.3520E+00 0.4500E+01
 7.140      0.4350E+02 0.1800E+00 0.4830E+01
 7.140      0.4500E+02 0.1530E+00 0.4300E+01
 7.140      0.4670E+02 0.1040E+00 0.4500E+01
 7.140      0.5150E+02 0.4550E-01 0.5940E+01
 7.140      0.5450E+02 0.2260E-01 0.6730E+01
 7.140      0.5890E+02 0.1300E-01 0.7920E+01
 7.140      0.6190E+02 0.1160E-01 0.8690E+01
 7.140      0.6560E+02 0.1440E-01 0.6940E+01
 7.140      0.6690E+02 0.1600E-01 0.6570E+01
 7.140      0.6800E+02 0.1590E-01 0.6290E+01
 7.140      0.6940E+02 0.1730E-01 0.5780E+01
 7.140      0.6990E+02 0.1890E-01 0.5520E+01
 7.140      0.7440E+02 0.2360E-01 0.4500E+01
 7.140      0.7650E+02 0.2430E-01 0.5000E+01
 7.140      0.7740E+02 0.2630E-01 0.4500E+01
 7.140      0.7900E+02 0.2690E-01 0.4500E+01
 7.140      0.7900E+02 0.2660E-01 0.4500E+01
 7.140      0.8140E+02 0.2740E-01 0.5000E+01
 7.140      0.8240E+02 0.2850E-01 0.4500E+01
 7.140      0.8490E+02 0.2580E-01 0.4500E+01
 7.140      0.8500E+02 0.2770E-01 0.4500E+01
 7.140      0.8540E+02 0.2760E-01 0.4500E+01
 7.140      0.8990E+02 0.2690E-01 0.4500E+01
 7.140      0.9140E+02 0.2450E-01 0.4500E+01
 7.140      0.9200E+02 0.2270E-01 0.5000E+01
 7.140      0.9290E+02 0.2340E-01 0.4500E+01
 7.140      0.9410E+02 0.2290E-01 0.8740E+01
 7.140      0.9410E+02 0.2410E-01 0.8290E+01
 7.140      0.9490E+02 0.2250E-01 0.6670E+01
 7.140      0.9700E+02 0.2100E-01 0.5000E+01
 7.140      0.9790E+02 0.2090E-01 0.4860E+01
 7.140      0.1000E+03 0.1780E-01 0.5620E+01
 7.140      0.1010E+03 0.1870E-01 0.5430E+01
 7.140      0.1010E+03 0.2000E-01 0.9990E+01
 7.140      0.1050E+03 0.1480E-01 0.6840E+01
 7.140      0.1070E+03 0.1480E-01 0.6760E+01
 7.140      0.1070E+03 0.1370E-01 0.7300E+01
 7.140      0.1080E+03 0.1250E-01 0.8070E+01
 7.140      0.1090E+03 0.1310E-01 0.7630E+01
 7.140      0.1100E+03 0.1320E-01 0.7580E+01
 7.140      0.1120E+03 0.1250E-01 0.8000E+01
 7.140      0.1130E+03 0.1150E-01 0.8780E+01
 7.140      0.1150E+03 0.9790E-02 0.1020E+02
 7.140      0.1160E+03 0.9450E-02 0.2110E+02
 7.140      0.1160E+03 0.9840E-02 0.1030E+02
 7.140      0.1210E+03 0.7500E-02 0.1530E+02
 7.140      0.1240E+03 0.5780E-02 0.1740E+02
 7.140      0.1240E+03 0.5620E-02 0.3550E+02
 7.140      0.1240E+03 0.6040E-02 0.3300E+02
 7.140      0.1250E+03 0.5430E-02 0.2740E+02
 7.140      0.1280E+03 0.4250E-02 0.2350E+02
 7.140      0.1290E+03 0.4100E-02 0.2440E+02
 7.140      0.1310E+03 0.3250E-02 0.3080E+02
 7.140      0.1360E+03 0.3480E-02 0.2870E+02
 7.140      0.1380E+03 0.3740E-02 0.2670E+02
 7.140      0.1390E+03 0.3990E-02 0.2510E+02
 7.140      0.1440E+03 0.5720E-02 0.1760E+02
 7.140      0.1460E+03 0.7370E-02 0.1360E+02
 7.140      0.1460E+03 0.6590E-02 0.1540E+02
 7.140      0.1470E+03 0.7700E-02 0.2000E+02
 7.140      0.1480E+03 0.7110E-02 0.2000E+02
 7.140      0.1490E+03 0.8280E-02 0.1230E+02
 7.140      0.1510E+03 0.8960E-02 0.2220E+02
 7.140      0.1510E+03 0.9460E-02 0.1060E+02
 7.140      0.1520E+03 0.1340E-01 0.1120E+02
 7.140      0.1540E+03 0.1430E-01 0.7310E+01
 7.140      0.1570E+03 0.2080E-01 0.1220E+02
 7.500      0.1680E+02 0.2130E+01 0.5170E+01
 7.500      0.1970E+02 0.1880E+01 0.5230E+01
 7.500      0.2020E+02 0.1730E+01 0.5000E+01
 7.500      0.2030E+02 0.1840E+01 0.5000E+01
 7.500      0.2470E+02 0.1300E+01 0.5000E+01
 7.500      0.2530E+02 0.1250E+01 0.5000E+01
 7.500      0.2660E+02 0.1080E+01 0.5000E+01
 7.500      0.2760E+02 0.1060E+01 0.5000E+01
 7.500      0.2960E+02 0.8720E+00 0.5000E+01
 7.500      0.3460E+02 0.4880E+00 0.5000E+01
 7.500      0.3760E+02 0.3600E+00 0.5000E+01
 7.500      0.4250E+02 0.1810E+00 0.5000E+01
 7.500      0.4550E+02 0.1180E+00 0.5000E+01
 7.500      0.5050E+02 0.3910E-01 0.5000E+01
 7.500      0.5350E+02 0.2160E-01 0.5020E+01
 7.500      0.5800E+02 0.1140E-01 0.8770E+01
 7.500      0.6100E+02 0.1040E-01 0.1380E+02
 7.500      0.6100E+02 0.1010E-01 0.9900E+01
 7.500      0.6600E+02 0.1400E-01 0.7140E+01
 7.500      0.6800E+02 0.1680E-01 0.1190E+02
 7.500      0.6890E+02 0.1710E-01 0.5850E+01
 7.500      0.7340E+02 0.2220E-01 0.5000E+01
 7.500      0.7640E+02 0.2720E-01 0.5000E+01
 7.500      0.8140E+02 0.2810E-01 0.5000E+01
 7.500      0.8440E+02 0.2730E-01 0.5000E+01
 7.500      0.8500E+02 0.2550E-01 0.5000E+01
 7.500      0.8890E+02 0.2610E-01 0.5000E+01
 7.500      0.9190E+02 0.2540E-01 0.5000E+01
 7.500      0.9460E+02 0.2170E-01 0.9230E+01
 7.500      0.9690E+02 0.1990E-01 0.5030E+01
 7.500      0.9990E+02 0.1780E-01 0.5620E+01
 7.500      0.1010E+03 0.1520E-01 0.9870E+01
 7.500      0.1010E+03 0.1670E-01 0.1200E+02
 7.500      0.1040E+03 0.1350E-01 0.7410E+01
 7.500      0.1070E+03 0.1230E-01 0.1220E+02
 7.500      0.1070E+03 0.1150E-01 0.8700E+01
 7.500      0.1100E+03 0.9110E-02 0.2190E+02
 7.500      0.1120E+03 0.7620E-02 0.1310E+02
 7.500      0.1150E+03 0.6100E-02 0.1640E+02
 7.500      0.1160E+03 0.5890E-02 0.2540E+02
 7.500      0.1200E+03 0.4900E-02 0.2040E+02
 7.500      0.1230E+03 0.4080E-02 0.2450E+02
 7.500      0.1230E+03 0.3770E-02 0.2650E+02
 7.500      0.1280E+03 0.2790E-02 0.3580E+02
 7.500      0.1310E+03 0.2520E-02 0.3970E+02
 7.500      0.1320E+03 0.2170E-02 0.4610E+02
 7.500      0.1350E+03 0.3010E-02 0.3320E+02
 7.500      0.1380E+03 0.3600E-02 0.2780E+02
 7.500      0.1410E+03 0.4160E-02 0.2400E+02
 7.500      0.1450E+03 0.7450E-02 0.1340E+02
 7.500      0.1460E+03 0.8710E-02 0.1150E+02
 7.500      0.1480E+03 0.1050E-01 0.9520E+01
 7.500      0.1530E+03 0.1570E-01 0.6370E+01
 7.500      0.1560E+03 0.1840E-01 0.5430E+01
 8.029      0.1450E+02 0.2360E+01 0.4000E+01
 8.029      0.1740E+02 0.1970E+01 0.4000E+01
 8.029      0.1910E+02 0.1850E+01 0.4000E+01
 8.029      0.1930E+02 0.1820E+01 0.4000E+01
 8.029      0.2230E+02 0.1500E+01 0.4000E+01
 8.029      0.2420E+02 0.1400E+01 0.4000E+01
 8.029      0.2430E+02 0.1250E+01 0.4000E+01
 8.029      0.2430E+02 0.1370E+01 0.4000E+01
 8.029      0.2530E+02 0.1220E+01 0.4000E+01
 8.029      0.2750E+02 0.9820E+00 0.4000E+01
 8.029      0.2820E+02 0.9650E+00 0.5000E+01
 8.029      0.2890E+02 0.9650E+00 0.4000E+01
 8.029      0.2920E+02 0.8350E+00 0.4000E+01
 8.029      0.3220E+02 0.6190E+00 0.4000E+01
 8.029      0.3420E+02 0.5680E+00 0.4000E+01
 8.029      0.3420E+02 0.5330E+00 0.4000E+01
 8.029      0.3520E+02 0.4450E+00 0.4000E+01
 8.029      0.4010E+02 0.2540E+00 0.4000E+01
 8.029      0.4360E+02 0.1760E+00 0.5000E+01
 8.029      0.4430E+02 0.1350E+00 0.4000E+01
 8.029      0.4560E+02 0.1010E+00 0.4000E+01
 8.029      0.4840E+02 0.6980E-01 0.5200E+01
 8.029      0.5010E+02 0.4750E-01 0.4170E+01
 8.029      0.5110E+02 0.3470E-01 0.4320E+01
 8.029      0.5360E+02 0.2200E-01 0.6820E+01
 8.029      0.5560E+02 0.1330E-01 0.1130E+02
 8.029      0.5910E+02 0.7750E-02 0.1940E+02
 8.029      0.6360E+02 0.7650E-02 0.1960E+02
 8.029      0.6410E+02 0.8140E-02 0.1840E+02
 8.029      0.6660E+02 0.1130E-01 0.1330E+02
 8.029      0.6700E+02 0.1450E-01 0.1380E+02
 8.029      0.6870E+02 0.1410E-01 0.1060E+02
 8.029      0.7110E+02 0.1830E-01 0.8200E+01
 8.029      0.7400E+02 0.2200E-01 0.6820E+01
 8.029      0.7550E+02 0.2400E-01 0.6280E+01
 8.029      0.7800E+02 0.2170E-01 0.9220E+01
 8.029      0.7920E+02 0.2390E-01 0.6280E+01
 8.029      0.8200E+02 0.2580E-01 0.5810E+01
 8.029      0.8400E+02 0.2360E-01 0.8470E+01
 8.029      0.8420E+02 0.2460E-01 0.6120E+01
 8.029      0.8650E+02 0.2290E-01 0.6550E+01
 8.029      0.8950E+02 0.2250E-01 0.6670E+01
 8.029      0.9080E+02 0.1810E-01 0.8290E+01
 8.029      0.9360E+02 0.1740E-01 0.1150E+02
 8.029      0.9450E+02 0.1860E-01 0.8060E+01
 8.029      0.9750E+02 0.1640E-01 0.9150E+01
 8.029      0.9900E+02 0.1360E-01 0.1100E+02
 8.029      0.1000E+03 0.1310E-01 0.1530E+02
 8.029      0.1020E+03 0.1210E-01 0.1240E+02
 8.029      0.1050E+03 0.1070E-01 0.1400E+02
 8.029      0.1060E+03 0.9670E-02 0.1550E+02
 8.029      0.1100E+03 0.7640E-02 0.1960E+02
 8.029      0.1110E+03 0.6520E-02 0.2300E+02
 8.029      0.1130E+03 0.7100E-02 0.2110E+02
 8.029      0.1150E+03 0.5680E-02 0.2640E+02
 8.029      0.1170E+03 0.4470E-02 0.3360E+02
 8.029      0.1200E+03 0.4000E-02 0.3500E+02
 8.029      0.1220E+03 0.2990E-02 0.3500E+02
 8.029      0.1240E+03 0.2730E-02 0.3500E+02
 8.029      0.1250E+03 0.2480E-02 0.3500E+02
 8.029      0.1260E+03 0.1850E-02 0.3500E+02
 8.029      0.1280E+03 0.2340E-02 0.3500E+02
 8.029      0.1310E+03 0.2560E-02 0.3500E+02
 8.029      0.1330E+03 0.1820E-02 0.3500E+02
 8.029      0.1360E+03 0.2810E-02 0.3500E+02
 8.029      0.1400E+03 0.3880E-02 0.3870E+02
 8.029      0.1410E+03 0.4270E-02 0.3500E+02
 8.029      0.1410E+03 0.4430E-02 0.3390E+02
 8.029      0.1430E+03 0.4820E-02 0.3110E+02
 8.029      0.1440E+03 0.6690E-02 0.2240E+02
 8.029      0.1460E+03 0.6600E-02 0.2500E+02
 8.029      0.1490E+03 0.8900E-02 0.2000E+02
 8.029      0.1500E+03 0.1140E-01 0.1320E+02
 8.029      0.1510E+03 0.1340E-01 0.1210E+02
 8.029      0.1540E+03 0.1600E-01 0.1510E+02
 8.029      0.1550E+03 0.1320E-01 0.2210E+02
 8.029      0.1570E+03 0.1380E-01 0.1900E+02
 8.399      0.1790E+02 0.1980E+01 0.4000E+01
 8.399      0.1980E+02 0.1790E+01 0.3000E+01
 8.399      0.2030E+02 0.1750E+01 0.3000E+01
 8.399      0.2080E+02 0.1650E+01 0.4000E+01
 8.399      0.2500E+02 0.1260E+01 0.3000E+01
 8.399      0.2530E+02 0.1320E+01 0.3000E+01
 8.399      0.2570E+02 0.1190E+01 0.4000E+01
 8.399      0.2770E+02 0.9700E+00 0.4000E+01
 8.399      0.2870E+02 0.9430E+00 0.4000E+01
 8.399      0.2970E+02 0.8340E+00 0.3000E+01
 8.399      0.3020E+02 0.7850E+00 0.3000E+01
 8.399      0.3100E+02 0.7210E+00 0.4000E+01
 8.399      0.3490E+02 0.4900E+00 0.3000E+01
 8.399      0.3520E+02 0.4830E+00 0.3000E+01
 8.399      0.3570E+02 0.4180E+00 0.4000E+01
 8.399      0.3860E+02 0.2900E+00 0.4000E+01
 8.399      0.4360E+02 0.1300E+00 0.4000E+01
 8.399      0.4660E+02 0.7420E-01 0.4000E+01
 8.399      0.5160E+02 0.2420E-01 0.4000E+01
 8.399      0.5460E+02 0.1320E-01 0.6060E+01
 8.399      0.5910E+02 0.6690E-02 0.1200E+02
 8.399      0.6210E+02 0.6950E-02 0.1150E+02
 8.399      0.6710E+02 0.1100E-01 0.7270E+01
 8.399      0.6800E+02 0.1370E-01 0.1460E+02
 8.399      0.6950E+02 0.1370E-01 0.1090E+02
 8.399      0.7000E+02 0.1440E-01 0.5560E+01
 8.399      0.7000E+02 0.1440E-01 0.5560E+01
 8.399      0.7460E+02 0.1900E-01 0.4210E+01
 8.399      0.7620E+02 0.1870E-01 0.8020E+01
 8.399      0.7750E+02 0.2070E-01 0.4000E+01
 8.399      0.8270E+02 0.2230E-01 0.4000E+01
 8.399      0.8500E+02 0.2220E-01 0.6760E+01
 8.399      0.8550E+02 0.2140E-01 0.4000E+01
 8.399      0.9000E+02 0.1900E-01 0.4210E+01
 8.399      0.9150E+02 0.1840E-01 0.8150E+01
 8.399      0.9300E+02 0.1910E-01 0.4190E+01
 8.399      0.9460E+02 0.1810E-01 0.1100E+02
 8.399      0.9800E+02 0.1590E-01 0.5030E+01
 8.399      0.1000E+03 0.1480E-01 0.1010E+02
 8.399      0.1010E+03 0.1570E-01 0.1270E+02
 8.399      0.1020E+03 0.1450E-01 0.5520E+01
 8.399      0.1020E+03 0.1440E-01 0.5560E+01
 8.399      0.1060E+03 0.1120E-01 0.7140E+01
 8.399      0.1070E+03 0.9990E-02 0.1500E+02
 8.399      0.1090E+03 0.9220E-02 0.8680E+01
 8.399      0.1100E+03 0.9030E-02 0.2210E+02
 8.399      0.1130E+03 0.7310E-02 0.1090E+02
 8.399      0.1150E+03 0.6880E-02 0.2170E+02
 8.399      0.1160E+03 0.5560E-02 0.1440E+02
 8.399      0.1160E+03 0.5170E-02 0.1550E+02
 8.399      0.1160E+03 0.6470E-02 0.3080E+02
 8.399      0.1200E+03 0.3940E-02 0.2030E+02
 8.399      0.1220E+03 0.2490E-02 0.6000E+02
 8.399      0.1230E+03 0.3070E-02 0.2610E+02
 8.399      0.1250E+03 0.2260E-02 0.5000E+02
 8.399      0.1290E+03 0.2520E-02 0.3170E+02
 8.399      0.1310E+03 0.2780E-02 0.5360E+02
 8.399      0.1320E+03 0.2370E-02 0.5000E+02
 8.399      0.1320E+03 0.2370E-02 0.3380E+02
 8.399      0.1320E+03 0.1910E-02 0.4190E+02
 8.399      0.1370E+03 0.2540E-02 0.3150E+02
 8.399      0.1390E+03 0.3490E-02 0.2290E+02
 8.399      0.1400E+03 0.3880E-02 0.3850E+02
 8.399      0.1420E+03 0.3790E-02 0.5000E+02
 8.399      0.1440E+03 0.5960E-02 0.1340E+02
 8.399      0.1460E+03 0.7780E-02 0.1920E+02
 8.399      0.1460E+03 0.8200E-02 0.9760E+01
 8.399      0.1470E+03 0.8510E-02 0.9400E+01
 8.399      0.1470E+03 0.9100E-02 0.8790E+01
 8.399      0.1490E+03 0.1030E-01 0.7770E+01
 8.399      0.1550E+03 0.1430E-01 0.5590E+01
 8.399      0.1560E+03 0.1530E-01 0.9800E+01
 8.399      0.1570E+03 0.1730E-01 0.4620E+01
 8.399      0.1570E+03 0.1850E-01 0.4320E+01
 9.060      0.1790E+02 0.2100E+01 0.5000E+01
 9.060      0.1890E+02 0.1920E+01 0.5500E+01
 9.060      0.1980E+02 0.1830E+01 0.6000E+01
 9.060      0.2030E+02 0.1780E+01 0.5000E+01
 9.060      0.2050E+02 0.1670E+01 0.6000E+01
 9.060      0.2080E+02 0.1750E+01 0.5000E+01
 9.060      0.2180E+02 0.1680E+01 0.5500E+01
 9.060      0.2500E+02 0.1220E+01 0.6000E+01
 9.060      0.2530E+02 0.1210E+01 0.5000E+01
 9.060      0.2570E+02 0.1080E+01 0.6000E+01
 9.060      0.2570E+02 0.1190E+01 0.5000E+01
 9.060      0.2670E+02 0.1050E+01 0.5500E+01
 9.060      0.2770E+02 0.9370E+00 0.5000E+01
 9.060      0.2870E+02 0.8830E+00 0.5500E+01
 9.060      0.2870E+02 0.8880E+00 0.5000E+01
 9.060      0.2970E+02 0.7970E+00 0.5500E+01
 9.060      0.3100E+02 0.7030E+00 0.5000E+01
 9.060      0.3570E+02 0.3750E+00 0.5000E+01
 9.060      0.3670E+02 0.3310E+00 0.5500E+01
 9.060      0.3860E+02 0.2370E+00 0.5000E+01
 9.060      0.3960E+02 0.2190E+00 0.5500E+01
 9.060      0.4360E+02 0.1120E+00 0.5000E+01
 9.060      0.4460E+02 0.8770E-01 0.5950E+01
 9.060      0.4660E+02 0.6280E-01 0.5000E+01
 9.060      0.4760E+02 0.4710E-01 0.6760E+01
 9.060      0.5160E+02 0.2070E-01 0.5000E+01
 9.060      0.5440E+02 0.1150E-01 0.8260E+01
 9.060      0.5460E+02 0.1020E-01 0.5880E+01
 9.060      0.5560E+02 0.6880E-02 0.7710E+01
 9.060      0.5910E+02 0.5970E-02 0.1010E+02
 9.060      0.6010E+02 0.5020E-02 0.8550E+01
 9.060      0.6060E+02 0.5540E-02 0.1690E+02
 9.060      0.6210E+02 0.6190E-02 0.9690E+01
 9.060      0.6310E+02 0.7080E-02 0.8120E+01
 9.060      0.6630E+02 0.8050E-02 0.6000E+01
 9.060      0.6710E+02 0.8400E-02 0.7140E+01
 9.060      0.7000E+02 0.1140E-01 0.5260E+01
 9.060      0.7460E+02 0.1430E-01 0.5000E+01
 9.060      0.7750E+02 0.1590E-01 0.5000E+01
 9.060      0.7900E+02 0.1680E-01 0.5940E+01
 9.060      0.8270E+02 0.1690E-01 0.5000E+01
 9.060      0.8350E+02 0.1840E-01 0.5610E+01
 9.060      0.8550E+02 0.1810E-01 0.5000E+01
 9.060      0.8650E+02 0.1880E-01 0.5500E+01
 9.060      0.9000E+02 0.1770E-01 0.5000E+01
 9.060      0.9100E+02 0.1610E-01 0.6270E+01
 9.060      0.9150E+02 0.1540E-01 0.6490E+01
 9.060      0.9300E+02 0.1690E-01 0.5000E+01
 9.060      0.9400E+02 0.1680E-01 0.6240E+01
 9.060      0.9460E+02 0.1510E-01 0.6640E+01
 9.060      0.9800E+02 0.1480E-01 0.5000E+01
 9.060      0.9900E+02 0.1300E-01 0.7760E+01
 9.060      0.1010E+03 0.1250E-01 0.8030E+01
 9.060      0.1020E+03 0.1180E-01 0.8330E+01
 9.060      0.1020E+03 0.1350E-01 0.5000E+01
 9.060      0.1060E+03 0.1120E-01 0.8810E+01
 9.060      0.1060E+03 0.1020E-01 0.5880E+01
 9.060      0.1070E+03 0.9620E-02 0.1040E+02
 9.060      0.1080E+03 0.8840E-02 0.6000E+01
 9.060      0.1090E+03 0.9190E-02 0.6530E+01
 9.060      0.1100E+03 0.7770E-02 0.1280E+02
 9.060      0.1130E+03 0.6750E-02 0.8890E+01
 9.060      0.1130E+03 0.6170E-02 0.1110E+02
 9.060      0.1150E+03 0.4490E-02 0.2220E+02
 9.060      0.1160E+03 0.4220E-02 0.2360E+02
 9.060      0.1160E+03 0.4990E-02 0.1200E+02
 9.060      0.1200E+03 0.4080E-02 0.1470E+02
 9.060      0.1220E+03 0.3220E-02 0.3030E+02
 9.060      0.1230E+03 0.3180E-02 0.1890E+02
 9.060      0.1230E+03 0.3290E-02 0.3640E+02
 9.060      0.1250E+03 0.2750E-02 0.3590E+02
 9.060      0.1290E+03 0.2730E-02 0.2200E+02
 9.060      0.1300E+03 0.2400E-02 0.2840E+02
 9.060      0.1310E+03 0.2690E-02 0.3700E+02
 9.060      0.1320E+03 0.2900E-02 0.2070E+02
 9.060      0.1320E+03 0.2730E-02 0.3650E+02
 9.060      0.1330E+03 0.2820E-02 0.2530E+02
 9.060      0.1370E+03 0.4430E-02 0.1930E+02
 9.060      0.1370E+03 0.4590E-02 0.1310E+02
 9.060      0.1390E+03 0.5360E-02 0.1120E+02
 9.060      0.1400E+03 0.6570E-02 0.1400E+02
 9.060      0.1420E+03 0.5620E-02 0.1780E+02
 9.060      0.1440E+03 0.7790E-02 0.7700E+01
 9.060      0.1450E+03 0.8300E-02 0.1260E+02
 9.060      0.1460E+03 0.7850E-02 0.7640E+01
 9.060      0.1470E+03 0.8600E-02 0.6980E+01
 9.060      0.1470E+03 0.8350E-02 0.7200E+01
 9.060      0.1490E+03 0.1010E-01 0.5940E+01
 9.060      0.1500E+03 0.1010E-01 0.9850E+01
 9.060      0.1550E+03 0.1260E-01 0.5000E+01
 9.060      0.1550E+03 0.1260E-01 0.8120E+01
 9.060      0.1560E+03 0.1220E-01 0.8130E+01
 9.060      0.1570E+03 0.1690E-01 0.5000E+01
 9.060      0.1580E+03 0.1570E-01 0.7090E+01
 9.500      0.1890E+02 0.1800E+01 0.6000E+01
 9.500      0.2010E+02 0.1730E+01 0.6000E+01
 9.500      0.2020E+02 0.1930E+01 0.6000E+01
 9.500      0.2030E+02 0.1810E+01 0.6000E+01
 9.500      0.2080E+02 0.1560E+01 0.5500E+01
 9.500      0.2180E+02 0.1510E+01 0.6000E+01
 9.500      0.2220E+02 0.1570E+01 0.6000E+01
 9.500      0.2480E+02 0.1200E+01 0.6000E+01
 9.500      0.2510E+02 0.1190E+01 0.6000E+01
 9.500      0.2520E+02 0.1120E+01 0.6000E+01
 9.500      0.2570E+02 0.1080E+01 0.5500E+01
 9.500      0.2670E+02 0.9850E+00 0.6000E+01
 9.500      0.2770E+02 0.8790E+00 0.5500E+01
 9.500      0.2870E+02 0.8050E+00 0.6000E+01
 9.500      0.2870E+02 0.8060E+00 0.5500E+01
 9.500      0.2950E+02 0.7500E+00 0.6000E+01
 9.500      0.2970E+02 0.6880E+00 0.6000E+01
 9.500      0.3100E+02 0.5880E+00 0.5500E+01
 9.500      0.3200E+02 0.5900E+00 0.6000E+01
 9.500      0.3570E+02 0.3410E+00 0.5500E+01
 9.500      0.3670E+02 0.3020E+00 0.6000E+01
 9.500      0.3860E+02 0.1950E+00 0.5500E+01
 9.500      0.3960E+02 0.1780E+00 0.6000E+01
 9.500      0.4360E+02 0.9940E-01 0.5500E+01
 9.500      0.4460E+02 0.7010E-01 0.6240E+01
 9.500      0.4660E+02 0.4450E-01 0.5500E+01
 9.500      0.4760E+02 0.3520E-01 0.7000E+01
 9.500      0.5100E+02 0.1690E-01 0.8410E+01
 9.500      0.5160E+02 0.1570E-01 0.5500E+01
 9.500      0.5260E+02 0.1100E-01 0.7660E+01
 9.500      0.5460E+02 0.7780E-02 0.9000E+01
 9.500      0.5560E+02 0.5780E-02 0.1380E+02
 9.500      0.5910E+02 0.5060E-02 0.1380E+02
 9.500      0.6030E+02 0.5640E-02 0.1740E+02
 9.500      0.6210E+02 0.4860E-02 0.1440E+02
 9.500      0.6300E+02 0.6070E-02 0.2440E+02
 9.500      0.6710E+02 0.7780E-02 0.9000E+01
 9.500      0.6800E+02 0.8990E-02 0.1120E+02
 9.500      0.7000E+02 0.1000E-01 0.7000E+01
 9.500      0.7100E+02 0.1160E-01 0.7570E+01
 9.500      0.7460E+02 0.1240E-01 0.5650E+01
 9.500      0.7550E+02 0.1410E-01 0.7160E+01
 9.500      0.7600E+02 0.1350E-01 0.8890E+01
 9.500      0.7750E+02 0.1380E-01 0.5500E+01
 9.500      0.7900E+02 0.1520E-01 0.6350E+01
 9.500      0.8270E+02 0.1550E-01 0.5500E+01
 9.500      0.8350E+02 0.1640E-01 0.6300E+01
 9.500      0.8500E+02 0.1640E-01 0.6500E+01
 9.500      0.8650E+02 0.1560E-01 0.6570E+01
 9.500      0.9000E+02 0.1670E-01 0.5500E+01
 9.500      0.9130E+02 0.1570E-01 0.7640E+01
 9.500      0.9300E+02 0.1500E-01 0.5500E+01
 9.500      0.9440E+02 0.1540E-01 0.9730E+01
 9.500      0.9460E+02 0.1400E-01 0.7150E+01
 9.500      0.9800E+02 0.1390E-01 0.5500E+01
 9.500      0.1000E+03 0.1290E-01 0.9300E+01
 9.500      0.1010E+03 0.1360E-01 0.1100E+02
 9.500      0.1020E+03 0.1330E-01 0.5500E+01
 9.500      0.1060E+03 0.1100E-01 0.6360E+01
 9.500      0.1060E+03 0.1020E-01 0.9810E+01
 9.500      0.1090E+03 0.9240E-02 0.7580E+01
 9.500      0.1100E+03 0.8170E-02 0.7400E+01
 9.500      0.1130E+03 0.6630E-02 0.1060E+02
 9.500      0.1140E+03 0.5860E-02 0.1570E+02
 9.500      0.1160E+03 0.6250E-02 0.2390E+02
 9.500      0.1160E+03 0.5850E-02 0.1200E+02
 9.500      0.1170E+03 0.5310E-02 0.1740E+02
 9.500      0.1200E+03 0.4270E-02 0.1640E+02
 9.500      0.1220E+03 0.4030E-02 0.1990E+02
 9.500      0.1230E+03 0.3480E-02 0.2010E+02
 9.500      0.1250E+03 0.3610E-02 0.2100E+02
 9.500      0.1280E+03 0.3030E-02 0.4910E+02
 9.500      0.1290E+03 0.2920E-02 0.2400E+02
 9.500      0.1300E+03 0.3350E-02 0.2420E+02
 9.500      0.1310E+03 0.3490E-02 0.3430E+02
 9.500      0.1320E+03 0.3350E-02 0.2800E+02
 9.500      0.1330E+03 0.3750E-02 0.2230E+02
 9.500      0.1370E+03 0.4990E-02 0.1820E+02
 9.500      0.1370E+03 0.4820E-02 0.1450E+02
 9.500      0.1390E+03 0.4640E-02 0.1510E+02
 9.500      0.1400E+03 0.5600E-02 0.2140E+02
 9.500      0.1400E+03 0.5300E-02 0.1850E+02
 9.500      0.1420E+03 0.7020E-02 0.2140E+02
 9.500      0.1420E+03 0.7150E-02 0.2100E+02
 9.500      0.1440E+03 0.7740E-02 0.9040E+01
 9.500      0.1450E+03 0.9490E-02 0.1590E+02
 9.500      0.1460E+03 0.1100E-01 0.6360E+01
 9.500      0.1470E+03 0.1000E-01 0.7000E+01
 9.500      0.1470E+03 0.1100E-01 0.1360E+02
 9.500      0.1490E+03 0.1260E-01 0.5560E+01
 9.500      0.1520E+03 0.1400E-01 0.1070E+02
 9.500      0.1550E+03 0.1440E-01 0.1040E+02
 9.500      0.1550E+03 0.1570E-01 0.5500E+01
 9.500      0.1570E+03 0.1720E-01 0.5500E+01
 9.990      0.1790E+02 0.2130E+01 0.5000E+01
 9.990      0.1890E+02 0.2150E+01 0.5000E+01
 9.990      0.2080E+02 0.1780E+01 0.5000E+01
 9.990      0.2180E+02 0.1710E+01 0.5000E+01
 9.990      0.2460E+02 0.1190E+01 0.6000E+01
 9.990      0.2470E+02 0.1150E+01 0.6500E+01
 9.990      0.2550E+02 0.1110E+01 0.7000E+01
 9.990      0.2570E+02 0.1150E+01 0.5000E+01
 9.990      0.2650E+02 0.9860E+00 0.6000E+01
 9.990      0.2740E+02 0.9200E+00 0.7000E+01
 9.990      0.2770E+02 0.8820E+00 0.5000E+01
 9.990      0.2840E+02 0.7730E+00 0.7000E+01
 9.990      0.2870E+02 0.7460E+00 0.5000E+01
 9.990      0.2870E+02 0.8220E+00 0.5000E+01
 9.990      0.2970E+02 0.7240E+00 0.6000E+01
 9.990      0.3100E+02 0.6220E+00 0.5000E+01
 9.990      0.3200E+02 0.5010E+00 0.5000E+01
 9.990      0.3570E+02 0.2940E+00 0.5000E+01
 9.990      0.3670E+02 0.2460E+00 0.5000E+01
 9.990      0.3860E+02 0.1750E+00 0.5000E+01
 9.990      0.3960E+02 0.1370E+00 0.5000E+01
 9.990      0.4360E+02 0.6610E-01 0.5000E+01
 9.990      0.4600E+02 0.4140E-01 0.6500E+01
 9.990      0.4660E+02 0.3810E-01 0.5000E+01
 9.990      0.4750E+02 0.3180E-01 0.6200E+01
 9.990      0.5050E+02 0.1570E-01 0.9030E+01
 9.990      0.5160E+02 0.1180E-01 0.6780E+01
 9.990      0.5460E+02 0.5910E-02 0.1350E+02
 9.990      0.5910E+02 0.4490E-02 0.1780E+02
 9.990      0.6010E+02 0.4650E-02 0.2150E+02
 9.990      0.6110E+02 0.5040E-02 0.2880E+02
 9.990      0.6210E+02 0.5200E-02 0.1540E+02
 9.990      0.6740E+02 0.7240E-02 0.1500E+02
 9.990      0.6970E+02 0.9040E-02 0.1650E+02
 9.990      0.7000E+02 0.9480E-02 0.8440E+01
 9.990      0.7230E+02 0.1200E-01 0.1250E+02
 9.990      0.7460E+02 0.1240E-01 0.6450E+01
 9.990      0.7550E+02 0.1150E-01 0.8700E+01
 9.990      0.7670E+02 0.1230E-01 0.1220E+02
 9.990      0.7750E+02 0.1370E-01 0.5840E+01
 9.990      0.7860E+02 0.1460E-01 0.8000E+01
 9.990      0.8270E+02 0.1590E-01 0.5030E+01
 9.990      0.8370E+02 0.1650E-01 0.6100E+01
 9.990      0.8550E+02 0.1750E-01 0.5000E+01
 9.990      0.8550E+02 0.1770E-01 0.8520E+01
 9.990      0.8650E+02 0.1610E-01 0.6210E+01
 9.990      0.8930E+02 0.1600E-01 0.9380E+01
 9.990      0.9000E+02 0.1680E-01 0.5000E+01
 9.990      0.9100E+02 0.1840E-01 0.5430E+01
 9.990      0.9300E+02 0.1760E-01 0.5000E+01
 9.990      0.9410E+02 0.1590E-01 0.5200E+01
 9.990      0.9770E+02 0.1360E-01 0.1100E+02
 9.990      0.9800E+02 0.1480E-01 0.5410E+01
 9.990      0.9900E+02 0.1530E-01 0.6540E+01
 9.990      0.9930E+02 0.1340E-01 0.1120E+02
 9.990      0.1000E+03 0.1390E-01 0.1080E+02
 9.990      0.1010E+03 0.1300E-01 0.1010E+02
 9.990      0.1020E+03 0.1300E-01 0.6100E+01
 9.990      0.1050E+03 0.1070E-01 0.1100E+02
 9.990      0.1060E+03 0.9590E-02 0.6500E+01
 9.990      0.1070E+03 0.9590E-02 0.1560E+02
 9.990      0.1090E+03 0.8690E-02 0.7400E+01
 9.990      0.1100E+03 0.7150E-02 0.1400E+02
 9.990      0.1130E+03 0.6010E-02 0.1120E+02
 9.990      0.1140E+03 0.5290E-02 0.1500E+02
 9.990      0.1160E+03 0.4300E-02 0.1520E+02
 9.990      0.1170E+03 0.4000E-02 0.2500E+02
 9.990      0.1200E+03 0.4230E-02 0.1890E+02
 9.990      0.1210E+03 0.3920E-02 0.2500E+02
 9.990      0.1220E+03 0.3710E-02 0.2700E+02
 9.990      0.1230E+03 0.3570E-02 0.2240E+02
 9.990      0.1240E+03 0.4190E-02 0.3530E+02
 9.990      0.1250E+03 0.3770E-02 0.2650E+02
 9.990      0.1270E+03 0.4540E-02 0.3300E+02
 9.990      0.1290E+03 0.4150E-02 0.2000E+02
 9.990      0.1310E+03 0.5020E-02 0.2990E+02
 9.990      0.1320E+03 0.5130E-02 0.1410E+02
 9.990      0.1330E+03 0.4020E-02 0.2490E+02
 9.990      0.1360E+03 0.5030E-02 0.1900E+02
 9.990      0.1370E+03 0.6090E-02 0.1310E+02
 9.990      0.1370E+03 0.5800E-02 0.1720E+02
 9.990      0.1390E+03 0.6610E-02 0.1110E+02
 9.990      0.1400E+03 0.7270E-02 0.1380E+02
 9.990      0.1410E+03 0.8780E-02 0.1710E+02
 9.990      0.1440E+03 0.8400E-02 0.9520E+01
 9.990      0.1450E+03 0.9170E-02 0.1090E+02
 9.990      0.1460E+03 0.8630E-02 0.9270E+01
 9.990      0.1470E+03 0.1030E-01 0.8200E+01
 9.990      0.1480E+03 0.9550E-02 0.1050E+02
 9.990      0.1490E+03 0.1230E-01 0.6500E+01
 9.990      0.1500E+03 0.1260E-01 0.7940E+01
 9.990      0.1510E+03 0.1330E-01 0.1130E+02
 9.990      0.1540E+03 0.1370E-01 0.1090E+02
 9.990      0.1550E+03 0.1480E-01 0.5700E+01
 9.990      0.1570E+03 0.1690E-01 0.5290E+01
 9.990      0.1580E+03 0.1550E-01 0.6450E+01
 9.990      0.1620E+03 0.1830E-01 0.8180E+01
ENDDATA            951
ENDSUBENT          978
SUBENT        13523003   20050720   20050909                  1336
BIB                  9         16
REACTION   (28-NI-58(N,INL)28-NI-58,PAR,DA)
INC-SOURCE (D-D)
INC-SPECT  Mean energy determined to about 50 KeV.
METHOD     (TOF). Flight path 15.68 m.
DETECTOR   (SCIN) Organic liquid scintillators.
MONITOR    (1-H-1(N,EL)1-H-1,,DA) Polyethylene
           Relative energy dependence of detectors determined
            relative to neutrons emitted by 252Cf spontaneous
            fission.
CORRECTION Corrected for multiple-event, angular-resolution, and
            beam-attenuation effects
ERR-ANALYS (DATA-ERR) Estimate of total uncertainty.  Includes all
            known statistical and systematic uncertainties, plus
            a 0.5 mb/sr contribution for undentified uncertainty
            sources.
STATUS     Data received by email from A.B.Smith, 91/10/31
ENDBIB              16
COMMON               2          3
E-EXC      EN-ERR
MEV        KEV
-1.454      10.
ENDCOMMON            3
DATA                 4        307
EN         ANG        DATA       DATA-ERR
MEV        ADEG       B/SR       PER-CENT
 4.500      0.1790E+02 0.2905E-01 0.1200E+02
 4.500      0.2254E+02 0.2957E-01 0.1000E+02
 4.500      0.2829E+02 0.2730E-01 0.8000E+01
 4.500      0.3429E+02 0.2628E-01 0.6261E+01
 4.500      0.3874E+02 0.2367E-01 0.5000E+01
 4.500      0.4321E+02 0.2411E-01 0.6283E+01
 4.500      0.4584E+02 0.2247E-01 0.5000E+01
 4.500      0.5226E+02 0.2086E-01 0.5000E+01
 4.500      0.5657E+02 0.2104E-01 0.5000E+01
 4.500      0.6191E+02 0.2024E-01 0.5000E+01
 4.500      0.6756E+02 0.1878E-01 0.5085E+01
 4.500      0.7180E+02 0.1797E-01 0.5000E+01
 4.500      0.7716E+02 0.1828E-01 0.5000E+01
 4.500      0.8295E+02 0.1831E-01 0.5099E+01
 4.500      0.8724E+02 0.1680E-01 0.5000E+01
 4.500      0.9267E+02 0.1697E-01 0.5000E+01
 4.500      0.9837E+02 0.1780E-01 0.5107E+01
 4.500      0.1029E+03 0.1641E-01 0.5000E+01
 4.500      0.1081E+03 0.1769E-01 0.5000E+01
 4.500      0.1136E+03 0.1715E-01 0.5217E+01
 4.500      0.1179E+03 0.1746E-01 0.5000E+01
 4.500      0.1237E+03 0.1883E-01 0.5000E+01
 4.500      0.1285E+03 0.1810E-01 0.5657E+01
 4.500      0.1333E+03 0.1807E-01 0.5000E+01
 4.500      0.1380E+03 0.1710E-01 0.8000E+01
 4.500      0.1432E+03 0.1672E-01 0.8000E+01
 4.500      0.1468E+03 0.1748E-01 0.1000E+02
 4.500      0.1524E+03 0.1669E-01 0.1200E+02
 4.500      0.1564E+03 0.1656E-01 0.1300E+02
 5.000      0.1790E+02 0.2315E-01 0.1200E+02
 5.000      0.2290E+02 0.2203E-01 0.1000E+02
 5.000      0.2789E+02 0.2206E-01 0.8000E+01
 5.000      0.3420E+02 0.2040E-01 0.5000E+01
 5.000      0.3810E+02 0.1920E-01 0.5000E+01
 5.000      0.4210E+02 0.1870E-01 0.5010E+01
 5.000      0.4553E+02 0.1807E-01 0.5000E+01
 5.000      0.5160E+02 0.1640E-01 0.5000E+01
 5.000      0.5700E+02 0.1663E-01 0.5000E+01
 5.000      0.6137E+02 0.1540E-01 0.5000E+01
 5.000      0.6705E+02 0.1395E-01 0.5000E+01
 5.000      0.7233E+02 0.1366E-01 0.5000E+01
 5.000      0.7686E+02 0.1388E-01 0.5000E+01
 5.000      0.8250E+02 0.1390E-01 0.5000E+01
 5.000      0.8779E+02 0.1485E-01 0.5000E+01
 5.000      0.9242E+02 0.1380E-01 0.5000E+01
 5.000      0.9800E+02 0.1430E-01 0.5000E+01
 5.000      0.1034E+03 0.1377E-01 0.5000E+01
 5.000      0.1080E+03 0.1508E-01 0.5000E+01
 5.000      0.1135E+03 0.1470E-01 0.5000E+01
 5.000      0.1184E+03 0.1459E-01 0.5000E+01
 5.000      0.1230E+03 0.1393E-01 0.5000E+01
 5.000      0.1285E+03 0.1450E-01 0.5000E+01
 5.000      0.1341E+03 0.1391E-01 0.5000E+01
 5.000      0.1380E+03 0.1410E-01 0.5000E+01
 5.000      0.1436E+03 0.1282E-01 0.8000E+01
 5.000      0.1470E+03 0.1348E-01 0.1000E+02
 5.000      0.1527E+03 0.1467E-01 0.1200E+02
 5.500      0.2990E+02 0.1950E-01 0.1500E+02
 5.500      0.3090E+02 0.2050E-01 0.1300E+02
 5.500      0.3790E+02 0.1833E-01 0.1100E+02
 5.500      0.4350E+02 0.1810E-01 0.1000E+02
 5.500      0.4607E+02 0.1666E-01 0.6167E+01
 5.500      0.5342E+02 0.1379E-01 0.7252E+01
 5.500      0.5890E+02 0.1400E-01 0.1000E+02
 5.500      0.6194E+02 0.1285E-01 0.7782E+01
 5.500      0.6873E+02 0.1225E-01 0.8163E+01
 5.500      0.7255E+02 0.1190E-01 0.8403E+01
 5.500      0.7766E+02 0.1182E-01 0.8460E+01
 5.500      0.8711E+02 0.1099E-01 0.9099E+01
 5.500      0.9355E+02 0.1210E-01 0.8264E+01
 5.500      0.9790E+02 0.1190E-01 0.1000E+02
 5.500      0.1023E+03 0.1157E-01 0.8643E+01
 5.500      0.1081E+03 0.1214E-01 0.8237E+01
 5.500      0.1164E+03 0.1192E-01 0.8389E+01
 5.500      0.1226E+03 0.1190E-01 0.8403E+01
 5.500      0.1290E+03 0.1260E-01 0.1000E+02
 5.500      0.1320E+03 0.1137E-01 0.8795E+01
 5.500      0.1375E+03 0.1160E-01 0.8000E+01
 5.500      0.1422E+03 0.1205E-01 0.1000E+02
 5.500      0.1472E+03 0.1090E-01 0.1200E+02
 5.500      0.1522E+03 0.1146E-01 0.1400E+02
 5.500      0.1570E+03 0.1126E-01 0.1400E+02
 5.899      0.3040E+02 0.2280E-01 0.2500E+02
 5.899      0.3530E+02 0.2217E-01 0.2000E+02
 5.899      0.4310E+02 0.1660E-01 0.1500E+02
 5.899      0.4589E+02 0.1585E-01 0.7746E+01
 5.899      0.5186E+02 0.1420E-01 0.7042E+01
 5.899      0.5721E+02 0.1229E-01 0.8881E+01
 5.899      0.6139E+02 0.1078E-01 0.9276E+01
 5.899      0.6835E+02 0.1052E-01 0.9506E+01
 5.899      0.7400E+02 0.1140E-01 0.1200E+02
 5.899      0.7755E+02 0.1041E-01 0.9606E+01
 5.899      0.8291E+02 0.1062E-01 0.9416E+01
 5.899      0.8736E+02 0.1112E-01 0.8993E+01
 5.899      0.9293E+02 0.1060E-01 0.9434E+01
 5.899      0.9832E+02 0.1048E-01 0.9542E+01
 5.899      0.1027E+03 0.1111E-01 0.9001E+01
 5.899      0.1083E+03 0.1031E-01 0.9699E+01
 5.899      0.1130E+03 0.1238E-01 0.8078E+01
 5.899      0.1174E+03 0.1147E-01 0.8718E+01
 5.899      0.1235E+03 0.1040E-01 0.9615E+01
 5.899      0.1285E+03 0.1114E-01 0.8977E+01
 5.899      0.1313E+03 0.1097E-01 0.1110E+02
 5.899      0.1381E+03 0.1071E-01 0.9337E+01
 5.899      0.1430E+03 0.1113E-01 0.1124E+02
 5.899      0.1473E+03 0.1030E-01 0.9709E+01
 5.899      0.1532E+03 0.9532E-02 0.1049E+02
 5.899      0.1570E+03 0.9762E-02 0.1392E+02
 6.500      0.3010E+02 0.1850E-01 0.2500E+02
 6.500      0.3572E+02 0.1580E-01 0.2000E+02
 6.500      0.4300E+02 0.1240E-01 0.1500E+02
 6.500      0.4569E+02 0.1239E-01 0.8071E+01
 6.500      0.5259E+02 0.1014E-01 0.9862E+01
 6.500      0.5850E+02 0.8290E-02 0.1210E+02
 6.500      0.6175E+02 0.9184E-02 0.1089E+02
 6.500      0.6927E+02 0.8561E-02 0.1168E+02
 6.500      0.7390E+02 0.9000E-02 0.1111E+02
 6.500      0.7724E+02 0.8756E-02 0.1142E+02
 6.500      0.8381E+02 0.8569E-02 0.1167E+02
 6.500      0.8710E+02 0.8403E-02 0.1190E+02
 6.500      0.9267E+02 0.8622E-02 0.1160E+02
 6.500      0.9740E+02 0.7820E-02 0.1280E+02
 6.500      0.1022E+03 0.9046E-02 0.1105E+02
 6.500      0.1083E+03 0.8828E-02 0.1133E+02
 6.500      0.1130E+03 0.8330E-02 0.1200E+02
 6.500      0.1171E+03 0.8957E-02 0.1116E+02
 6.500      0.1234E+03 0.8361E-02 0.1196E+02
 6.500      0.1280E+03 0.8380E-02 0.1193E+02
 6.500      0.1317E+03 0.8025E-02 0.1246E+02
 6.500      0.1373E+03 0.8124E-02 0.1231E+02
 6.500      0.1425E+03 0.7370E-02 0.1357E+02
 6.500      0.1473E+03 0.7658E-02 0.1306E+02
 6.500      0.1525E+03 0.7270E-02 0.1376E+02
 6.500      0.1570E+03 0.7446E-02 0.1343E+02
 7.140      0.3470E+02 0.1657E-01 0.2500E+02
 7.140      0.3701E+02 0.1560E-01 0.2000E+02
 7.140      0.4440E+02 0.1296E-01 0.1500E+02
 7.140      0.4626E+02 0.1169E-01 0.8554E+01
 7.140      0.5256E+02 0.9445E-02 0.1059E+02
 7.140      0.5890E+02 0.8030E-02 0.1250E+02
 7.140      0.6193E+02 0.8096E-02 0.1235E+02
 7.140      0.6636E+02 0.7332E-02 0.1529E+02
 7.140      0.7440E+02 0.7140E-02 0.1401E+02
 7.140      0.7777E+02 0.7572E-02 0.1321E+02
 7.140      0.8327E+02 0.7246E-02 0.1380E+02
 7.140      0.8773E+02 0.7500E-02 0.1333E+02
 7.140      0.9324E+02 0.8382E-02 0.1193E+02
 7.140      0.9846E+02 0.8451E-02 0.1183E+02
 7.140      0.1038E+03 0.8088E-02 0.1236E+02
 7.140      0.1078E+03 0.8376E-02 0.1194E+02
 7.140      0.1134E+03 0.6673E-02 0.1499E+02
 7.140      0.1160E+03 0.6929E-02 0.1443E+02
 7.140      0.1230E+03 0.6064E-02 0.1649E+02
 7.140      0.1280E+03 0.5590E-02 0.1800E+02
 7.140      0.1317E+03 0.5668E-02 0.1764E+02
 7.140      0.1375E+03 0.5545E-02 0.1803E+02
 7.140      0.1425E+03 0.6090E-02 0.1642E+02
 7.140      0.1477E+03 0.6247E-02 0.1601E+02
 7.140      0.1526E+03 0.6986E-02 0.1431E+02
 7.140      0.1565E+03 0.6692E-02 0.1494E+02
 7.500      0.3530E+02 0.1530E-01 0.2090E+02
 7.500      0.4582E+02 0.9617E-02 0.2000E+02
 7.500      0.5255E+02 0.7461E-02 0.1500E+02
 7.500      0.5800E+02 0.6100E-02 0.1639E+02
 7.500      0.6134E+02 0.6607E-02 0.1514E+02
 7.500      0.6809E+02 0.5823E-02 0.1717E+02
 7.500      0.7691E+02 0.5814E-02 0.1720E+02
 7.500      0.8324E+02 0.6095E-02 0.1641E+02
 7.500      0.8738E+02 0.6293E-02 0.1589E+02
 7.500      0.9237E+02 0.6727E-02 0.1487E+02
 7.500      0.9840E+02 0.6440E-02 0.1553E+02
 7.500      0.1024E+03 0.6764E-02 0.1478E+02
 7.500      0.1075E+03 0.6858E-02 0.1458E+02
 7.500      0.1135E+03 0.6280E-02 0.1592E+02
 7.500      0.1178E+03 0.6672E-02 0.1499E+02
 7.500      0.1230E+03 0.6545E-02 0.1528E+02
 7.500      0.1280E+03 0.6010E-02 0.1664E+02
 7.500      0.1327E+03 0.5813E-02 0.1720E+02
 7.500      0.1380E+03 0.6610E-02 0.1513E+02
 7.500      0.1431E+03 0.6739E-02 0.1484E+02
 7.500      0.1471E+03 0.6671E-02 0.1499E+02
 7.500      0.1527E+03 0.7397E-02 0.1352E+02
 7.500      0.1566E+03 0.7412E-02 0.1349E+02
 8.029      0.4260E+02 0.1343E-01 0.2500E+02
 8.029      0.4707E+02 0.9322E-02 0.2000E+02
 8.029      0.5213E+02 0.6893E-02 0.1500E+02
 8.029      0.5707E+02 0.5617E-02 0.1335E+02
 8.029      0.6140E+02 0.5652E-02 0.1327E+02
 8.029      0.6657E+02 0.5687E-02 0.1319E+02
 8.029      0.7262E+02 0.5557E-02 0.1350E+02
 8.029      0.7727E+02 0.5750E-02 0.1304E+02
 8.029      0.8185E+02 0.6531E-02 0.1148E+02
 8.029      0.8749E+02 0.6150E-02 0.1220E+02
 8.029      0.9331E+02 0.6643E-02 0.1129E+02
 8.029      0.9829E+02 0.5434E-02 0.1458E+02
 8.029      0.1030E+03 0.5077E-02 0.1477E+02
 8.029      0.1076E+03 0.5095E-02 0.1472E+02
 8.029      0.1123E+03 0.5197E-02 0.1443E+02
 8.029      0.1177E+03 0.4208E-02 0.1782E+02
 8.029      0.1231E+03 0.3947E-02 0.1900E+02
 8.029      0.1280E+03 0.4080E-02 0.2200E+02
 8.029      0.1330E+03 0.3890E-02 0.2320E+02
 8.029      0.1428E+03 0.4579E-02 0.1638E+02
 8.029      0.1468E+03 0.5414E-02 0.1500E+02
 8.029      0.1525E+03 0.6380E-02 0.2000E+02
 8.029      0.1564E+03 0.5304E-02 0.2500E+02
 8.400      0.3273E+02 0.1716E-01 0.2500E+02
 8.400      0.3715E+02 0.1285E-01 0.2000E+02
 8.400      0.4360E+02 0.9730E-02 0.1500E+02
 8.400      0.4611E+02 0.9226E-02 0.1085E+02
 8.400      0.5324E+02 0.6390E-02 0.1565E+02
 8.400      0.5910E+02 0.5960E-02 0.1678E+02
 8.400      0.6210E+02 0.5660E-02 0.1767E+02
 8.400      0.6901E+02 0.4813E-02 0.2078E+02
 8.400      0.7460E+02 0.5270E-02 0.1898E+02
 8.400      0.7734E+02 0.5501E-02 0.1818E+02
 8.400      0.8399E+02 0.5643E-02 0.1772E+02
 8.400      0.8775E+02 0.6515E-02 0.1535E+02
 8.400      0.9350E+02 0.5825E-02 0.1717E+02
 8.400      0.9886E+02 0.5537E-02 0.1806E+02
 8.400      0.1018E+03 0.5451E-02 0.1835E+02
 8.400      0.1074E+03 0.4984E-02 0.2006E+02
 8.400      0.1137E+03 0.4272E-02 0.2341E+02
 8.400      0.1172E+03 0.3971E-02 0.2518E+02
 8.400      0.1234E+03 0.3331E-02 0.3002E+02
 8.400      0.1290E+03 0.3810E-02 0.2625E+02
 8.400      0.1318E+03 0.3502E-02 0.2856E+02
 8.400      0.1380E+03 0.3330E-02 0.3003E+02
 8.400      0.1440E+03 0.3540E-02 0.2825E+02
 8.400      0.1471E+03 0.3786E-02 0.2641E+02
 8.400      0.1550E+03 0.4020E-02 0.2488E+02
 8.400      0.1570E+03 0.5050E-02 0.1980E+02
 9.059      0.3490E+02 0.1200E-01 0.2500E+02
 9.059      0.3815E+02 0.1170E-01 0.2000E+02
 9.059      0.4360E+02 0.1230E-01 0.1800E+02
 9.059      0.4634E+02 0.8539E-02 0.1600E+02
 9.059      0.5289E+02 0.7798E-02 0.1400E+02
 9.059      0.5740E+02 0.5798E-02 0.1094E+02
 9.059      0.6157E+02 0.5217E-02 0.1150E+02
 9.059      0.6826E+02 0.4703E-02 0.1276E+02
 9.059      0.7291E+02 0.5241E-02 0.1145E+02
 9.059      0.7728E+02 0.4775E-02 0.1257E+02
 9.059      0.8413E+02 0.5435E-02 0.1104E+02
 9.059      0.8738E+02 0.5799E-02 0.1035E+02
 9.059      0.9216E+02 0.5263E-02 0.1140E+02
 9.059      0.9882E+02 0.5190E-02 0.1156E+02
 9.059      0.1017E+03 0.4717E-02 0.1272E+02
 9.059      0.1079E+03 0.4463E-02 0.1344E+02
 9.059      0.1141E+03 0.3788E-02 0.1584E+02
 9.059      0.1177E+03 0.3553E-02 0.1689E+02
 9.059      0.1231E+03 0.3135E-02 0.1914E+02
 9.059      0.1292E+03 0.2891E-02 0.2075E+02
 9.059      0.1318E+03 0.3139E-02 0.1911E+02
 9.059      0.1384E+03 0.3074E-02 0.1952E+02
 9.059      0.1438E+03 0.3254E-02 0.1844E+02
 9.059      0.1475E+03 0.3552E-02 0.1689E+02
 9.059      0.1550E+03 0.3647E-02 0.1645E+02
 9.500      0.3200E+02 0.1530E-01 0.2500E+02
 9.500      0.3815E+02 0.1365E-01 0.2000E+02
 9.500      0.4469E+02 0.9320E-02 0.1800E+02
 9.500      0.4690E+02 0.9370E-02 0.1600E+02
 9.500      0.5247E+02 0.6114E-02 0.1400E+02
 9.500      0.5766E+02 0.4335E-02 0.1615E+02
 9.500      0.6187E+02 0.4646E-02 0.1507E+02
 9.500      0.6838E+02 0.4596E-02 0.1523E+02
 9.500      0.7299E+02 0.5293E-02 0.1323E+02
 9.500      0.7788E+02 0.5448E-02 0.1285E+02
 9.500      0.8419E+02 0.5833E-02 0.1200E+02
 9.500      0.8741E+02 0.5740E-02 0.1220E+02
 9.500      0.9332E+02 0.6113E-02 0.1145E+02
 9.500      0.9890E+02 0.5466E-02 0.1281E+02
 9.500      0.1015E+03 0.5045E-02 0.1388E+02
 9.500      0.1083E+03 0.4113E-02 0.1702E+02
 9.500      0.1138E+03 0.3361E-02 0.2083E+02
 9.500      0.1172E+03 0.3159E-02 0.2216E+02
 9.500      0.1234E+03 0.2814E-02 0.2488E+02
 9.500      0.1291E+03 0.2817E-02 0.2485E+02
 9.500      0.1320E+03 0.2871E-02 0.2438E+02
 9.500      0.1388E+03 0.2764E-02 0.2533E+02
 9.500      0.1438E+03 0.3473E-02 0.2016E+02
 9.500      0.1477E+03 0.3676E-02 0.1904E+02
 9.500      0.1539E+03 0.3766E-02 0.1859E+02
 9.999      0.3268E+02 0.1556E-01 0.2500E+02
 9.999      0.3762E+02 0.1325E-01 0.2000E+02
 9.999      0.4383E+02 0.9799E-02 0.1800E+02
 9.999      0.4678E+02 0.8391E-02 0.1600E+02
 9.999      0.5252E+02 0.5696E-02 0.1756E+02
 9.999      0.5742E+02 0.5467E-02 0.1829E+02
 9.999      0.6186E+02 0.4127E-02 0.2423E+02
 9.999      0.6835E+02 0.4399E-02 0.2273E+02
 9.999      0.7308E+02 0.4675E-02 0.2139E+02
 9.999      0.7741E+02 0.4808E-02 0.2080E+02
 9.999      0.8320E+02 0.5287E-02 0.1891E+02
 9.999      0.8736E+02 0.6002E-02 0.1666E+02
 9.999      0.9291E+02 0.5240E-02 0.1908E+02
 9.999      0.9868E+02 0.4992E-02 0.2003E+02
 9.999      0.1025E+03 0.4350E-02 0.2299E+02
 9.999      0.1079E+03 0.3464E-02 0.2887E+02
 9.999      0.1135E+03 0.2670E-02 0.3745E+02
 9.999      0.1163E+03 0.2554E-02 0.3915E+02
 9.999      0.1225E+03 0.2491E-02 0.4014E+02
 9.999      0.1290E+03 0.2650E-02 0.3774E+02
 9.999      0.1319E+03 0.2971E-02 0.3366E+02
 9.999      0.1382E+03 0.3092E-02 0.3234E+02
 9.999      0.1434E+03 0.3263E-02 0.3065E+02
 9.999      0.1481E+03 0.3914E-02 0.2555E+02
 9.999      0.1536E+03 0.3955E-02 0.2528E+02
ENDDATA            309
ENDSUBENT          334
SUBENT        13523004   19911112   20050909                  1336
BIB                  9         14
REACTION   (28-NI-58(N,TOT),,SIG,,AV)
INC-SOURCE White neutron source. Thick targets of lithium and
            beryllium bombarbed by 7.0 MeV deuterons
INC-SPECT  Mean energy determined to about 50 keV.
METHOD     Rotating-sample method
DETECTOR   (SCIN) Proton recil scintillator
ANALYSIS   Averaged over incident energy in bins of:
                     10 keV up to 4 MeV;
                     50 keV from 4-6 MeV;
                    100 keV from 6-8 MeV;
                    250 keV from 8-10 MeV.
CORRECTION Corrected for deadtime.
ERR-ANALYS (DATA-ERR) Statistical uncertainty
STATUS     Data received from A.B.Smith, 91/11/12
ENDBIB              14
NOCOMMON             0          0
DATA                 3         71
EN         DATA       DATA-ERR
MEV        B          B
 0.1050E+01 0.2701E+01 0.2561E-01
 0.1150E+01 0.2986E+01 0.1948E-01
 0.1249E+01 0.3585E+01 0.1691E-01
 0.1350E+01 0.3617E+01 0.1586E-01
 0.1449E+01 0.3368E+01 0.1420E-01
 0.1549E+01 0.3106E+01 0.1323E-01
 0.1650E+01 0.3218E+01 0.1301E-01
 0.1749E+01 0.3159E+01 0.1274E-01
 0.1850E+01 0.2981E+01 0.1243E-01
 0.1950E+01 0.2748E+01 0.1242E-01
 0.2050E+01 0.3096E+01 0.1191E-01
 0.2151E+01 0.3003E+01 0.1202E-01
 0.2251E+01 0.3197E+01 0.1206E-01
 0.2350E+01 0.3206E+01 0.1155E-01
 0.2450E+01 0.3157E+01 0.1187E-01
 0.2553E+01 0.3169E+01 0.1135E-01
 0.2651E+01 0.3085E+01 0.1283E-01
 0.2751E+01 0.3310E+01 0.1494E-01
 0.2850E+01 0.3370E+01 0.1475E-01
 0.2951E+01 0.3363E+01 0.1557E-01
 0.3051E+01 0.3187E+01 0.1511E-01
 0.3151E+01 0.3126E+01 0.1865E-01
 0.3251E+01 0.3299E+01 0.1710E-01
 0.3351E+01 0.3414E+01 0.1450E-01
 0.3450E+01 0.3374E+01 0.1676E-01
 0.3551E+01 0.3565E+01 0.1995E-01
 0.3651E+01 0.3445E+01 0.1905E-01
 0.3750E+01 0.3449E+01 0.1974E-01
 0.3850E+01 0.3486E+01 0.1905E-01
 0.3951E+01 0.3467E+01 0.1989E-01
 0.4049E+01 0.3493E+01 0.1528E-01
 0.4149E+01 0.3428E+01 0.1536E-01
 0.4251E+01 0.3476E+01 0.1567E-01
 0.4348E+01 0.3525E+01 0.1574E-01
 0.4451E+01 0.3670E+01 0.1669E-01
 0.4547E+01 0.3626E+01 0.1671E-01
 0.4647E+01 0.3567E+01 0.1543E-01
 0.4757E+01 0.3634E+01 0.1598E-01
 0.4847E+01 0.3522E+01 0.1749E-01
 0.4948E+01 0.3557E+01 0.1520E-01
 0.5050E+01 0.3668E+01 0.1599E-01
 0.5152E+01 0.3685E+01 0.1872E-01
 0.5250E+01 0.3738E+01 0.1858E-01
 0.5346E+01 0.3727E+01 0.2032E-01
 0.5449E+01 0.3645E+01 0.2094E-01
 0.5549E+01 0.3657E+01 0.1875E-01
 0.5654E+01 0.3647E+01 0.2095E-01
 0.5753E+01 0.3702E+01 0.2172E-01
 0.5854E+01 0.3666E+01 0.2453E-01
 0.6045E+01 0.3683E+01 0.3576E-01
 0.6202E+01 0.3694E+01 0.3329E-01
 0.6354E+01 0.3730E+01 0.5484E-01
 0.6502E+01 0.3693E+01 0.3800E-01
 0.6654E+01 0.3700E+01 0.5144E-01
 0.6802E+01 0.3606E+01 0.4072E-01
 0.6955E+01 0.3597E+01 0.5093E-01
 0.7103E+01 0.3582E+01 0.4116E-01
 0.7251E+01 0.3661E+01 0.5342E-01
 0.7405E+01 0.3593E+01 0.4053E-01
 0.7553E+01 0.3509E+01 0.5904E-01
 0.7706E+01 0.3568E+01 0.4236E-01
 0.7853E+01 0.3509E+01 0.6506E-01
 0.7950E+01 0.3475E+01 0.5851E-01
 0.8126E+01 0.3508E+01 0.3885E-01
 0.8366E+01 0.3483E+01 0.3924E-01
 0.8624E+01 0.3346E+01 0.3560E-01
 0.8874E+01 0.3452E+01 0.4280E-01
 0.9116E+01 0.3310E+01 0.4048E-01
 0.9375E+01 0.3296E+01 0.4514E-01
 0.9622E+01 0.3237E+01 0.5076E-01
 0.9881E+01 0.3287E+01 0.4973E-01
ENDDATA             73
ENDSUBENT           92
ENDENTRY             4
