ENTRY            13589   20240213   20240506   20240506       1510
SUBENT        13589001   20240213   20240506   20240506       1510
BIB                 14         20
INSTITUTE  (1USAANL)
REFERENCE  (J,JP/G,20,795,1994)
           #doi:10.1088/0954-3899/20/5/013
AUTHOR     (A.B.Smith,P.T.Guenther)
TITLE      Fast-neutron scattering from vibrational nuclei: 103Rh
FACILITY   (DYNAM,1USAANL)
INC-SOURCE (D-D)
SAMPLE     Metallic rhodium, chemical purity >>99%.
METHOD     (TOF)
DETECTOR   (SCIN)
MONITOR    (1-H-1(N,EL)1-H-1,,DA)
CORRECTION Corrected for sample attenuation, multiple events, and
            angular resolution effects.
ERR-ANALYS (DATA-ERR) No information on source of uncertainty
STATUS     (TABLE) Data received on diskette from A.B. Smith,
            93/11/29
           (APRVD) Approved by A.B. Smith, 93/12/13
HISTORY    (19931129C)
           (19951227A) Reference updated.
           (20240212A) OS. REACTION corrected
ENDBIB              20
NOCOMMON             0          0
ENDSUBENT           23
SUBENT        13589002   20240213   20240506   20240506       1510
BIB                  2          2
REACTION   (45-RH-103(N,SCT)45-RH-103,PAR,DA)
HISTORY    (20240212A) REACTION changed to SCT,PAR. E-LVL added.
ENDBIB               2
COMMON               3          3
E-LVL      E-LVL      E-LVL
KEV        KEV        KEV
  0.         39.8        93.0
ENDCOMMON            3
DATA                 4        480
EN         ANG        DATA       DATA-ERR
MEV        ADEG       B/SR       PER-CENT
4.5050      0.1737E+02 0.1648E+01 0.3829E+01
4.5050      0.2132E+02 0.1236E+01 0.4306E+01
4.5050      0.2528E+02 0.8892E+00 0.4854E+01
4.5050      0.2727E+02 0.7487E+00 0.5102E+01
4.5050      0.2925E+02 0.5901E+00 0.5544E+01
4.5050      0.3124E+02 0.4604E+00 0.5992E+01
4.5050      0.3522E+02 0.2579E+00 0.7066E+01
4.5050      0.3921E+02 0.1324E+00 0.7943E+01
4.5050      0.4269E+02 0.6394E-01 0.8169E+01
4.5050      0.4668E+02 0.4064E-01 0.7382E+01
4.5050      0.5067E+02 0.4792E-01 0.6261E+01
4.5050      0.5466E+02 0.7435E-01 0.5067E+01
4.5050      0.5815E+02 0.1023E+00 0.4290E+01
4.5050      0.6215E+02 0.1285E+00 0.3569E+01
4.5050      0.6614E+02 0.1495E+00 0.3128E+01
4.5050      0.7013E+02 0.1567E+00 0.3000E+01
4.5050      0.7362E+02 0.1520E+00 0.3095E+01
4.5050      0.7762E+02 0.1304E+00 0.3432E+01
4.5050      0.8161E+02 0.1079E+00 0.3942E+01
4.5050      0.8561E+02 0.7816E-01 0.4731E+01
4.5050      0.8910E+02 0.5666E-01 0.5459E+01
4.5050      0.9309E+02 0.3449E-01 0.8698E+01
4.5050      0.9709E+02 0.1777E-01 0.1688E+02
4.5050      0.1011E+03 0.9929E-02 0.3021E+02
4.5050      0.1051E+03 0.8463E-02 0.3545E+02
4.5050      0.1091E+03 0.1272E-01 0.2358E+02
4.5050      0.1131E+03 0.2030E-01 0.1478E+02
4.5050      0.1171E+03 0.2847E-01 0.1054E+02
4.5050      0.1200E+03 0.3912E-01 0.7669E+01
4.5050      0.1240E+03 0.4675E-01 0.6418E+01
4.5050      0.1280E+03 0.5299E-01 0.5661E+01
4.5050      0.1320E+03 0.5065E-01 0.5924E+01
4.5050      0.1355E+03 0.5145E-01 0.5831E+01
4.5050      0.1395E+03 0.4434E-01 0.6765E+01
4.5050      0.1435E+03 0.3695E-01 0.8119E+01
4.5050      0.1455E+03 0.3375E-01 0.8889E+01
4.5050      0.1475E+03 0.3152E-01 0.9518E+01
4.5050      0.1494E+03 0.2831E-01 0.1060E+02
4.5050      0.1534E+03 0.2433E-01 0.1233E+02
4.5050      0.1574E+03 0.2288E-01 0.1311E+02
5.0050      0.1737E+02 0.1850E+01 0.3956E+01
5.0050      0.2132E+02 0.1369E+01 0.4490E+01
5.0050      0.2528E+02 0.9368E+00 0.5195E+01
5.0050      0.2727E+02 0.7817E+00 0.5464E+01
5.0050      0.2925E+02 0.6046E+00 0.5982E+01
5.0050      0.3124E+02 0.4569E+00 0.6562E+01
5.0050      0.3522E+02 0.2283E+00 0.8252E+01
5.0050      0.3921E+02 0.1034E+00 0.9730E+01
5.0050      0.4269E+02 0.4734E-01 0.9152E+01
5.0050      0.4668E+02 0.2547E-01 0.1178E+02
5.0050      0.5067E+02 0.3956E-01 0.7583E+01
5.0050      0.5466E+02 0.7098E-01 0.5850E+01
5.0050      0.5815E+02 0.1062E+00 0.4368E+01
5.0050      0.6215E+02 0.1414E+00 0.3460E+01
5.0050      0.6614E+02 0.1530E+00 0.3085E+01
5.0050      0.7013E+02 0.1564E+00 0.3007E+01
5.0050      0.7362E+02 0.1507E+00 0.3151E+01
5.0050      0.7762E+02 0.1263E+00 0.3559E+01
5.0050      0.8161E+02 0.9984E-01 0.4190E+01
5.0050      0.8561E+02 0.7138E-01 0.5070E+01
5.0050      0.8910E+02 0.5083E-01 0.5902E+01
5.0050      0.9309E+02 0.2795E-01 0.1073E+02
5.0050      0.9709E+02 0.1309E-01 0.2292E+02
5.0050      0.1011E+03 0.8280E-02 0.3623E+02
5.0050      0.1051E+03 0.8544E-02 0.3511E+02
5.0050      0.1091E+03 0.1348E-01 0.2226E+02
5.0050      0.1131E+03 0.2233E-01 0.1344E+02
5.0050      0.1171E+03 0.3406E-01 0.8807E+01
5.0050      0.1200E+03 0.4494E-01 0.6676E+01
5.0050      0.1240E+03 0.5218E-01 0.5749E+01
5.0050      0.1280E+03 0.5513E-01 0.5442E+01
5.0050      0.1320E+03 0.5591E-01 0.5366E+01
5.0050      0.1355E+03 0.5030E-01 0.5965E+01
5.0050      0.1395E+03 0.4333E-01 0.6924E+01
5.0050      0.1435E+03 0.3397E-01 0.8832E+01
5.0050      0.1455E+03 0.2856E-01 0.1050E+02
5.0050      0.1475E+03 0.2404E-01 0.1248E+02
5.0050      0.1494E+03 0.2045E-01 0.1467E+02
5.0050      0.1534E+03 0.1587E-01 0.1890E+02
5.0050      0.1574E+03 0.1348E-01 0.2226E+02
5.5050      0.1737E+02 0.1958E+01 0.4014E+01
5.5050      0.2132E+02 0.1414E+01 0.4622E+01
5.5050      0.2528E+02 0.9452E+00 0.5433E+01
5.5050      0.2727E+02 0.7908E+00 0.5688E+01
5.5050      0.2925E+02 0.6497E+00 0.5927E+01
5.5050      0.3124E+02 0.4254E+00 0.7231E+01
5.5050      0.3522E+02 0.1984E+00 0.9462E+01
5.5050      0.3921E+02 0.9393E-01 0.1006E+02
5.5050      0.4269E+02 0.3505E-01 0.9721E+01
5.5050      0.4668E+02 0.2372E-01 0.1265E+02
5.5050      0.5067E+02 0.5133E-01 0.7485E+01
5.5050      0.5466E+02 0.9095E-01 0.5314E+01
5.5050      0.5815E+02 0.1247E+00 0.4057E+01
5.5050      0.6215E+02 0.1552E+00 0.3286E+01
5.5050      0.6614E+02 0.1660E+00 0.3015E+01
5.5050      0.7013E+02 0.1590E+00 0.3067E+01
5.5050      0.7362E+02 0.1512E+00 0.3300E+01
5.5050      0.7762E+02 0.1194E+00 0.3844E+01
5.5050      0.8161E+02 0.9180E-01 0.4547E+01
5.5050      0.8561E+02 0.6140E-01 0.5598E+01
5.5050      0.8910E+02 0.4079E-01 0.7354E+01
5.5050      0.9309E+02 0.1969E-01 0.1524E+02
5.5050      0.9709E+02 0.1008E-01 0.2976E+02
5.5050      0.1011E+03 0.7515E-02 0.3992E+02
5.5050      0.1051E+03 0.1003E-01 0.2991E+02
5.5050      0.1091E+03 0.1636E-01 0.1833E+02
5.5050      0.1131E+03 0.2814E-01 0.1066E+02
5.5050      0.1171E+03 0.3688E-01 0.8134E+01
5.5050      0.1200E+03 0.4684E-01 0.6404E+01
5.5050      0.1240E+03 0.5173E-01 0.5799E+01
5.5050      0.1280E+03 0.5364E-01 0.5592E+01
5.5050      0.1320E+03 0.5186E-01 0.5785E+01
5.5050      0.1355E+03 0.4658E-01 0.6441E+01
5.5050      0.1395E+03 0.3852E-01 0.7788E+01
5.5050      0.1435E+03 0.2875E-01 0.1044E+02
5.5050      0.1455E+03 0.2530E-01 0.1186E+02
5.5050      0.1475E+03 0.2183E-01 0.1374E+02
5.5050      0.1494E+03 0.1674E-01 0.1792E+02
5.5050      0.1534E+03 0.1181E-01 0.2541E+02
5.5050      0.1574E+03 0.1059E-01 0.2833E+02
5.9050      0.1737E+02 0.2162E+01 0.4110E+01
5.9050      0.2132E+02 0.1635E+01 0.4627E+01
5.9050      0.2528E+02 0.1058E+01 0.5535E+01
5.9050      0.2727E+02 0.8193E+00 0.6114E+01
5.9050      0.2925E+02 0.5992E+00 0.6959E+01
5.9050      0.3124E+02 0.4748E+00 0.7254E+01
5.9050      0.3522E+02 0.2068E+00 0.9771E+01
5.9050      0.3921E+02 0.6765E-01 0.1357E+02
5.9050      0.4269E+02 0.2843E-01 0.1055E+02
5.9050      0.4668E+02 0.2831E-01 0.1060E+02
5.9050      0.5067E+02 0.5658E-01 0.8325E+01
5.9050      0.5466E+02 0.1031E+00 0.5153E+01
5.9050      0.5815E+02 0.1351E+00 0.3837E+01
5.9050      0.6215E+02 0.1642E+00 0.3134E+01
5.9050      0.6614E+02 0.1668E+00 0.3004E+01
5.9050      0.7013E+02 0.1583E+00 0.3170E+01
5.9050      0.7362E+02 0.1439E+00 0.3444E+01
5.9050      0.7762E+02 0.1181E+00 0.3876E+01
5.9050      0.8161E+02 0.8223E-01 0.4653E+01
5.9050      0.8561E+02 0.5212E-01 0.5818E+01
5.9050      0.8910E+02 0.3348E-01 0.8960E+01
5.9050      0.9309E+02 0.1958E-01 0.1532E+02
5.9050      0.9709E+02 0.9082E-02 0.3303E+02
5.9050      0.1011E+03 0.7747E-02 0.3873E+02
5.9050      0.1051E+03 0.1059E-01 0.2834E+02
5.9050      0.1091E+03 0.1791E-01 0.1675E+02
5.9050      0.1131E+03 0.2718E-01 0.1104E+02
5.9050      0.1171E+03 0.3695E-01 0.8119E+01
5.9050      0.1200E+03 0.4446E-01 0.6748E+01
5.9050      0.1240E+03 0.5315E-01 0.5644E+01
5.9050      0.1280E+03 0.5400E-01 0.5556E+01
5.9050      0.1320E+03 0.4851E-01 0.6184E+01
5.9050      0.1355E+03 0.4300E-01 0.6977E+01
5.9050      0.1395E+03 0.3678E-01 0.8158E+01
5.9050      0.1435E+03 0.2531E-01 0.1185E+02
5.9050      0.1455E+03 0.2221E-01 0.1351E+02
5.9050      0.1475E+03 0.1808E-01 0.1659E+02
5.9050      0.1494E+03 0.1692E-01 0.1773E+02
5.9050      0.1534E+03 0.1074E-01 0.2794E+02
5.9050      0.1574E+03 0.9108E-02 0.3294E+02
6.5050      0.1737E+02 0.2470E+01 0.4259E+01
6.5050      0.2132E+02 0.1779E+01 0.4912E+01
6.5050      0.2528E+02 0.1139E+01 0.5858E+01
6.5050      0.2727E+02 0.8589E+00 0.6534E+01
6.5050      0.2925E+02 0.6147E+00 0.7461E+01
6.5050      0.3124E+02 0.4536E+00 0.8081E+01
6.5050      0.3522E+02 0.1912E+00 0.1050E+02
6.5050      0.3921E+02 0.6001E-01 0.1286E+02
6.5050      0.4269E+02 0.2752E-01 0.1090E+02
6.5050      0.4668E+02 0.3992E-01 0.1022E+02
6.5050      0.5067E+02 0.8292E-01 0.6713E+01
6.5050      0.5466E+02 0.1372E+00 0.4218E+01
6.5050      0.5815E+02 0.1609E+00 0.3361E+01
6.5050      0.6215E+02 0.1784E+00 0.3008E+01
6.5050      0.6614E+02 0.1764E+00 0.3092E+01
6.5050      0.7013E+02 0.1513E+00 0.3418E+01
6.5050      0.7362E+02 0.1317E+00 0.3773E+01
6.5050      0.7762E+02 0.9804E-01 0.4391E+01
6.5050      0.8161E+02 0.6578E-01 0.5288E+01
6.5050      0.8561E+02 0.3815E-01 0.7863E+01
6.5050      0.8910E+02 0.2382E-01 0.1260E+02
6.5050      0.9309E+02 0.1332E-01 0.2252E+02
6.5050      0.9709E+02 0.9918E-02 0.3025E+02
6.5050      0.1011E+03 0.1042E-01 0.2879E+02
6.5050      0.1051E+03 0.1491E-01 0.2013E+02
6.5050      0.1091E+03 0.2172E-01 0.1381E+02
6.5050      0.1131E+03 0.2742E-01 0.1094E+02
6.5050      0.1171E+03 0.3524E-01 0.8514E+01
6.5050      0.1200E+03 0.3793E-01 0.7909E+01
6.5050      0.1240E+03 0.4461E-01 0.6725E+01
6.5050      0.1280E+03 0.4201E-01 0.7141E+01
6.5050      0.1320E+03 0.3690E-01 0.8131E+01
6.5050      0.1355E+03 0.3237E-01 0.9269E+01
6.5050      0.1395E+03 0.2842E-01 0.1055E+02
6.5050      0.1435E+03 0.2057E-01 0.1459E+02
6.5050      0.1455E+03 0.1713E-01 0.1751E+02
6.5050      0.1475E+03 0.1394E-01 0.2153E+02
6.5050      0.1494E+03 0.1306E-01 0.2297E+02
6.5050      0.1534E+03 0.9965E-02 0.3010E+02
6.5050      0.1574E+03 0.1036E-01 0.2897E+02
7.1400      0.1737E+02 0.2971E+01 0.4401E+01
7.1400      0.2132E+02 0.2067E+01 0.5142E+01
7.1400      0.2528E+02 0.1279E+01 0.6188E+01
7.1400      0.2727E+02 0.9762E+00 0.6759E+01
7.1400      0.2925E+02 0.7111E+00 0.7494E+01
7.1400      0.3124E+02 0.4864E+00 0.8507E+01
7.1400      0.3522E+02 0.1887E+00 0.1139E+02
7.1400      0.3921E+02 0.6082E-01 0.1238E+02
7.1400      0.4269E+02 0.3200E-01 0.9375E+01
7.1400      0.4668E+02 0.5482E-01 0.8580E+01
7.1400      0.5067E+02 0.1043E+00 0.5765E+01
7.1400      0.5466E+02 0.1568E+00 0.3839E+01
7.1400      0.5815E+02 0.1783E+00 0.3164E+01
7.1400      0.6215E+02 0.1828E+00 0.3012E+01
7.1400      0.6614E+02 0.1654E+00 0.3297E+01
7.1400      0.7013E+02 0.1392E+00 0.3811E+01
7.1400      0.7362E+02 0.1151E+00 0.4286E+01
7.1400      0.7762E+02 0.7612E-01 0.5188E+01
7.1400      0.8161E+02 0.4805E-01 0.6243E+01
7.1400      0.8561E+02 0.2607E-01 0.1151E+02
7.1400      0.8910E+02 0.1476E-01 0.2033E+02
7.1400      0.9309E+02 0.8724E-02 0.3439E+02
7.1400      0.9709E+02 0.8539E-02 0.3513E+02
7.1400      0.1011E+03 0.1285E-01 0.2335E+02
7.1400      0.1051E+03 0.1574E-01 0.1906E+02
7.1400      0.1091E+03 0.2338E-01 0.1283E+02
7.1400      0.1131E+03 0.2725E-01 0.1101E+02
7.1400      0.1171E+03 0.3136E-01 0.9566E+01
7.1400      0.1200E+03 0.3455E-01 0.8683E+01
7.1400      0.1240E+03 0.3451E-01 0.8693E+01
7.1400      0.1280E+03 0.3283E-01 0.9138E+01
7.1400      0.1320E+03 0.2837E-01 0.1057E+02
7.1400      0.1355E+03 0.2453E-01 0.1223E+02
7.1400      0.1395E+03 0.1934E-01 0.1551E+02
7.1400      0.1435E+03 0.1400E-01 0.2143E+02
7.1400      0.1455E+03 0.1239E-01 0.2421E+02
7.1400      0.1475E+03 0.1046E-01 0.2868E+02
7.1400      0.1494E+03 0.1024E-01 0.2930E+02
7.1400      0.1534E+03 0.8255E-02 0.3634E+02
7.1400      0.1574E+03 0.1184E-01 0.2534E+02
7.5050      0.1737E+02 0.3110E+01 0.4436E+01
7.5050      0.2132E+02 0.2152E+01 0.5200E+01
7.5050      0.2528E+02 0.1329E+01 0.6254E+01
7.5050      0.2727E+02 0.9893E+00 0.6952E+01
7.5050      0.2925E+02 0.7301E+00 0.7599E+01
7.5050      0.3124E+02 0.4809E+00 0.8867E+01
7.5050      0.3522E+02 0.1843E+00 0.1176E+02
7.5050      0.3921E+02 0.6282E-01 0.1125E+02
7.5050      0.4269E+02 0.3508E-01 0.8552E+01
7.5050      0.4668E+02 0.6076E-01 0.8682E+01
7.5050      0.5067E+02 0.1160E+00 0.5467E+01
7.5050      0.5466E+02 0.1673E+00 0.3662E+01
7.5050      0.5815E+02 0.1886E+00 0.3077E+01
7.5050      0.6215E+02 0.1869E+00 0.3058E+01
7.5050      0.6614E+02 0.1615E+00 0.3469E+01
7.5050      0.7013E+02 0.1306E+00 0.4085E+01
7.5050      0.7362E+02 0.1058E+00 0.4573E+01
7.5050      0.7762E+02 0.6572E-01 0.5613E+01
7.5050      0.8161E+02 0.3861E-01 0.7770E+01
7.5050      0.8561E+02 0.2078E-01 0.1444E+02
7.5050      0.8910E+02 0.1435E-01 0.2091E+02
7.5050      0.9309E+02 0.8996E-02 0.3335E+02
7.5050      0.9709E+02 0.1004E-01 0.2988E+02
7.5050      0.1011E+03 0.1388E-01 0.2161E+02
7.5050      0.1051E+03 0.1884E-01 0.1592E+02
7.5050      0.1091E+03 0.2273E-01 0.1320E+02
7.5050      0.1131E+03 0.2530E-01 0.1186E+02
7.5050      0.1171E+03 0.2793E-01 0.1074E+02
7.5050      0.1200E+03 0.2753E-01 0.1090E+02
7.5050      0.1240E+03 0.2686E-01 0.1117E+02
7.5050      0.1280E+03 0.2626E-01 0.1142E+02
7.5050      0.1320E+03 0.2110E-01 0.1422E+02
7.5050      0.1355E+03 0.2076E-01 0.1445E+02
7.5050      0.1395E+03 0.1531E-01 0.1960E+02
7.5050      0.1435E+03 0.1134E-01 0.2646E+02
7.5050      0.1455E+03 0.1147E-01 0.2616E+02
7.5050      0.1475E+03 0.8801E-02 0.3409E+02
7.5050      0.1494E+03 0.8532E-02 0.3516E+02
7.5050      0.1534E+03 0.9013E-02 0.3329E+02
7.5050      0.1574E+03 0.1362E-01 0.2203E+02
8.0300      0.1737E+02 0.3327E+01 0.4570E+01
8.0300      0.2132E+02 0.2296E+01 0.5337E+01
8.0300      0.2528E+02 0.1409E+01 0.6360E+01
8.0300      0.2727E+02 0.1007E+01 0.7236E+01
8.0300      0.2925E+02 0.6827E+00 0.8409E+01
8.0300      0.3124E+02 0.4865E+00 0.9035E+01
8.0300      0.3522E+02 0.1882E+00 0.1135E+02
8.0300      0.3921E+02 0.5564E-01 0.1115E+02
8.0300      0.4269E+02 0.3809E-01 0.6563E+01
8.0300      0.4668E+02 0.6899E-01 0.7854E+01
8.0300      0.5067E+02 0.1225E+00 0.4973E+01
8.0300      0.5466E+02 0.1645E+00 0.3454E+01
8.0300      0.5815E+02 0.1789E+00 0.3018E+01
8.0300      0.6215E+02 0.1749E+00 0.3149E+01
8.0300      0.6614E+02 0.1466E+00 0.3687E+01
8.0300      0.7013E+02 0.1080E+00 0.4556E+01
8.0300      0.7362E+02 0.8270E-01 0.5219E+01
8.0300      0.7762E+02 0.5138E-01 0.6228E+01
8.0300      0.8161E+02 0.2637E-01 0.9480E+01
8.0300      0.8561E+02 0.1114E-01 0.2244E+02
8.0300      0.8910E+02 0.7306E-02 0.3422E+02
8.0300      0.9309E+02 0.7344E-02 0.3404E+02
8.0300      0.9709E+02 0.1068E-01 0.2341E+02
8.0300      0.1011E+03 0.1451E-01 0.1723E+02
8.0300      0.1051E+03 0.1850E-01 0.1351E+02
8.0300      0.1091E+03 0.2201E-01 0.1136E+02
8.0300      0.1131E+03 0.2304E-01 0.1085E+02
8.0300      0.1171E+03 0.2333E-01 0.1072E+02
8.0300      0.1200E+03 0.2580E-01 0.9690E+01
8.0300      0.1240E+03 0.2406E-01 0.1039E+02
8.0300      0.1280E+03 0.2091E-01 0.1196E+02
8.0300      0.1320E+03 0.1845E-01 0.1355E+02
8.0300      0.1355E+03 0.1370E-01 0.1825E+02
8.0300      0.1395E+03 0.1027E-01 0.2434E+02
8.0300      0.1435E+03 0.8082E-02 0.3093E+02
8.0300      0.1455E+03 0.8267E-02 0.3024E+02
8.0300      0.1475E+03 0.7515E-02 0.3327E+02
8.0300      0.1494E+03 0.9349E-02 0.2674E+02
8.0300      0.1534E+03 0.9188E-02 0.2721E+02
8.0300      0.1574E+03 0.1495E-01 0.1672E+02
8.4050      0.1737E+02 0.3417E+01 0.4670E+01
8.4050      0.2132E+02 0.2286E+01 0.5543E+01
8.4050      0.2528E+02 0.1337E+01 0.6788E+01
8.4050      0.2727E+02 0.1008E+01 0.7327E+01
8.4050      0.2925E+02 0.6349E+00 0.8954E+01
8.4050      0.3124E+02 0.4477E+00 0.9528E+01
8.4050      0.3522E+02 0.1625E+00 0.1185E+02
8.4050      0.3921E+02 0.5242E-01 0.8252E+01
8.4050      0.4269E+02 0.4940E-01 0.6465E+01
8.4050      0.4668E+02 0.8272E-01 0.7160E+01
8.4050      0.5067E+02 0.1397E+00 0.4344E+01
8.4050      0.5466E+02 0.1770E+00 0.3184E+01
8.4050      0.5815E+02 0.1835E+00 0.3008E+01
8.4050      0.6215E+02 0.1659E+00 0.3328E+01
8.4050      0.6614E+02 0.1369E+00 0.3922E+01
8.4050      0.7013E+02 0.9278E-01 0.4945E+01
8.4050      0.7362E+02 0.7267E-01 0.5395E+01
8.4050      0.7762E+02 0.4112E-01 0.6946E+01
8.4050      0.8161E+02 0.2137E-01 0.1170E+02
8.4050      0.8561E+02 0.1034E-01 0.2418E+02
8.4050      0.8910E+02 0.9081E-02 0.2753E+02
8.4050      0.9309E+02 0.8243E-02 0.3033E+02
8.4050      0.9709E+02 0.1303E-01 0.1919E+02
8.4050      0.1011E+03 0.1556E-01 0.1607E+02
8.4050      0.1051E+03 0.2072E-01 0.1207E+02
8.4050      0.1091E+03 0.2200E-01 0.1136E+02
8.4050      0.1131E+03 0.2341E-01 0.1068E+02
8.4050      0.1171E+03 0.2184E-01 0.1145E+02
8.4050      0.1200E+03 0.2315E-01 0.1080E+02
8.4050      0.1240E+03 0.1929E-01 0.1296E+02
8.4050      0.1280E+03 0.1792E-01 0.1395E+02
8.4050      0.1320E+03 0.1335E-01 0.1873E+02
8.4050      0.1355E+03 0.1293E-01 0.1933E+02
8.4050      0.1395E+03 0.8756E-02 0.2855E+02
8.4050      0.1435E+03 0.6776E-02 0.3689E+02
8.4050      0.1455E+03 0.7919E-02 0.3157E+02
8.4050      0.1475E+03 0.5327E-02 0.4693E+02
8.4050      0.1494E+03 0.6204E-02 0.4030E+02
8.4050      0.1534E+03 0.9195E-02 0.2719E+02
8.4050      0.1574E+03 0.1338E-01 0.1868E+02
9.0600      0.1737E+02 0.3462E+01 0.4595E+01
9.0600      0.2132E+02 0.2365E+01 0.5401E+01
9.0600      0.2528E+02 0.1428E+01 0.6503E+01
9.0600      0.2727E+02 0.9938E+00 0.7549E+01
9.0600      0.2925E+02 0.7511E+00 0.7957E+01
9.0600      0.3124E+02 0.4685E+00 0.9541E+01
9.0600      0.3522E+02 0.1729E+00 0.1222E+02
9.0600      0.3921E+02 0.6108E-01 0.9378E+01
9.0600      0.4269E+02 0.4280E-01 0.5624E+01
9.0600      0.4668E+02 0.7409E-01 0.7200E+01
9.0600      0.5067E+02 0.1230E+00 0.4471E+01
9.0600      0.5466E+02 0.1564E+00 0.3183E+01
9.0600      0.5815E+02 0.1593E+00 0.3021E+01
9.0600      0.6215E+02 0.1431E+00 0.3454E+01
9.0600      0.6614E+02 0.1126E+00 0.4216E+01
9.0600      0.7013E+02 0.8158E-01 0.5064E+01
9.0600      0.7362E+02 0.5145E-01 0.6242E+01
9.0600      0.7762E+02 0.2760E-01 0.8896E+01
9.0600      0.8161E+02 0.1374E-01 0.1456E+02
9.0600      0.8561E+02 0.8095E-02 0.2471E+02
9.0600      0.8910E+02 0.5943E-02 0.3365E+02
9.0600      0.9309E+02 0.9074E-02 0.2204E+02
9.0600      0.9709E+02 0.1259E-01 0.1589E+02
9.0600      0.1011E+03 0.1483E-01 0.1349E+02
9.0600      0.1051E+03 0.1818E-01 0.1100E+02
9.0600      0.1091E+03 0.1956E-01 0.1022E+02
9.0600      0.1131E+03 0.1960E-01 0.1020E+02
9.0600      0.1171E+03 0.1881E-01 0.1063E+02
9.0600      0.1200E+03 0.2036E-01 0.9823E+01
9.0600      0.1240E+03 0.1744E-01 0.1147E+02
9.0600      0.1280E+03 0.1423E-01 0.1405E+02
9.0600      0.1320E+03 0.1142E-01 0.1751E+02
9.0600      0.1355E+03 0.8078E-02 0.2476E+02
9.0600      0.1395E+03 0.6075E-02 0.3292E+02
9.0600      0.1435E+03 0.3893E-02 0.5137E+02
9.0600      0.1455E+03 0.4569E-02 0.4377E+02
9.0600      0.1475E+03 0.4951E-02 0.4040E+02
9.0600      0.1494E+03 0.6538E-02 0.3059E+02
9.0600      0.1534E+03 0.8426E-02 0.2374E+02
9.0600      0.1574E+03 0.1229E-01 0.1627E+02
9.5050      0.1737E+02 0.3484E+01 0.4757E+01
9.5050      0.2132E+02 0.2338E+01 0.5619E+01
9.5050      0.2528E+02 0.1325E+01 0.6991E+01
9.5050      0.2727E+02 0.9284E+00 0.7971E+01
9.5050      0.2925E+02 0.6578E+00 0.8715E+01
9.5050      0.3124E+02 0.4246E+00 0.9891E+01
9.5050      0.3522E+02 0.1492E+00 0.1207E+02
9.5050      0.3921E+02 0.5445E-01 0.6327E+01
9.5050      0.4269E+02 0.4952E-01 0.7007E+01
9.5050      0.4668E+02 0.8661E-01 0.6240E+01
9.5050      0.5067E+02 0.1306E+00 0.3809E+01
9.5050      0.5466E+02 0.1590E+00 0.3011E+01
9.5050      0.5815E+02 0.1468E+00 0.3185E+01
9.5050      0.6215E+02 0.1237E+00 0.3801E+01
9.5050      0.6614E+02 0.9164E-01 0.4615E+01
9.5050      0.7013E+02 0.6192E-01 0.5507E+01
9.5050      0.7362E+02 0.3832E-01 0.7081E+01
9.5050      0.7762E+02 0.1939E-01 0.1086E+02
9.5050      0.8161E+02 0.9817E-02 0.1705E+02
9.5050      0.8561E+02 0.5674E-02 0.2657E+02
9.5050      0.8910E+02 0.5907E-02 0.2564E+02
9.5050      0.9309E+02 0.9410E-02 0.1652E+02
9.5050      0.9709E+02 0.1205E-01 0.1291E+02
9.5050      0.1011E+03 0.1660E-01 0.9201E+01
9.5050      0.1051E+03 0.1902E-01 0.7908E+01
9.5050      0.1091E+03 0.1850E-01 0.8111E+01
9.5050      0.1131E+03 0.1782E-01 0.8450E+01
9.5050      0.1171E+03 0.1667E-01 0.9063E+01
9.5050      0.1200E+03 0.1589E-01 0.9527E+01
9.5050      0.1240E+03 0.1356E-01 0.1118E+02
9.5050      0.1280E+03 0.9283E-02 0.1637E+02
9.5050      0.1320E+03 0.7772E-02 0.1956E+02
9.5050      0.1355E+03 0.6135E-02 0.2470E+02
9.5050      0.1395E+03 0.5028E-02 0.2995E+02
9.5050      0.1435E+03 0.2952E-02 0.5081E+02
9.5050      0.1455E+03 0.4296E-02 0.3496E+02
9.5050      0.1475E+03 0.3970E-02 0.3799E+02
9.5050      0.1494E+03 0.5330E-02 0.2849E+02
9.5050      0.1534E+03 0.7910E-02 0.1969E+02
9.5050      0.1574E+03 0.1386E-01 0.1161E+02
9.9950      0.1737E+02 0.3402E+01 0.4873E+01
9.9950      0.2132E+02 0.2289E+01 0.5713E+01
9.9950      0.2528E+02 0.1264E+01 0.7171E+01
9.9950      0.2727E+02 0.8598E+00 0.8319E+01
9.9950      0.2925E+02 0.6088E+00 0.9003E+01
9.9950      0.3124E+02 0.3925E+00 0.1009E+02
9.9950      0.3522E+02 0.1271E+00 0.1266E+02
9.9950      0.3921E+02 0.4955E-01 0.5198E+01
9.9950      0.4269E+02 0.4938E-01 0.7281E+01
9.9950      0.4668E+02 0.8924E-01 0.5645E+01
9.9950      0.5067E+02 0.1274E+00 0.3541E+01
9.9950      0.5466E+02 0.1466E+00 0.3001E+01
9.9950      0.5815E+02 0.1281E+00 0.3317E+01
9.9950      0.6215E+02 0.1061E+00 0.4012E+01
9.9950      0.6614E+02 0.7665E-01 0.4887E+01
9.9950      0.7013E+02 0.4908E-01 0.5957E+01
9.9950      0.7362E+02 0.3007E-01 0.7214E+01
9.9950      0.7762E+02 0.1531E-01 0.1006E+02
9.9950      0.8161E+02 0.6621E-02 0.1679E+02
9.9950      0.8561E+02 0.4988E-02 0.2006E+02
9.9950      0.8910E+02 0.5811E-02 0.1798E+02
9.9950      0.9309E+02 0.8858E-02 0.1214E+02
9.9950      0.9709E+02 0.1280E-01 0.8202E+01
9.9950      0.1011E+03 0.1573E-01 0.6449E+01
9.9950      0.1051E+03 0.1719E-01 0.5823E+01
9.9950      0.1091E+03 0.1838E-01 0.5442E+01
9.9950      0.1131E+03 0.1644E-01 0.6092E+01
9.9950      0.1171E+03 0.1516E-01 0.6619E+01
9.9950      0.1200E+03 0.1427E-01 0.7066E+01
9.9950      0.1240E+03 0.1336E-01 0.7650E+01
9.9950      0.1280E+03 0.1060E-01 0.9790E+01
9.9950      0.1320E+03 0.9662E-02 0.1077E+02
9.9950      0.1355E+03 0.5164E-02 0.1989E+02
9.9950      0.1395E+03 0.3576E-02 0.2815E+02
9.9950      0.1435E+03 0.3271E-02 0.3059E+02
9.9950      0.1455E+03 0.3262E-02 0.3085E+02
9.9950      0.1475E+03 0.4210E-02 0.2418E+02
9.9950      0.1494E+03 0.6235E-02 0.1656E+02
9.9950      0.1534E+03 0.9900E-02 0.1092E+02
9.9950      0.1574E+03 0.1355E-01 0.8537E+01
ENDDATA            482
ENDSUBENT          493
ENDENTRY             2
