ENTRY            11726     841003
SUBENT        11726001     841003
BIB                  7         11
INSTITUTE  (1USAANL)
REFERENCE  (J,NP/A,123,33,69)
AUTHOR     (A.J.ELWYN,J.E.MONAHAN)
TITLE      POSSIBLE DOORWAY-STATE STRUCTURE IN THE SCATTERING OF
           NEUTRONS BY FE.
INC-SOURCE (P-LI7) LI-7(P,N) SOURCE
STATUS     (SCSRS)
           DATA TAKEN FROM PRIVATE COMM., ELWYN, 70/1.
HISTORY    (760730T) TRANSLATED FROM SCISRS
           (831011A) CONVERTED TO REACTION FORMALISM
           (841003A) BIB CORRECTIONS.
ENDBIB              11
NOCOMMON             0          0
ENDSUBENT           14
SUBENT        11726002     841003
BIB                  2          2
REACTION   (26-FE-0(N,SCT),,POL/DA)
HISTORY    (841003A) ANGLE CORRECTED.
ENDBIB               2
NOCOMMON             0          0
DATA                 4        208
EN         ANG-CM     DATA       DATA-ERR
MEV        ADEG       NO-DIM     NO-DIM
 0.350      22.38     -0.005      0.013
 0.350      56.85     +0.053      0.012
 0.350      91.03     +0.066      0.013
 0.350     124.85     +0.030      0.013
 0.350     158.38     +0.020      0.015
 0.365      22.38     -0.012      0.012
 0.365      56.85     +0.058      0.012
 0.365      91.03     +0.031      0.012
 0.365     124.85     +0.049      0.013
 0.365     158.38     +0.015      0.015
 0.380      22.38     +0.006      0.011
 0.380      56.85     +0.063      0.010
 0.380      91.03     +0.050      0.011
 0.380     124.85     +0.034      0.011
 0.380     158.38     +0.024      0.013
 0.395      22.38     +0.023      0.011
 0.395      56.85     +0.104      0.011
 0.395      91.03     +0.128      0.012
 0.395     124.85     +0.084      0.012
 0.395     158.38     +0.035      0.013
 0.410      22.38     +0.032      0.012
 0.410      56.85     +0.093      0.012
 0.410      91.03     +0.133      0.014
 0.410     124.85     +0.081      0.015
 0.410     158.38     +0.024      0.017
 0.425      22.38     -0.029      0.017
 0.425      56.85     +0.004      0.017
 0.425      91.03     +0.038      0.019
 0.425     124.85     +0.047      0.021
 0.425     158.38     -0.043      0.027
 0.440      22.38     +0.020      0.020
 0.440      56.85     +0.024      0.020
 0.440      91.03     -0.004      0.022
 0.440     124.85     +0.020      0.024
 0.440     158.38     +0.018      0.030
 0.455      22.38     +0.005      0.024
 0.455      56.85     +0.037      0.025
 0.455      91.03     +0.083      0.029
 0.455     124.85     +0.067      0.031
 0.455     158.38     +0.019      0.040
 0.470      22.38     -0.083      0.027
 0.470      56.85     +0.032      0.027
 0.470      91.03     +0.063      0.030
 0.470     124.85     +0.090      0.032
 0.470     158.38     +0.033      0.042
 0.485      22.38     -0.029      0.028
 0.485      56.85     +0.014      0.029
 0.485      91.03     +0.073      0.034
 0.485     124.85     +0.034      0.036
 0.485     158.38     +0.043      0.046
 0.500      22.38     -0.004      0.027
 0.500      56.85     +0.002      0.029
 0.500      91.03     +0.027      0.037
 0.500     124.85     +0.128      0.036
 0.500     158.38     +0.102      0.046
 0.515      91.03     +0.119      0.032
 0.515     124.85     +0.077      0.036
 0.515     158.38     +0.116      0.054
 0.530      22.38     -0.051      0.025
 0.530      56.85     +0.008      0.027
 0.530      91.03     +0.047      0.033
 0.530     124.85     +0.081      0.036
 0.530     158.38     +0.027      0.051
 0.545      22.38     -0.051      0.023
 0.545      56.85     -0.043      0.026
 0.545      91.03     -0.027      0.032
 0.545     124.85     -0.073      0.034
 0.545     158.38     +0.020      0.048
 0.560      22.38     +0.016      0.022
 0.560      56.85     +0.072      0.025
 0.560      91.03     +0.068      0.031
 0.560     124.85     -0.050      0.033
 0.560     158.38     -0.073      0.049
 0.575      22.38     +0.002      0.020
 0.575      56.85     +0.110      0.023
 0.575      91.03     +0.201      0.031
 0.575     124.85     +0.137      0.035
 0.575     158.38     +0.074      0.048
 0.590      22.38     -0.011      0.022
 0.590      56.85     -0.006      0.026
 0.590      91.03     +0.024      0.038
 0.590     124.85     +0.034      0.047
 0.590     158.38     -0.091      0.068
 0.605      22.38     +0.020      0.025
 0.605      56.85     +0.007      0.028
 0.605      91.03     +0.018      0.046
 0.605     124.85     -0.029      0.046
 0.605     158.38     -0.092      0.072
 0.620      22.38     -0.012      0.026
 0.620      56.85     +0.042      0.029
 0.620      91.03     -0.016      0.038
 0.620     124.85     -0.018      0.047
 0.620     158.38     +0.011      0.070
 0.635      22.38     +0.017      0.030
 0.635      56.85     +0.064      0.036
 0.635      91.03     -0.018      0.048
 0.635     124.85     +0.007      0.053
 0.635     158.38     +0.036      0.059
 0.650      22.38     +0.013      0.030
 0.650      56.85     +0.054      0.038
 0.650      91.03     -0.032      0.043
 0.650     124.85     -0.080      0.035
 0.650     158.38     -0.062      0.041
 0.665      22.38     +0.003      0.028
 0.665      56.85     +0.019      0.032
 0.665      91.03     +0.005      0.033
 0.665     124.85     -0.043      0.029
 0.665     158.38     -0.033      0.035
 0.680      22.38     +0.025      0.024
 0.680      56.85     +0.043      0.027
 0.680      91.03     +0.086      0.032
 0.680     124.85     +0.204      0.030
 0.680     158.38     +0.158      0.038
 0.695      22.38     -0.056      0.026
 0.695      56.85     -0.104      0.031
 0.695      91.03     -0.011      0.039
 0.695     124.85     -0.101      0.035
 0.695     158.38     -0.095      0.049
 0.710      22.38     -0.054      0.024
 0.710      56.85     -0.107      0.027
 0.710      91.03     -0.074      0.031
 0.710     124.85     -0.106      0.030
 0.710     158.38     -0.024      0.037
 0.725      22.38     -0.036      0.021
 0.725      56.85     -0.092      0.025
 0.725      91.03     -0.128      0.031
 0.725     124.85     -0.085      0.031
 0.725     158.38     -0.019      0.038
 0.740      22.38     -0.044      0.020
 0.740      56.85     -0.141      0.025
 0.740      91.03     -0.149      0.031
 0.740     124.85     -0.053      0.029
 0.740     158.38     -0.084      0.036
 0.755      22.38      0.044      0.020
 0.755      56.85      0.002      0.024
 0.755      91.03     -0.096      0.032
 0.755     124.85     -0.127      0.029
 0.755     158.38     -0.039      0.034
 0.770      22.38      0.059      0.019
 0.770      56.85      0.164      0.023
 0.770      91.03      0.069      0.029
 0.770     124.85     -0.008      0.029
 0.770     158.38      0.008      0.034
 0.785      22.38      0.068      0.018
 0.785      56.85      0.093      0.023
 0.785      91.03      0.090      0.032
 0.785     124.85      0.074      0.032
 0.785     158.38     -0.003      0.044
 0.800      22.38      0.000      0.001
 0.800      56.85     -0.002      0.001
 0.800      91.03     -0.001      0.003
 0.800     124.85      0.005      0.003
 0.800     158.38      0.003      0.003
 0.815      22.38     -0.067      0.020
 0.815      56.85     -0.070      0.025
 0.815      91.03      0.004      0.035
 0.815     124.85      0.063      0.039
 0.815     158.38      0.131      0.056
 0.830      22.38     -0.038      0.021
 0.830      56.85     -0.103      0.027
 0.830      91.03     -0.051      0.038
 0.830     124.85     -0.036      0.039
 0.830     158.38      0.054      0.053
 0.845      22.38     -0.006      0.020
 0.845      56.85     -0.024      0.027
 0.845      91.03     -0.008      0.039
 0.845     124.85      0.077      0.037
 0.845     158.38      0.022      0.057
 0.860      22.38     -0.008      0.020
 0.860      56.85     -0.025      0.027
 0.860      91.03     -0.056      0.039
 0.860     124.85      0.022      0.038
 0.860     158.38      0.147      0.064
 0.875      22.38     -0.017      0.020
 0.875      56.85     -0.029      0.027
 0.875      91.03     -0.041      0.038
 0.875     124.85     -0.017      0.040
 0.875     158.38     -0.133      0.068
 0.890      22.38      0.049      0.022
 0.890      56.85      0.055      0.027
 0.890      91.03     -0.093      0.042
 0.890     124.85     -0.106      0.046
 0.890     158.38     -0.125      0.077
 0.905      22.38      0.062      0.021
 0.905      56.85      0.108      0.026
 0.905      91.03      0.010      0.040
 0.905     124.85     -0.168      0.043
 0.905     158.38     -0.071      0.078
 0.920      22.38      0.071      0.022
 0.920      56.85      0.055      0.028
 0.920      91.03     -0.042      0.042
 0.920     124.85      0.014      0.044
 0.920     158.38      0.006      0.079
 0.935      22.38     -0.031      0.023
 0.935      56.85     -0.026      0.030
 0.935      91.03      0.053      0.044
 0.935     124.85      0.060      0.042
 0.935     158.38     -0.016      0.078
 0.950      22.38      0.059      0.024
 0.950      56.85     -0.004      0.030
 0.950      91.03     -0.003      0.043
 0.950     124.85      0.006      0.040
 0.950     158.38     -0.097      0.070
 0.965      22.38      0.026      0.022
 0.965      56.85      0.129      0.027
 0.965      91.03      0.017      0.038
 0.965     124.85     -0.015      0.037
 0.965     158.38     -0.077      0.061
ENDDATA            210
ENDSUBENT          217
SUBENT        11726003     831011
BIB                  3          3
REACTION   (26-FE-0(N,SCT),,DA)
MONITOR    (6-C-0(N,EL),,SIG)
CORRECTION CORRECTED FOR MULTIPLE SCATTERING
ENDBIB               3
COMMON               1          3
EN-RSL
MEV
 2.0    -02
ENDCOMMON            3
DATA                 4        210
EN         COS-CM     DATA       DATA-ERR
MEV        NO-DIM     MB/SR      MB/SR
 3.50   -01 0.92450    2.82   +02 2.     +00
 3.50   -01 0.54610    2.35   +02 2.     +00
 3.50   -01-0.0175     2.01   +02 2.     +00
 3.50   -01-0.5721     2.08   +02 2.     +00
 3.50   -01-0.9298     2.33   +02 2.     +00
 3.65   -01 0.92450    3.04   +02 2.     +00
 3.65   -01 0.54610    2.67   +02 2.     +00
 3.65   -01-0.0175     2.30   +02 2.     +00
 3.65   -01-0.5721     2.27   +02 2.     +00
 3.65   -01-0.9298     2.47   +02 2.     +00
 3.80   -01 0.92450    3.81   +02 2.     +00
 3.80   -01 0.54610    3.64   +02 2.     +00
 3.80   -01-0.0175     3.25   +02 2.     +00
 3.80   -01-0.5721     3.15   +02 2.     +00
 3.80   -01-0.9298     3.37   +02 2.     +00
 3.95   -01 0.92450    4.98   +02 3.     +00
 3.95   -01 0.54610    4.38   +02 2.     +00
 3.95   -01-0.0175     3.60   +02 2.     +00
 3.95   -01-0.5721     3.75   +02 2.     +00
 3.95   -01-0.9298     4.27   +02 3.     +00
 4.10   -01 0.92450    6.00   +02 3.     +00
 4.10   -01 0.54610    4.93   +02 2.     +00
 4.10   -01-0.0175     3.60   +02 2.     +00
 4.10   -01-0.5721     3.33   +02 2.     +00
 4.10   -01-0.9298     3.76   +02 2.     +00
 4.25   -01 0.92450    5.00   +02 3.     +00
 4.25   -01 0.54610    3.97   +02 2.     +00
 4.25   -01-0.0175     2.75   +02 2.     +00
 4.25   -01-0.5721     2.33   +02 2.     +00
 4.25   -01-0.9298     2.52   +02 2.     +00
 4.40   -01 0.92450    4.97   +02 3.     +00
 4.40   -01 0.54610    3.85   +02 2.     +00
 4.40   -01-0.0175     2.78   +02 2.     +00
 4.40   -01-0.5721     2.50   +02 2.     +00
 4.40   -01-0.9298     2.83   +02 2.     +00
 4.55   -01 0.92450    4.59   +02 3.     +00
 4.55   -01 0.54610    3.40   +02 2.     +00
 4.55   -01-0.0175     2.23   +02 2.     +00
 4.55   -01-0.5721     1.96   +02 2.     +00
 4.55   -01-0.9298     2.23   +02 2.     +00
 4.70   -01 0.92450    4.33   +02 3.     +00
 4.70   -01 0.54610    3.45   +02 2.     +00
 4.70   -01-0.0175     2.48   +02 2.     +00
 4.70   -01-0.5721     2.15   +02 2.     +00
 4.70   -01-0.9298     2.40   +02 2.     +00
 4.85   -01 0.92450    4.70   +02 3.     +00
 4.85   -01 0.54610    3.40   +02 2.     +00
 4.85   -01-0.0175     2.23   +02 2.     +00
 4.85   -01-0.5721     2.05   +02 2.     +00
 4.85   -01-0.9298     2.52   +02 3.     +00
 5.00   -01 0.92450    4.96   +02 3.     +00
 5.00   -01 0.54610    3.51   +02 2.     +00
 5.00   -01-0.0175     2.35   +02 2.     +00
 5.00   -01-0.5721     2.15   +02 2.     +00
 5.00   -01-0.9298     2.67   +02 3.     +00
 5.15   -01 0.92450    4.82   +02 3.     +00
 5.15   -01 0.54610    3.35   +02 2.     +00
 5.15   -01-0.0175     2.10   +02 2.     +00
 5.15   -01-0.5721     1.70   +02 1.     +00
 5.15   -01-0.9298     1.96   +02 2.     +00
 5.30   -01 0.92450    4.66   +02 3.     +00
 5.30   -01 0.54610    3.17   +02 2.     +00
 5.30   -01-0.0175     1.92   +02 2.     +00
 5.30   -01-0.5721     1.66   +02 1.     +00
 5.30   -01-0.9298     2.18   +02 3.     +00
 5.45   -01 0.92450    4.81   +02 3.     +00
 5.45   -01 0.54610    3.09   +02 2.     +00
 5.45   -01-0.0175     1.83   +02 1.     +00
 5.45   -01-0.5721     1.70   +02 1.     +00
 5.45   -01-0.9298     2.15   +02 2.     +00
 5.60   -01 0.92450    5.15   +02 3.     +00
 5.60   -01 0.54610    3.28   +02 2.     +00
 5.60   -01-0.0175     1.96   +02 1.     +00
 5.60   -01-0.5721     1.70   +02 1.     +00
 5.60   -01-0.9298     2.16   +02 3.     +00
 5.75   -01 0.92450    5.61   +02 3.     +00
 5.75   -01 0.54610    3.40   +02 2.     +00
 5.75   -01-0.0175     1.73   +02 1.     +00
 5.75   -01-0.5721     1.45   +02 1.     +00
 5.75   -01-0.9298     2.03   +02 2.     +00
 5.90   -01 0.92450    4.43   +02 2.     +00
 5.90   -01 0.54610    2.64   +02 2.     +00
 5.90   -01-0.0175     1.21   +02 1.     +00
 5.90   -01-0.5721     9.1    +01 1.     +00
 5.90   -01-0.9298     1.30   +02 2.     +00
 6.05   -01 0.92450    3.57   +02 2.     +00
 6.05   -01 0.54610    2.33   +02 2.     +00
 6.05   -01-0.0175     1.17   +02 1.     +00
 6.05   -01-0.5721     9.3    +01 1.     +00
 6.05   -01-0.9298     1.19   +02 2.     +00
 6.20   -01 0.92450    3.23   +02 2.     +00
 6.20   -01 0.54610    2.23   +02 2.     +00
 6.20   -01-0.0175     1.18   +02 1.     +00
 6.20   -01-0.5721     9.1    +01 1.     +00
 6.20   -01-0.9298     1.22   +02 2.     +00
 6.35   -01 0.92450    2.85   +02 2.     +00
 6.35   -01 0.54610    1.64   +02 1.     +00
 6.35   -01-0.0175     8.9    +01 1.     +00
 6.35   -01-0.5721     8.2    +01 1.     +00
 6.35   -01-0.9298     1.66   +02 2.     +00
 6.50   -01 0.92450    2.84   +02 2.     +00
 6.50   -01 0.54610    1.42   +02 1.     +00
 6.50   -01-0.0175     1.02   +02 1.     +00
 6.50   -01-0.5721     1.54   +02 1.     +00
 6.50   -01-0.9298     2.60   +02 3.     +00
 6.65   -01 0.92450    3.15   +02 2.     +00
 6.65   -01 0.54610    2.01   +02 2.     +00
 6.65   -01-0.0175     1.70   +02 1.     +00
 6.65   -01-0.5721     2.33   +02 2.     +00
 6.65   -01-0.9298     3.25   +02 3.     +00
 6.80   -01 0.92450    4.10   +02 3.     +00
 6.80   -01 0.54610    2.59   +02 2.     +00
 6.80   -01-0.0175     1.83   +02 1.     +00
 6.80   -01-0.5721     2.11   +02 2.     +00
 6.80   -01-0.9298     2.86   +02 3.     +00
 6.95   -01 0.92450    3.48   +02 2.     +00
 6.95   -01 0.54610    2.02   +02 2.     +00
 6.95   -01-0.0175     1.25   +02 1.     +00
 6.95   -01-0.5721     1.63   +02 1.     +00
 6.95   -01-0.9298     2.23   +02 3.     +00
 7.10   -01 0.92450    4.03   +02 3.     +00
 7.10   -01 0.54610    2.55   +02 2.     +00
 7.10   -01-0.0175     1.80   +02 1.     +00
 7.10   -01-0.5721     2.16   +02 2.     +00
 7.10   -01-0.9298     3.13   +02 3.     +00
 7.25   -01 0.92450    5.11   +02 3.     +00
 7.25   -01 0.54610    2.88   +02 2.     +00
 7.25   -01-0.0175     1.91   +02 2.     +00
 7.25   -01-0.5721     2.07   +02 2.     +00
 7.25   -01-0.9298     3.16   +02 3.     +00
 7.40   -01 0.92450    5.50   +02 3.     +00
 7.40   -01 0.54610    3.00   +02 2.     +00
 7.40   -01-0.0175     1.90   +02 2.     +00
 7.40   -01-0.5721     2.31   +02 2.     +00
 7.40   -01-0.9298     3.62   +02 3.     +00
 7.55   -01 0.92450    5.84   +02 3.     +00
 7.55   -01 0.54610    3.18   +02 2.     +00
 7.55   -01-0.0175     1.81   +02 2.     +00
 7.55   -01-0.5721     2.31   +02 2.     +00
 7.55   -01-0.9298     3.90   +02 4.     +00
 7.70   -01 0.92450    6.36   +02 3.     +00
 7.70   -01 0.54610    3.68   +02 2.     +00
 7.70   -01-0.0175     2.11   +02 2.     +00
 7.70   -01-0.5721     2.36   +02 2.     +00
 7.70   -01-0.9298     4.03   +02 4.     +00
 7.85   -01 0.92450    7.55   +02 4.     +00
 7.85   -01 0.54610    3.73   +02 2.     +00
 7.85   -01-0.0175     1.93   +02 2.     +00
 7.85   -01-0.5721     2.01   +02 2.     +00
 7.85   -01-0.9298     3.60   +02 4.     +00
 8.00   -01 0.92450    6.20   +02 3.     +00
 8.00   -01 0.54610    3.32   +02 2.     +00
 8.00   -01-0.0175     1.66   +02 2.     +00
 8.00   -01-0.5721     1.63   +02 2.     +00
 8.00   -01-0.9298     2.59   +02 4.     +00
 8.15   -01 0.92450    6.09   +02 3.     +00
 8.15   -01 0.54610    3.29   +02 2.     +00
 8.15   -01-0.0175     1.61   +02 2.     +00
 8.15   -01-0.5721     1.51   +02 2.     +00
 8.15   -01-0.9298     2.66   +02 4.     +00
 8.30   -01 0.92450    6.11   +02 3.     +00
 8.30   -01 0.54610    3.02   +02 2.     +00
 8.30   -01-0.0175     1.51   +02 1.     +00
 8.30   -01-0.5721     1.58   +02 2.     +00
 8.30   -01-0.9298     2.84   +02 4.     +00
 8.45   -01 0.92450    5.92   +02 3.     +00
 8.45   -01 0.54610    2.87   +02 2.     +00
 8.45   -01-0.0175     1.44   +02 1.     +00
 8.45   -01-0.5721     1.62   +02 2.     +00
 8.45   -01-0.9298     2.63   +02 4.     +00
 8.60   -01 0.92450    5.90   +02 3.     +00
 8.60   -01 0.54610    2.89   +02 2.     +00
 8.60   -01-0.0175     1.55   +02 1.     +00
 8.60   -01-0.5721     1.50   +02 1.     +00
 8.60   -01-0.9298     2.21   +02 4.     +00
 8.75   -01 0.92450    5.67   +02 3.     +00
 8.75   -01 0.54610    2.80   +02 2.     +00
 8.75   -01-0.0175     1.35   +02 1.     +00
 8.75   -01-0.5721     1.40   +02 1.     +00
 8.75   -01-0.9298     2.02   +02 4.     +00
 8.90   -01 0.92450    4.97   +02 3.     +00
 8.90   -01 0.54610    2.62   +02 2.     +00
 8.90   -01-0.0175     1.13   +02 1.     +00
 8.90   -01-0.5721     1.05   +02 1.     +00
 8.90   -01-0.9298     1.51   +02 3.     +00
 9.05   -01 0.92450    4.76   +02 3.     +00
 9.05   -01 0.54610    2.50   +02 2.     +00
 9.05   -01-0.0175     1.11   +02 1.     +00
 9.05   -01-0.5721     1.06   +02 1.     +00
 9.05   -01-0.9298     1.48   +02 3.     +00
 9.20   -01 0.92450    4.42   +02 3.     +00
 9.20   -01 0.54610    2.30   +02 2.     +00
 9.20   -01-0.0175     1.06   +02 1.     +00
 9.20   -01-0.5721     1.02   +02 1.     +00
 9.20   -01-0.9298     1.52   +02 3.     +00
 9.35   -01 0.92450    4.08   +02 3.     +00
 9.35   -01 0.54610    1.89   +02 1.     +00
 9.35   -01-0.0175     9.3    +01 1.     +00
 9.35   -01-0.5721     1.06   +02 1.     +00
 9.35   -01-0.9298     1.56   +02 3.     +00
 9.50   -01 0.92450    4.26   +02 3.     +00
 9.50   -01 0.54610    2.14   +02 2.     +00
 9.50   -01-0.0175     1.09   +02 1.     +00
 9.50   -01-0.5721     1.30   +02 1.     +00
 9.50   -01-0.9298     1.87   +02 4.     +00
 9.65   -01 0.92450    4.68   +02 3.     +00
 9.65   -01 0.54610    2.48   +02 2.     +00
 9.65   -01-0.0175     1.24   +02 1.     +00
 9.65   -01-0.5721     1.42   +02 1.     +00
 9.65   -01-0.9298     2.17   +02 4.     +00
ENDDATA            212
ENDSUBENT          224
ENDENTRY             3
