ENTRY            30414     850121
SUBENT        30414001     850121              20050926       0000
BIB                 13         31
INSTITUTE  (3AULAUA)
           (1USAORL) LAST AUTHOR'S ADDRESS.
REFERENCE  (C,78HARWELL,426,7809) CONTAINING ALSO NA23. FINAL.
           (W,ALLEN,770531) PRELIM.AL27 ONLY.
           (C,75WASH,1,360,7504)EXFOR30288.015 HAS BEEN REPLACED.
           (P,AAEC/PR-40,46,7407)RES.PARS. GIVEN IN TABLE 3.2 WERE
           (J,NSE,82,(2),230,82) NO CORRECTION FACTOR FOR NEUTRON
            CAPTURE CROSS-SECTION IS REQUIRED.
            SUPERSEDED BY NEW PRELIMINARY VALUES( ALLEN,77/05/31).
            AND FINALLY REPLACED BY THOSE IN 78HARWELL CONF.
AUTHOR     (A.R.DEL.MUSGROVE,B.J.ALLEN,R.L.MACKLIN)
TITLE      - AL-27 RESONANCE PARAMETERS.-
FACILITY   (LINAC,1USAORL) ORELA
INC-SOURCE (PHOTO)
SAMPLE     METALLIC TARGET WITH THICKNESS 0.315 CM.
METHOD     (TOF) TIME OF FLIGHT, PATH = 40 M.
DETECTOR   (SCIN) FLUOROCARBON SCINTILLATORS.
           A THIN LI-6 GLASS FOR INCIDENT NEUTRON MONITORING.
PART-DET   (G) GAMMAS.
ANALYSIS   (AREA)
           A MODIFIED VERSION OF THE ORNL/RPI CODE BY SULLIVAN ET
           AL., RPI-328-155(1969)
           (SHAPE)
           A SHAPE FIT WAS DONE WHEN THE NEUTRON-WIDTH WAS LARGER
           THAN 0.4 * (EXPERIMENTAL RESOLUTION-WIDTH).
STATUS     (APRVD) APPROVED BY MUSGROVE. 79/02/14.
HISTORY    (770622C) KO.
           (790125A) KO.-COMPLETE REPLACEMENT OF PRELIM.RESULT BY
            NEW ONE.-
           (790516U) KO.- 'APRVD' ADDED. AMENDMENT IN .002 -
           (821028U) DG.-INSERTION OF CORRIGENDUM IN REFERENCE.-
ENDBIB              31
NOCOMMON             0          0
ENDSUBENT           34
SUBENT        30414002     850121              20050926       0000
BIB                  6         19
REACTION  1(13-AL-27(N,0),,EN)
          2((13-AL-27(N,EL),,WID,,G)*(13-AL-27(N,G),,WID)/
           (13-AL-27(N,TOT),,WID))
          3(13-AL-27(N,EL),,WID)
          4(13-AL-27(N,G),,WID)
          5(13-AL-27(N,0),,L)
ASSUMED    (ASSUM,13-AL-27(N,EL),,WID)
ERR-ANALYS NO FURTHER INFORMATION
          1(DATA-ERR) 0.15 PERCENT FOR ALL EXCEPT 425KEV RES.
           THE ERROR OF 425KEV RESONANCE IS +-10KEV(=2.35PERCENT)
COMMENT    THE SPIN J OF RESONANCES IS TAKEN FROM SINGH ET AL.
            PHYS.REV.,C11(1975)1117.
STATUS     DATA TAKEN FROM PRIV.COMM.(ALLEN),77/05/31 AND REPLACED
           BY THOSE IN 1978HARWELL CONFERENCE.
HISTORY    (790125A) KO. -REPLACED BY FINAL(78HARWELL) RESULT.-
            ===NOTE BY COMPILER ===   (   ENQUIRY TO AUTHOR,79/02)
            RES.EN.425KEV(NOT IN SEQ.) WAS PUT AS 416 IN PREPRINT
           (790516A) KO.-THE PLACE OF RES.EN.OF 425KEV REARRANGED,
            AFTER LETT.FROM MUSGROVE,79/02/14.-
ENDBIB              19
NOCOMMON             0          0
DATA                11         36
DATA      1DATA-ERR  1DATA      2DATA-ERR  2DATA      3DATA-ERR  3
DATA      4DATA-ERR  4DATA      5SPIN J     ASSUM
KEV        PER-CENT   EV         EV         KEV        KEV
EV         EV         NO-DIM     NO-DIM     EV
 5.9040E+00 1.5000E-01 1.7500E-01 1.0000E-02 1.6500E-02 1.5000E-03
 7.3000E-01 4.0000E-02 1.0000E+00 1.0000E+00
 2.4300E+01 1.5000E-01 4.0000E-03 1.0000E-03

 3.4800E+01 1.5000E-01 1.2700E+00 2.0000E-01 3.0000E+00 5.0000E-01
 3.1000E+00 6.0000E-01 0.0000E+00 2.0000E+00
 8.7400E+01 1.5000E-01 1.2500E+00 7.5000E-01 1.0000E+01 2.0000E+00
 2.1000E+00 1.3000E+00 0.0000E+00 3.0000E+00
 9.0860E+01 1.5000E-01 1.5000E-02 5.0000E-03

 9.1180E+01 1.5000E-01 1.0800E-01 1.2000E-02

 9.1980E+01 1.5000E-01 2.9000E-02 8.0000E-03

 9.9660E+01 1.5000E-01 2.9500E-01 1.5000E-02

 1.0370E+02 1.5000E-01 1.5800E-01 1.6000E-02

 1.1970E+02 1.5000E-01 2.0300E+00 2.1000E-01 3.5000E+00 5.0000E-01
 4.9000E+00 5.0000E-01 1.0000E+00 2.0000E+00
 1.4210E+02 1.5000E-01 3.0000E+00 1.0000E+00 1.6000E+01 2.0000E+00
 5.1000E+00 1.5000E+00 0.0000E+00 3.0000E+00
 1.5890E+02 1.5000E-01 4.4000E-01 2.4000E-01 4.0000E+00 5.0000E-01
 6.0000E-01 3.0000E-01 1.0000E+00 4.0000E+00
 2.0200E+02 1.5000E-01 2.5000E+00 1.3000E+00 1.4500E+01 2.5000E+00
 6.0000E+00 3.0000E+00 0.0000E+00 2.0000E+00
 2.0340E+02 1.5000E-01 4.5000E-01 5.0000E-02

 2.2010E+02 1.5000E-01 1.3000E-01 4.0000E-02

 2.2370E+02 1.5000E-01 4.0000E-01 8.0000E-02 8.0000E-01 1.0000E-01
                       1.0000E+00
 2.5660E+02 1.5000E-01 3.0000E-01 1.5000E-01
                                             1.5000E+00
 2.6010E+02 1.5000E-01 6.9000E-01 7.0000E-02

 2.6800E+02 1.5000E-01 3.0000E-01 6.0000E-02

 2.8160E+02 1.5000E-01 1.6000E+00 5.0000E-01 8.0000E+00 1.0000E+00

 2.9360E+02 1.5000E-01 9.2000E-01 4.0000E-01 1.5000E+01 2.0000E+00

 3.1480E+02 1.5000E-01 1.4000E+00 7.0000E-01 1.5000E+01 2.0000E+00

 3.4420E+02 1.5000E-01 3.9000E-01 7.0000E-02

 3.5950E+02 1.5000E-01 8.6000E-01 1.6000E-01

 3.6550E+02 1.5000E-01 4.3000E+00 4.0000E-01 8.5000E+00 1.5000E+00

 3.8490E+02 1.5000E-01 1.2000E+00 3.0000E-01 3.0000E+00 1.0000E+00

 4.1950E+02 1.5000E-01 6.2000E-01 1.2000E-01

 4.2500E+02 2.3500E+00 2.0000E+01 5.0000E+00 6.0000E+01 1.5000E+01

 4.7560E+02 1.5000E-01 2.2800E+00 2.8000E-01 4.0000E+00 1.0000E+00

 4.8950E+02 1.5000E-01 3.6100E+00 5.0000E-01 7.0000E+00 1.0000E+00

 5.2380E+02 1.5000E-01 5.9000E+00 1.0000E+00 1.0000E+01 2.0000E+00

 5.4470E+02 1.5000E-01 1.2000E+00 4.0000E-01

 5.6720E+02 1.5000E-01 5.9000E+00 1.5000E+00 2.0000E+01 4.0000E+00

 5.8500E+02 1.5000E-01 1.3500E+00 3.5000E-01

 5.8930E+02 1.5000E-01 1.2400E+00 2.4000E-01 5.5000E+00 1.5000E+00

 5.9650E+02 1.5000E-01 4.7000E-01 1.7000E-01

ENDDATA             76
ENDSUBENT          100
ENDENTRY             2
