ENTRY            30457     850121
SUBENT        30457001     850121              20050926       0000
BIB                 13         36
INSTITUTE  (3CHFSHI)
REFERENCE  (J,NSF,14,(4),1,7712)
AUTHOR     (C.E.AI,M.W.WU,J.C.CHOU)
TITLE      MEASUREMENTS OF AL-27(N,P)MG-27 AND FE-54(N,P)MN-54
           CROSS SECTIONS.
FACILITY   (VDG,3CHFSHI) 7MV VAN DE GRAAFF ACCELERATOR.
INC-SOURCE (P-LI7)
           METALLIC LITHIUM TARGET WITH 3 MICRO-AMP. PROTON.
METHOD     (ACTIV) ACTIVATION.
           .NEUTRON FLUXES WERE MEASURED WITH A PROTON RECOIL
           TELESCOPE. (RADIATOR,C(18)-H(36)-O(2))
DETECTOR   (GELI)  40 CM3 GE(LI) DETECTOR.  THE RELATIVE
           EFFICIENCY WAS CALIBRATED BY THE SEMI-EMPIRICAL FORMULA
           .THE PROTON RECOIL TELESCOPE WITH A 500 MICRON N-TYPE
           SILICON SURFACE BARRIER DETECTOR AS THE ABSOLUTE
           NEUTRON FLUX DETECTOR. THE BF-3 DETECTOR AND CURRENT
           INTEGRATOR WERE USED AS THE NEUTRON MONITOR.
MONITOR    (1-H-1(N,EL)1-H-1,,SIG)
STATUS     DATA TAKEN FROM TABLE 4 OF NUCL.SCIENCE JOUR.14(1977)1.
HISTORY    (780929C) KO.
CORRECTION CORRECTED FOR THE GAMMA-RAY SELF-ABSORPTION AND THE
           GEOMETRIC FACTOR.
ERR-ANALYS TOTAL ERROR GIVEN. THE ROOT OF THE SUM OF THE SQUARED
           VALUES OF ALL UNCERTAINTIES FOLLOWING (IN PERCENT),
            COUNTING STAT.IN RECOIL PROTONS                1.
            COUNTING STAT.IN GAMMA MEASUREMENT             1.5 - 3
            SAMPLE DISTANCE                                2.
            GAMMA DETECTOR EFFICIENCY                      4.
            GEOMETRY OF TELESCOPE                          1.
            THICKNESS OF RADIATOR                          1.
            TOTAL N-P SCATT.X-SECTION OF C(18)-H(36)-O(2)  0.5
            NEUTRON ANGULAR DISTRIBUTION                   1.
            NEUTRON YIELD                                  1.
            MULTIPLE SCATTERING CORRECTION                 1.
            GAMMA SELF-ABSORP. + GEOMETRY FACTOR CORRECT.  1.
            TOTAL ROOT-MEAN-SQUARE ERROR  =   5.5 TO 6.0 PERCENT.
ENDBIB              36
NOCOMMON             0          0
ENDSUBENT           39
SUBENT        30457002     850121              20050926       0000
BIB                  3          5
REACTION   (13-AL-27(N,P)12-MG-27,,SIG)
SAMPLE     HIGH PURITY METAL, 99.99 PERCENT.  2.54CM IN DIAM. AND
           0.5 CM THICKNESS.
DECAY-DATA (12-MG-27,567.7SEC,DG,843.,0.696)
             T(1/2) OF MG-27 = 567.7 +- 0.7 SEC.
ENDBIB               5
NOCOMMON             0          0
DATA                 4         16
EN         EN-RSL     DATA       DATA-ERR
MEV        MEV        MB         MB
 2.7800E+00 4.0000E-02 2.8100E-01 1.4000E-02
 2.9800E+00 4.0000E-02 1.0400E+00 5.0000E-02
 3.1800E+00 5.0000E-02 2.0300E+00 1.1000E-01
 3.2900E+00 5.0000E-02 2.7400E+00 1.4000E-01
 3.3900E+00 5.0000E-02 3.3200E+00 2.0000E-01
 3.4900E+00 5.0000E-02 8.9500E+00 4.5000E-01
 3.5900E+00 5.0000E-02 5.4200E+00 2.7000E-01
 3.6900E+00 5.0000E-02 6.6900E+00 3.3000E-01
 3.7900E+00 5.0000E-02 9.6100E+00 4.8000E-01
 3.8900E+00 5.0000E-02 6.2400E+00 3.1000E-01
 3.9900E+00 5.0000E-02 8.0500E+00 4.0000E-01
 4.0900E+00 5.0000E-02 6.5700E+00 3.3000E-01
 4.1900E+00 5.0000E-02 8.6900E+00 4.3000E-01
 4.3900E+00 5.0000E-02 1.2400E+01 6.0000E-01
 4.4900E+00 5.0000E-02 1.3500E+01 6.0000E-01
 4.5900E+00 5.0000E-02 2.2500E+01 1.1000E+00
ENDDATA             18
ENDSUBENT           28
SUBENT        30457003     850121              20050926       0000
BIB                  3          4
REACTION   (26-FE-54(N,P)25-MN-54,,SIG)
SAMPLE     NATURAL HIGH PURITY METAL, 99.99 PERCENT. 2.54 CM IN
           DIAM. AND 0.5 CM THICKNESS.
DECAY-DATA (25-MN-54,312.D,DG,835.,1.)
ENDBIB               4
NOCOMMON             0          0
DATA                 4         10
EN         EN-RSL     DATA       DATA-ERR
MEV        MEV        MB         MB
 2.7800E+00 4.0000E-02 1.5300E+02 8.0000E+00
 2.9800E+00 4.0000E-02 1.6700E+02 8.0000E+00
 3.1800E+00 5.0000E-02 1.4400E+02 7.0000E+00
 3.3900E+00 5.0000E-02 2.1500E+02 1.1000E+01
 3.5900E+00 5.0000E-02 2.4800E+02 1.2000E+01
 3.7900E+00 5.0000E-02 2.2400E+02 1.1000E+01
 3.9900E+00 5.0000E-02 2.7600E+02 1.4000E+01
 4.1900E+00 5.0000E-02 2.8400E+02 1.4000E+01
 4.3900E+00 5.0000E-02 2.7900E+02 1.4000E+01
 4.5900E+00 5.0000E-02 3.4500E+02 7.0000E+00
ENDDATA             12
ENDSUBENT           21
ENDENTRY             3
