ENTRY            30457   20090311   20090724   20090720       3135
SUBENT        30457001   20090311   20090724   20090720       3135
BIB                 13         39
INSTITUTE  (3CHFSHI)
REFERENCE  (J,NSF,14,(4),1,197712)
AUTHOR     (C.E.Ai,M.W.Wu,J.C.Chou)
TITLE      Measurements of Al-27(n,p)Mg-27 and Fe-54(n,p)Mn-54
           cross sections.
FACILITY   (VDG,3CHFSHI) 7MV Van de Graaff accelerator.
INC-SOURCE (P-LI7)
           Metallic lithium target with 3 micro-Amp. proton.
METHOD     (ACTIV) Activation.
           .Neutron fluxes were measured with a proton recoil
           telescope. (Radiator,C(18)-H(36)-O(2))
DETECTOR   (GELI)  40 cm3 Ge(Li) detector.  The relative
           efficiency was calibrated by the semi-empirical formula
           (TELES,SIBAR,BF3) The proton recoil telescope with a
           500 micron n-type silicon surface barrier detector as
           the absolute neutron flux detector. The BF3 detector
           and current integrator were used as the neutron monitor
MONITOR    (1-H-1(N,EL)1-H-1,,SIG)
STATUS     (TABLE) Data taken from Table 4 of
                                    Nucl.Science Jour.14(1977)1.
HISTORY    (19780929C) KO.
           (20090310A) SD:Updated to new date formats,lower case.
             Description of uncertainties was added.
CORRECTION Corrected for the gamma-ray self-absorption and the
           geometric factor.
ERR-ANALYS (ERR-T) Total error given. The root of the sum of
           the squared values of all following uncertainties:
           (ERR-1) sample distance  (2%)
           (ERR-2) gamma detector efficiency  (4%)
           (ERR-3) geometry of telescope  (1%)
           (ERR-4) thickness of radiator (1%)
           (ERR-5) total n-p scatt.X-section of C(18)-H(36)-O(2)
           (ERR-6) neutron angular distribution  (1%)
           (ERR-7) neutron yield   (1%)
           (ERR-8) multiple scattering correction  (1%)
           (ERR-9) gamma self-absorp. + geometry factor correct.
            * counting stat.in recoil protons  (1%)
            * counting stat.in gamma measurement  1.5 - 3%
            Total root-mean-square error  =   5.5 to 6.0%.
ENDBIB              39
COMMON               9          6
ERR-1      ERR-2      ERR-3      ERR-4      ERR-5      ERR-6
ERR-7      ERR-8      ERR-9
PER-CENT   PER-CENT   PER-CENT   PER-CENT   PER-CENT   PER-CENT
PER-CENT   PER-CENT   PER-CENT
  2.0        4.0        1.0        1.0        0.5        1.0
  1.0         1.0       1.0
ENDCOMMON            6
ENDSUBENT           49
SUBENT        30457002   20090311   20090724   20090720       3135
BIB                  3          5
REACTION   (13-AL-27(N,P)12-MG-27,,SIG)
SAMPLE     High purity metal, 99.99%.  2.54cm in diam. and
           0.5 cm thickness.
DECAY-DATA (12-MG-27,567.7SEC,DG,843.,0.696)
             T(1/2) of Mg-27 = 567.7 +- 0.7 sec.
ENDBIB               5
COMMON               1          3
ERR-HL
SEC
  0.7
ENDCOMMON            3
DATA                 4         16
EN         EN-RSL     DATA       ERR-T
MEV        MEV        MB         MB
 2.7800E+00 4.0000E-02 2.8100E-01 1.4000E-02
 2.9800E+00 4.0000E-02 1.0400E+00 5.0000E-02
 3.1800E+00 5.0000E-02 2.0300E+00 1.1000E-01
 3.2900E+00 5.0000E-02 2.7400E+00 1.4000E-01
 3.3900E+00 5.0000E-02 3.3200E+00 2.0000E-01
 3.4900E+00 5.0000E-02 8.9500E+00 4.5000E-01
 3.5900E+00 5.0000E-02 5.4200E+00 2.7000E-01
 3.6900E+00 5.0000E-02 6.6900E+00 3.3000E-01
 3.7900E+00 5.0000E-02 9.6100E+00 4.8000E-01
 3.8900E+00 5.0000E-02 6.2400E+00 3.1000E-01
 3.9900E+00 5.0000E-02 8.0500E+00 4.0000E-01
 4.0900E+00 5.0000E-02 6.5700E+00 3.3000E-01
 4.1900E+00 5.0000E-02 8.6900E+00 4.3000E-01
 4.3900E+00 5.0000E-02 1.2400E+01 6.0000E-01
 4.4900E+00 5.0000E-02 1.3500E+01 6.0000E-01
 4.5900E+00 5.0000E-02 2.2500E+01 1.1000E+00
ENDDATA             18
ENDSUBENT           32
SUBENT        30457003   20090311   20090724   20090720       3135
BIB                  3          4
REACTION   (26-FE-54(N,P)25-MN-54,,SIG)
SAMPLE     Natural high purity metal, 99.99% 2.54 cm in
           diam. and 0.5 cm thickness.
DECAY-DATA (25-MN-54,312.D,DG,835.,1.)
ENDBIB               4
NOCOMMON             0          0
DATA                 4         10
EN         EN-RSL     DATA       ERR-T
MEV        MEV        MB         MB
 2.7800E+00 4.0000E-02 1.5300E+02 8.0000E+00
 2.9800E+00 4.0000E-02 1.6700E+02 8.0000E+00
 3.1800E+00 5.0000E-02 1.4400E+02 7.0000E+00
 3.3900E+00 5.0000E-02 2.1500E+02 1.1000E+01
 3.5900E+00 5.0000E-02 2.4800E+02 1.2000E+01
 3.7900E+00 5.0000E-02 2.2400E+02 1.1000E+01
 3.9900E+00 5.0000E-02 2.7600E+02 1.4000E+01
 4.1900E+00 5.0000E-02 2.8400E+02 1.4000E+01
 4.3900E+00 5.0000E-02 2.7900E+02 1.4000E+01
 4.5900E+00 5.0000E-02 3.4500E+02 7.0000E+00
ENDDATA             12
ENDSUBENT           21
ENDENTRY             3
