ENTRY            30469   20110913   20111102   20111025       3152
SUBENT        30469001   20110913   20111102   20111025       3152
BIB                 12         26
TITLE      Measurements of the total neutron cross-section of
           silicon and manganese in the energy range 1.8 milli-eV
           to 1.8 eV.
AUTHOR     (M.Adib,A.Abdel-Kawy,S.Faragalla,S.Sadek,M.Salama,
           I.Hamouda)
INSTITUTE  (3EGYCAI)
REFERENCE  (J,AKE,27,(2),117,1976)
           (C,77KIEV,2,232,197704) Pot.scat.sig. given.
REL-REF    (I,,I.Hamouda+,J,NIM,40,153,1966)
                               Detail of mechanical chopper.
MONITOR    Absolute, transmission.
FACILITY   (CHOPS,3EGYCAI) Rotor of pertinax 160 mm in diam.,
           with 3 slits each of 3 * 25 mm2.
INC-SOURCE (REAC) ET-RR-1 reactor, horizontal channel.
METHOD     (TOF)Flight path = 5.66 m, the spectrometer resolution
           at rotor speeds of.1415 rpm and 2880 rpm is 23 and 11
           micro-s/m, respectively.
           To increase the effect to background ratio in the
           energy range from 5 to 1.8 milli-eV, a block of Be,
           20 cm length, was placed in front of the n-beam.
DETECTOR   (BF3)
PART-DET   (N)
HISTORY    (19790129C) KO.
           (19921222U) HW. -Obsolete country-code converted.-
           (20090310A) SD: Updated to new date formats,lower case.
           (20110812A)  VS. REFERENCE corrected.
ENDBIB              26
NOCOMMON             0          0
ENDSUBENT           29
SUBENT        30469002   20090312   20090724   20090720       3135
BIB                  6         10
REACTION   (14-SI-0(N,TOT),,SIG)
SAMPLE     Spec.pure silicon powder, packed in a perspex container
           with thin glass windows.
           1 Sample of thickness 0.87 g/cm2.
MISC-COL   (MISC) Wave length in Angstrom.
COMMENT    The measured cross-section from 5 eV to 22 milli-eV was
           found to fluctuate near a constant value of 2.35+-0.08b
STATUS     (TABLE) Data from priv.comm., M.Adib, 79/01/13.
           corresponding to Fig. 2 of ATKE 27,117,1976
ERR-ANALYS (DATA-ERR) Nothing said about uncertainties
ENDBIB              10
COMMON               1          3
DATA-ERR
PER-CENT
 5.0000E+00
ENDCOMMON            3
DATA                 3        209
EN         DATA       MISC
EV         B          ANGSTROM
    0.00254    3.54000    5.68450
    0.00263    3.75000    5.58470
    0.00267    3.60000    5.54150
    0.00270    3.78000    5.50960
    0.00276    3.30000    5.44950
    0.00282    3.36000    5.38790
    0.00288    3.68000    5.32770
    0.00292    3.31000    5.29810
    0.00296    3.63000    5.25910
    0.00299    3.19000    5.23030
    0.00304    2.90000    5.19230
    0.00306    2.81000    5.16420
    0.00311    3.33000    5.12720
    0.00316    2.59000    5.09070
    0.00320    2.95000    5.05470
    0.00324    3.33000    5.02810
    0.00328    3.29000    4.99300
    0.00333    3.19000    4.95840
    0.00337    3.28000    4.92420
    0.00342    3.19000    4.89050
    0.00348    3.17000    4.84910
    0.00353    3.00000    4.81640
    0.00357    3.16000    4.78420
    0.00362    3.10000    4.75240
    0.00368    3.22000    4.71330
    0.00373    2.91000    4.68240
    0.00379    2.87000    4.64440
    0.00384    3.21000    4.61450
    0.00390    2.80000    4.57760
    0.00396    3.20000    4.54840
    0.00402    2.59000    4.51260
    0.00408    2.83000    4.47730
    0.00414    2.08000    4.44250
    0.00420    2.47000    4.40830
    0.00426    2.69000    4.37460
    0.00432    2.78000    4.34140
    0.00440    2.75000    4.30870
    0.00446    2.60000    4.27010
    0.00452    2.49000    4.23850
    0.00460    2.39000    4.20110
    0.00467    2.39000    4.17050
    0.00475    2.59000    4.13430
    0.00480    2.27000    4.10230
    0.00490    2.43000    4.06390
    0.00500    2.34000    4.02950
    0.00510    2.34000    3.99580
    0.00520    2.28000    3.92940
    0.00520    2.16000    3.96260
    0.00530    2.21000    3.89730
    0.00540    2.73000    3.86090
    0.00550    2.76000    3.82480
    0.00560    3.31000    3.79110
    0.00570    3.47000    3.75950
    0.00580    3.31000    3.72520
    0.00600    3.33000    3.69160
    0.00613    3.22000    3.65850
    0.00620    3.15000    3.62150
    0.00630    3.06000    3.58970
    0.00640    3.13000    3.55400
    0.00660    2.96000    3.51900
    0.00670    2.98000    3.48470
    0.00680    2.74000    3.45110
    0.00700    2.69000    3.41810
    0.00710    2.68000    3.38170
    0.00720    2.66000    3.33010
    0.00740    2.71000    3.31510
    0.00760    3.06000    3.28090
    0.00770    3.28000    3.24760
    0.00790    3.33000    3.21090
    0.00810    3.23000    3.17880
    0.00820    3.05500    3.14390
    0.00840    3.05000    3.09290
    0.00860    2.94000    3.07630
    0.00880    2.90000    3.04030
    0.00910    2.74000    2.99260
    0.00920    2.79000    2.97400
    0.00940    2.70000    2.93730
    0.00970    2.67000    2.90450
    0.00990    2.58000    2.86960
    0.01010    2.59000    2.83540
    0.01040    2.47000    2.80210
    0.01060    2.36000    2.76690
    0.01090    2.42000    2.73250
    0.01120    2.53000    2.69300
    0.01150    2.45000    2.66380
    0.01180    2.44000    2.62950
    0.01210    2.35000    2.57980
    0.01240    2.33000    2.55350
    0.01280    2.32000    2.52730
    0.01310    2.45000    2.49430
    0.01350    2.48000    2.46340
    0.01390    2.37000    2.42450
    0.01430    2.31000    2.39810
    0.01470    2.34000    2.35660
    0.01510    2.24000    2.32220
    0.01560    2.22000    2.28880
    0.01610    2.18000    2.25450
    0.01650    2.33000    2.22120
    0.01710    2.47000    2.18560
    0.01760    2.45000    2.15270
    0.01820    2.48000    2.11760
    0.01880    2.44000    2.08370
    0.01940    2.44000    2.04940
    0.02010    2.59000    2.01470
    0.02080    2.47000    1.98130
    0.02150    2.39000    1.94750
    0.02230    2.54000    1.91240
    0.02310    2.41000    1.87850
    0.02400    2.46000    1.84460
    0.02440    2.42000    1.81070
    0.02450    2.63000    1.79370
    0.02590    2.45000    1.77590
    0.02640    2.41000    1.75950
    0.02690    2.52000    1.74230
    0.02750    2.33000    1.72450
    0.02800    2.40000    1.70800
    0.02860    2.57000    1.69080
    0.02920    2.48000    1.67400
    0.02980    2.59000    1.65660
    0.03040    2.47000    1.63950
    0.03100    2.40000    1.62280
    0.03170    2.43000    1.60540
    0.03240    2.38000    1.58850
    0.03310    2.30000    1.57110
    0.03400    2.37000    1.54900
    0.03460    2.38000    1.53730
    0.03540    2.45000    1.52020
    0.03620    2.47000    1.50260
    0.03700    2.45000    1.48620
    0.03790    2.32000    1.46870
    0.03880    2.54000    1.45150
    0.03970    2.49000    1.43500
    0.04040    2.40000    1.42200
    0.04170    2.39000    1.40040
    0.04270    2.41000    1.38350
    0.04380    2.29000    1.36630
    0.04490    2.41000    1.34890
    0.04610    2.35000    1.33190
    0.04730    2.35000    1.31480
    0.04850    2.45000    1.29810
    0.04990    2.24000    1.28070
    0.05120    2.35000    1.26370
    0.05260    2.45000    1.24660
    0.05410    2.35000    1.22950
    0.05560    2.45000    1.21230
    0.05720    2.35000    1.19560
    0.05890    2.45000    1.17830
    0.06070    2.35000    1.16100
    0.06250    2.35000    1.14400
    0.06440    2.35000    1.12730
    0.06640    2.34000    1.11020
    0.06850    2.34000    1.09280
    0.07070    2.35000    1.07600
    0.07300    2.34000    1.05880
    0.07540    2.41000    1.04190
    0.07790    2.45000    1.02470
    0.08060    2.42000    1.00740
    0.08340    2.33000    0.99060
    0.08630    2.34000    0.97350
    0.08950    2.34000    0.95620
    0.09270    2.33000    0.93930
    0.09620    2.25000    0.92230
    0.09990    2.35000    0.90510
    0.10380    2.35000    0.88790
    0.10790    2.35000    0.87090
    0.11220    2.35000    0.85380
    0.11680    2.41000    0.83680
    0.12180    2.45000    0.81980
    0.12700    2.25000    0.80250
    0.13260    2.35000    0.78550
    0.13860    2.25000    0.76850
    0.14500    2.35000    0.75130
    0.15170    2.35000    0.73430
    0.15910    2.30000    0.71720
    0.16690    2.35000    0.70020
    0.17540    2.45000    0.68300
    0.18450    2.25000    0.66600
    0.19430    2.35000    0.64890
    0.20500    2.55000    0.63180
    0.21650    2.35000    0.61470
    0.22910    2.25000    0.59770
    0.24280    2.25000    0.58060
    0.25770    2.55000    0.56350
    0.27410    2.45000    0.54640
    0.29210    2.39000    0.52930
    0.31190    2.45000    0.51230
    0.33310    2.35000    0.49520
    0.35800    2.25000    0.47810
    0.38500    2.25000    0.46110
    0.41520    2.53000    0.44420
    0.44910    2.21000    0.32690
    0.48730    2.17000    0.30980
    0.53070    2.35000    0.39270
    0.58000    2.35000    0.37560
    0.63660    2.25000    0.35860
    0.70190    2.38000    0.34150
    0.77770    2.45000    0.32440
    0.86630    2.61000    0.30740
    0.97140    2.25000    0.29020
    1.09600    2.48000    0.27320
    1.24800    2.55000    0.25610
    1.43200    2.59000    0.23900
    1.66100    2.32000    0.22970
    1.94900    2.31000    0.20490
    2.32000    2.28000    0.18780
    2.80800    2.27000    0.17070
    3.46600    2.54000    0.15370
    4.38700    2.36000    0.13660
    5.73000    2.24000    0.11950
ENDDATA            211
ENDSUBENT          230
SUBENT        30469003   20090312   20090724   20090720       3135
BIB                  3          7
REACTION   (14-SI-0(N,TOT),,SIG,,,DERIV)
            Thermal cross section obtained from formula derived
            from experimental values given in subentry 2
STATUS     (DEP,30469002)
            Dependent data obtained from total cross section
           measurement.
ERR-ANALYS (DATA-ERR) Nothing said about uncertainties
ENDBIB               7
NOCOMMON             0          0
DATA                 3          1
EN         DATA       DATA-ERR
EV         B          B
 2.5000E-02 2.3500E+00 8.0000E-02
ENDDATA              3
ENDSUBENT           15
SUBENT        30469004   20090312   20090724   20090720       3135
BIB                  3          6
REACTION   (14-SI-0(N,EL)14-SI-0,POT,SIG,,AV)
STATUS     (DEP,30469002)
            Dependent data obtained from total cross section
           measurement.  Data taken from Table 1 of 1977 Kiev Conf
           vol.2,p.232.
ERR-ANALYS (DATA-ERR) Nothing said about uncertainties
ENDBIB               6
COMMON               2          3
EN-MIN     EN-MAX
EV         EV
 2.5400E-03 5.7300E+00
ENDCOMMON            3
DATA                 2          1
DATA       DATA-ERR
B          B
 2.2700E+00 1.1000E-01
ENDDATA              3
ENDSUBENT           18
SUBENT        30469005   20090312   20090724   20090720       3135
BIB                  6         11
REACTION   (25-MN-55(N,TOT),,SIG)
SAMPLE     Spec.pure manganese powder, packed in perspex container
            2 samples of thickness 1.47 and 2.86 g/cm2.
MISC-COL   (MISC) Wave length in Angstrom.
COMMENT    The cross-section is represented by the formula,
            sig tot =((2.12+-0.2) + (2.17+-0.03)/sqrt(E))  barn.
            E in electron volt.  This equation gives
            sig tot(0.025eV) =(15.80+-0.40) B
STATUS     (TABLE) Data from priv.comm., M.Adib, 79/01/13.
           corresponding to fig  of ATKE,
ERR-ANALYS (DATA-ERR) Nothing said about uncertainties
ENDBIB              11
COMMON               1          3
DATA-ERR
PER-CENT
 5.0000E+00
ENDCOMMON            3
DATA                 3        209
EN         DATA       MISC
EV         B          ANGSTROM
    0.00245   51.28000    5.78780
    0.00251   45.65000    5.70850
    0.00253   45.20000    5.67450
    0.00260   40.40000    5.61760
    0.00263   43.80000    5.58470
    0.00267   50.46000    5.54150
    0.00270   43.40000    5.50960
    0.00276   39.15000    5.44950
    0.00282   47.49000    5.38780
    0.00289   44.02000    5.31780
    0.00296   43.09000    5.25910
    0.00299   42.58000    5.23030
    0.00304   37.05000    5.19230
    0.00307   44.70000    5.16420
    0.00311   36.50000    5.12720
    0.00316   43.40000    5.09070
    0.00320   35.93000    5.05470
    0.00324   40.33000    5.02810
    0.00328   42.17000    4.99300
    0.00333   38.08000    4.95840
    0.00337   44.90000    4.92420
    0.00342   44.68000    4.89050
    0.00348   39.41000    4.84910
    0.00353   41.56000    4.81640
    0.00357   36.03000    4.78420
    0.00362   36.90000    4.75240
    0.00368   36.75000    4.71330
    0.00373   34.94000    4.68240
    0.00379   36.59000    4.64440
    0.00384   38.70000    4.61450
    0.00391   35.70000    4.57760
    0.00396   38.69000    4.54840
    0.00402   32.96000    4.51270
    0.00408   35.20000    4.47730
    0.00410   35.14000    4.44250
    0.00420   32.75000    4.40830
    0.00425   35.20000    4.37460
    0.00430   34.70000    4.34140
    0.00440   33.57000    4.30870
    0.00445   34.29000    4.27010
    0.00450   35.72000    4.23850
    0.00460   34.80000    4.20110
    0.00470   34.80000    4.17050
    0.00475   36.20000    4.13430
    0.00480   34.80000    4.10230
    0.00490   33.47000    4.06390
    0.00500   32.91000    4.02960
    0.00510   32.75000    3.99580
    0.00520   30.67000    3.92990
    0.00520   31.94000    3.96260
    0.00530   30.67000    3.89780
    0.00540   31.20000    3.86090
    0.00550   30.50000    3.82480
    0.00560   30.20000    3.79440
    0.00570   28.56000    3.75950
    0.00580   28.56000    3.72520
    0.00600   28.76000    3.69160
    0.00610   28.86000    3.65850
    0.00620   28.70000    3.62150
    0.00630   28.25000    3.58970
    0.00640   27.94000    3.55400
    0.00660   28.05000    3.51900
    0.00670   27.50000    3.48470
    0.00680   27.74000    3.45110
    0.00700   26.60000    3.41810
    0.00710   26.10000    3.38170
    0.00720   27.02000    3.35010
    0.00740   25.79000    3.31510
    0.00760   25.50000    3.28090
    0.00770   26.41000    3.24740
    0.00790   25.69000    3.21090
    0.00810   25.38000    3.17880
    0.00820   25.70000    3.14390
    0.00840   24.06000    3.10970
    0.00860   24.97000    3.07630
    0.00880   24.25000    3.04030
    0.00910   24.26000    2.99260
    0.00920   23.88000    2.97400
    0.00940   24.16000    2.93730
    0.00970   23.03000    2.90450
    0.00990   24.05000    2.86960
    0.01010   23.54000    2.83540
    0.01040   22.50000    2.80210
    0.01060   22.20000    2.76690
    0.01090   21.60000    2.73250
    0.01120   21.39000    2.69900
    0.01150   22.20000    2.66380
    0.01180   21.19000    2.62950
    0.01210   21.29000    2.59610
    0.01240   21.60000    2.55350
    0.01280   20.16000    2.52730
    0.01310   19.65000    2.49430
    0.01350   19.75000    2.46340
    0.01390   20.06000    2.42450
    0.01430   19.45000    2.39210
    0.01470   19.35000    2.35660
    0.01510   18.53000    2.32220
    0.01560   18.83000    2.28880
    0.01610   18.83000    2.25450
    0.01650   18.94000    2.22120
    0.01710   18.00000    2.18560
    0.01760   17.60000    2.15270
    0.01820   17.80000    2.11760
    0.01880   17.49000    2.08370
    0.01940   17.76000    2.04940
    0.02010   17.60000    2.01470
    0.02080   16.79000    1.98130
    0.02150   16.22000    1.94750
    0.02230   15.96000    1.91240
    0.02310   16.12000    1.87800
    0.02400   16.05000    1.84460
    0.02490   15.56000    1.81070
    0.02590   15.25000    1.77590
    0.02690   14.90000    1.74230
    0.02750   15.10000    1.72450
    0.02800   14.84000    1.70800
    0.02860   15.15000    1.69080
    0.02920   14.99000    1.67400
    0.02980   14.89000    1.65660
    0.03040   14.43000    1.63950
    0.03100   14.89000    1.62280
    0.03170   14.64000    1.60540
    0.03240   14.22000    1.58850
    0.03310   14.17000    1.57110
    0.03400   14.10000    1.54900
    0.03460   14.00000    1.53730
    0.03540   14.27000    1.52020
    0.03620   13.55000    1.50260
    0.03700   12.98000    1.48620
    0.03790   13.45000    1.46870
    0.03880   12.88000    1.45150
    0.03970   13.30000    1.43500
    0.04040   12.83000    1.42200
    0.04170   12.15000    1.40440
    0.04270   12.57000    1.38350
    0.04380   12.62000    1.36630
    0.04490   11.95000    1.34890
    0.04610   12.21000    1.33190
    0.04730   11.64000    1.31480
    0.04850   11.95000    1.29810
    0.04990   12.10000    1.28070
    0.05120   11.60000    1.26370
    0.05260   11.58000    1.24660
    0.05410   11.17000    1.22950
    0.05560   11.17000    1.21230
    0.05720   11.33000    1.19560
    0.05890   11.02000    1.17830
    0.06070   10.76000    1.16100
    0.06250   10.76000    1.14400
    0.06440   10.96000    1.12730
    0.06640   10.65000    1.11020
    0.06850   10.24000    1.09280
    0.07070    9.40000    1.07600
    0.07360    9.70000    1.05880
    0.07540   10.08000    1.04190
    0.07790   10.03000    1.02470
    0.08060    9.70000    1.00740
    0.08340    9.40000    0.99060
    0.08630    8.99000    0.97320
    0.08950    9.26000    0.95620
    0.09270    9.10000    0.93930
    0.09620    9.29000    0.92240
    0.09990    9.10000    0.90510
    0.10380    9.10000    0.88790
    0.10790    8.69000    0.87090
    0.11220    8.48000    0.85380
    0.11680    8.40000    0.83680
    0.12180    8.40000    0.81980
    0.12700    8.17000    0.80250
    0.13260    8.17000    0.78550
    0.13860    7.76000    0.76850
    0.14500    7.65000    0.75130
    0.15170    8.07000    0.73430
    0.15910    7.55000    0.71720
    0.16690    7.75000    0.70220
    0.17540    6.93000    0.68300
    0.18450    7.14000    0.66600
    0.19430    6.93000    0.64890
    0.20500    7.45000    0.63180
    0.21650    6.30000    0.61470
    0.22910    6.30000    0.59770
    0.24280    6.15000    0.58060
    0.25770    6.93000    0.56320
    0.27410    5.90000    0.54640
    0.29210    6.10000    0.52930
    0.31190    5.17000    0.51230
    0.33370    5.27000    0.49520
    0.35800    6.00000    0.47810
    0.38500    5.17000    0.46110
    0.41520    5.45000    0.44420
    0.44910    4.65000    0.42690
    0.48730    4.96000    0.40980
    0.53070    5.00000    0.39270
    0.58000    4.45000    0.37560
    0.63660    4.76000    0.35860
    0.70190    4.14000    0.34150
    0.77770    4.65000    0.32440
    0.86630    4.14000    0.30740
    0.97140    5.00000    0.29050
    1.09600    4.20000    0.27320
    1.24800    4.40000    0.25610
    1.43200    5.30000    0.23900
    1.66110    4.14000    0.22200
    1.94900    4.03000    0.20490
    2.32000    3.90000    0.18780
    2.80800    3.70000    0.17070
    3.46600    3.30000    0.15370
    4.38700    4.00000    0.13660
    5.73000    2.10000    0.11950
ENDDATA            211
ENDSUBENT          231
SUBENT        30469006   20090312   20090724   20090720       3135
BIB                  3          7
REACTION   (25-MN-55(N,TOT),,SIG,,,DERIV)
            Thermal cross section obtained from formula derived
            from experimental values given in subentry 5
STATUS     (DEP,30469005)
            Dependent data obtained from total cross section
           measurement.
ERR-ANALYS (DATA-ERR) Nothing said about uncertainties
ENDBIB               7
NOCOMMON             0          0
DATA                 3          1
EN         DATA       DATA-ERR
EV         B          B
 2.5000E-02 1.5800E+01 4.0000E-01
ENDDATA              3
ENDSUBENT           15
SUBENT        30469007   20090312   20090724   20090720       3135
BIB                  3          6
REACTION   (25-MN-55(N,EL)25-MN-55,POT,SIG,,AV)
STATUS     (DEP,30469005)
            Dependent data obtained from total cross section
           measurement.  Data taken from Table 1 of 1977 Kiev Conf
           vol.2,p.232.
ERR-ANALYS (DATA-ERR) Nothing said about uncertainties
ENDBIB               6
COMMON               2          3
EN-MIN     EN-MAX
EV         EV
 2.4500E-03 5.7300E+00
ENDCOMMON            3
DATA                 2          1
DATA       DATA-ERR
B          B
 2.6000E+00 2.0000E-01
ENDDATA              3
ENDSUBENT           18
SUBENT        30469008   20090312   20090724   20090720       3135
BIB                  3          6
REACTION  1(25-MN-55(N,0),,EN)
          2(25-MN-55(N,EL),,WID/RED)
ANALYSIS   (MLA) Multi-level Breit-Wigner formula
STATUS     (TABLE) Data from 1977 Kiev Conf.Vol.2,p.232.
            Red.N-width at -78eV is given as 0.013eV in
            ATKE,27 (1976)118.
ENDBIB               6
NOCOMMON             0          0
DATA                 4          2
DATA      1DATA      2SPIN J     MOMENTUM L
EV         EV         NO-DIM     NO-DIM
-2.8300E+03 4.5600E+00 2.0000E+00 0.0000E+00
-7.8000E+01 1.4000E-01 3.0000E+00 0.0000E+00
ENDDATA              4
ENDSUBENT           15
ENDENTRY             8
