ENTRY            31650   20080823   20081028   20081023       3130
SUBENT        31650001   20080823   20081028   20081023       3130
BIB                 13         32
TITLE      Nuclear structure of 187W studied with (n,gamma)
           and (d, p) reactions
AUTHOR     (V.Bondarenko,I.Tomandl,H.-F.Wirth,J.Honzatko,
           A.M.Sukhovoj,L.A.Malov,L.I.Simonova,R.Hertenberger,
           T.von Egidy,J.Berzins)
INSTITUTE  (4LATULR,3CZRUJV,2GERMUN,2GERLMU,3CZRUJF,4ZZZDUB)
REFERENCE  (J,NP/A,811,28,2008)
           (J,NP/A,619,1,1997) preliminary results for levels
                               in 187W till 2.2 MeV
FACILITY   (REAC,3CZRUJF) the LWR-15 reactor at Rez near Prague.
SAMPLE     The enriched sample (99.8%) of about 1.1 g
METHOD     (GSPEC,COINC)
ANALYSIS   Two single spectra were measured with both detectors
           simultaneously, one in the energy range 0 - 2.35 MeV,
           and another between 0 and 5.9 MeV. The relative
           intensity of the 187W spectra was converted into
           absolute units using activation lines from the
           following  beta-decay to 187Re
INC-SOURCE (REAC) thermal neutrons from the neutron guide with
           the flux on the target position of about
           3 x 10**6 n/cm2/s at a reactor power of 8 MW.
DETECTOR   (HPGE) two HPGe detectors (25% detector with a
           resolution of 2 keV (FWHM) at 60Co lines and about 5
           keV at 5-6 MeV and a 20% detector with approximately
           the same resolution.) For both detectors the
           relative efficiency and energy calibration was made
           relative to the reaction 35Cl(n,gamma) and with the
           radioactive sources 152Eu and 133Ba.
STATUS     (TABLE) Data were received from Dr. V.Bondarenko
           (APRVD) Entry approved by Dr. V.Bondarenko
ADD-RES    Results from (d,p) reaction are included in Entry D0506
HISTORY    (20080823C)
ENDBIB              32
COMMON               1          3
EN
EV
  0.0253
ENDCOMMON            3
ENDSUBENT           39
SUBENT        31650002   20080823   20081028   20081023       3130
BIB                  3          9
REACTION   (74-W-186(N,G)74-W-187,,SPC,,SPA)  tbl.1
           Gamma energies are not corected for recoil
ERR-ANALYS (E-ERR) Uncertainty include statistical and
           systematical errors.
           (ERR-S) Statistical error is given.
FLAG       (1.) Only part of the total intensity is assigned
                to this decay mode.
           (3.) Observed in coincidences.
           (4.) Questionable line.
ENDBIB               9
NOCOMMON             0          0
DATA                 6        752
E          E-ERR      DATA       ERR-S      LVL-INI    FLAG
KEV        KEV        PC/INC     PC/INC     KEV        NO-DIM
      77.25       0.04      0.922      0.024       77.0
      98.47       0.16      0.035      0.004      303.0
     101.83       0.02      0.287      0.004      303.0
     116.29       0.47      0.019      0.004
     117.41       0.18      0.055      0.004
     118.73       0.09      0.067      0.003
     120.54       0.18      0.025      0.003
     124.23       0.03      0.418      0.006      201.0
     127.57       0.02      1.103      0.008      205.0
     128.92       0.12      0.157      0.007      432.0
     140.70       0.28      0.038      0.005      882.0
     143.12       0.09      0.070      0.006      884.0
     145.86       0.01      9.048      0.027      146.0
     148.96       0.04      0.316      0.008      350.0
     157.53       0.02      0.266      0.002      303.0
     162.74       0.26      0.017      0.002      364.0
     171.78       0.08      0.085      0.003      522.0
     193.69       0.17      0.047      0.003
     195.31       0.23      0.036      0.004
     201.56       0.01      3.021      0.008      201.0
     204.92       0.01      1.478      0.008      205.0
     215.83       0.21      0.026      0.003     1082.0
     218.86       0.13      0.053      0.004      741.0
     226.08       0.01      0.797      0.004      303.0
     227.45       0.09      0.114      0.004      432.0
     229.84       0.80      0.025      0.008     1502.0
     230.92       0.51      0.033      0.008      432.0
     253.62       0.03      0.267      0.004      331.0
     259.36       0.56      0.018      0.004
     260.77       0.27      0.028      0.004
     266.08       0.40      0.015      0.005     1082.0
     268.66       0.17      0.034      0.003     1135.0
     273.14       0.01      2.617      0.007      350.0
     276.25       0.10      0.126      0.006      640.0
     286.88       0.15      0.046      0.003      364.0
     290.06       0.01      0.588      0.004      640.0
     293.07       0.39      0.020      0.006
     294.95       0.13      0.054      0.005     1135.0
     297.48       0.48      0.015      0.007
     303.37       0.02      0.553      0.004      303.0
     310.48       0.27      0.026      0.004
     319.27       0.40      0.017      0.003
     330.99       0.07      0.159      0.004      741.0
     332.51       0.38      0.028      0.004
     348.34       0.62      0.013      0.007
     350.40       0.11      0.060      0.004      350.0
     355.02       0.03      0.344      0.004      432.0
     363.05       0.28      0.027      0.003     1272.0
     364.83       0.45      0.016      0.003     1217.0
     368.06       0.31      0.021      0.003     1347.0
     372.69       0.17      0.042      0.004
     376.86       0.02      0.431      0.004      741.0
     380.37       0.19      0.055      0.006     1272.0
     383.82       0.29      0.041      0.006     1692.0
     390.67       0.06      0.128      0.003      741.0
     397.61       0.34      0.024      0.004
     401.00       0.38      0.021      0.004     1217.0
     405.65       0.26      0.028      0.003     1272.0
     411.28       0.23      0.041      0.004      776.0
     419.87       0.18      0.045      0.004     1272.0
     423.99       0.14      0.385      0.028     1308.0
     424.95       0.14      0.036      0.029
     428.47       0.07      0.151      0.004      861.0
     432.46       0.52      0.021      0.006      432.0
     438.86       0.20      0.039      0.004      640.0
     446.60       0.15      0.063      0.005     1331.0
     449.64       0.16      0.064      0.004     1308.0
     451.61       0.34      0.031      0.005      884.0
     455.20       0.14      0.051      0.005     1347.0
     465.78       0.11      0.116      0.004      816.0
     467.57       0.31      0.046      0.004     1331.0
     469.37       0.29      0.044      0.005     1272.0
     474.07       0.02      0.545      0.004      884.0
     489.39       0.10      0.092      0.004     1373.0
     492.31       0.27      0.034      0.004     1384.0
     495.19       0.07      0.140      0.004     1347.0
     500.07       0.04      0.438      0.007      803.0
     517.46       0.26      0.034      0.004     1384.0
     522.21       0.39      0.022      0.004     1502.0
     528.15       0.05      0.260      0.005      960.0
     531.33       0.03      0.499      0.006     1347.0
     533.69       0.08      0.156      0.007      884.0
     537.00       0.24      0.079      0.007
     538.52       0.32      0.120      0.012
     539.73       0.22      0.164      0.012      972.0
     541.32       0.08      0.195      0.005      892.0
     545.96       0.80      0.115      0.030     1308.0
     547.35       0.77      0.189      0.035     1432.0
     548.68       0.53      0.194      0.033     1331.0
     557.25       0.02      1.238      0.009      762.0
     559.54       0.27      0.075      0.009      863.0
     563.51       0.20      0.058      0.007      640.0
     565.16       0.29      0.067      0.006     1347.0
     567.13       0.15      0.111      0.005     1308.0
     569.16       0.25      0.078      0.006
     570.80       0.49      0.038      0.006
     577.39       0.02      1.954      0.011      782.0
     588.75       0.06      0.172      0.007      892.0
     590.71       0.45      0.041      0.006
     592.57       0.58      0.032      0.009     1502.0
     598.54       0.08      0.161      0.006      803.0
     601.90       0.12      0.116      0.007     1384.0
     605.64       0.12      0.102      0.005      909.0
     608.89       0.39      0.017      0.006
     611.31       0.03      0.619      0.007      816.0
     612.88       0.19      0.103      0.007     1944.0
     616.40       0.09      0.649      0.022      762.0
     620.67       2.91      0.014      0.024
     624.23       0.67      0.070      0.018
     628.97       0.06      0.236      0.006      979.0
     632.56       0.35      0.034      0.008     1415.0
     635.28       0.14      0.255      0.013      840.0
     636.52       0.38      0.095      0.013      782.0
     640.23       0.22      0.135      0.024      640.0
     640.88       0.37      0.077      0.025
     647.44       0.04      0.212      0.004      852.0
     650.70       0.18      0.049      0.004      852.0
     655.90       0.06      0.458      0.009      861.0
     657.52       0.04      0.820      0.009      803.0
     659.20       0.12      0.200      0.008      861.0
     661.65       0.07      0.267      0.009      863.0
     663.68       0.73      0.144      0.049      741.0
     664.73       2.16      0.048      0.054
     670.41       0.04      0.477      0.008      816.0
     676.82       0.10      0.092      0.005      882.0
     680.15       0.28      0.033      0.006      882.0
     690.42       0.69      0.018      0.007      892.0
     694.38       0.03      0.508      0.006      840.0
     697.99       0.23      0.054      0.005
     703.67       0.35      0.072      0.008
     705.49       1.12      0.072      0.030
     706.69       0.21      0.384      0.031      852.0
     709.32       0.29      0.070      0.010      915.0
     713.24       1.12      0.063      0.028      915.0
     714.68       2.88      0.053      0.088     1018.0
     717.40       0.43      0.045      0.011      863.0
     720.25       0.27      0.040      0.005     1937.0
     725.99       0.04      0.219      0.005      803.0
     729.40       0.40      0.038      0.005     1613.0
     730.96       0.42      0.036      0.005     1613.0
     738.95       0.05      0.388      0.007      816.0
     746.07       0.17      0.509      0.050      892.0
     748.47       0.28      0.064      0.007     1565.0
     755.68       0.59      0.024      0.007      960.0
     759.01       0.19      0.075      0.006      960.0
     762.87       0.04      0.448      0.007      840.0
     766.81       0.34      0.033      0.005      872.0
     770.60       0.32      0.098      0.012      872.0
     774.95       0.10      0.355      0.012      852.0
     778.25       0.65      0.033      0.012      979.0
     782.25       0.06      1.359      0.030      782.0
     783.53       0.41      0.183      0.027      861.0
     785.84       0.16      0.165      0.007      863.0
     787.69       0.18      0.250      0.011      989.0
     789.23       0.07      0.536      0.012      867.0
     796.66       0.30      0.040      0.005
     803.35       0.07      0.285      0.007      803.0
     807.70       0.34      0.053      0.006     1692.0
     813.78       0.30      0.299      0.043     1018.0
     814.87       0.39      0.253      0.040      892.0
     816.31       0.04      0.893      0.010      816.0
     831.69       0.06      0.483      0.010      909.0
     833.57       0.24      0.268      0.018      979.0
     834.96       0.71      0.057      0.018     1267.0
     837.33       0.16      0.134      0.007      915.0
     840.20       0.02      1.555      0.010      840.0
     846.68       0.69      0.021      0.006
     852.27       0.06      0.318      0.006      852.0
     860.85       0.14      0.197      0.015      861.0
     862.39       1.38      0.132      0.104     1997.0
     863.42       1.10      0.241      0.102      863.0
     865.45       2.03      0.125      0.189     1706.0
     866.59       0.20      0.518      0.051      867.0
     872.70       0.04      0.369      0.005     1018.0
     877.42       0.06      0.328      0.007     1082.0
     879.60       0.14      0.021      0.006     1974.0
     881.63       0.05      0.443      0.006      882.0
     889.40       0.07      0.261      0.006     1094.0
     891.89       0.02      0.934      0.006      892.0
     894.59       0.10      0.164      0.007      972.0
     902.59       0.61      0.019      0.004
     908.98       0.34      0.962      0.195      909.0
     909.98       6.22      0.051      0.199
     911.87       0.23      0.185      0.021      989.0
     914.07       0.59      0.191      0.064     1217.0
     915.08       0.94      0.128      0.065      915.0
     921.97       0.39      0.033      0.005
     928.84       1.25      0.029      0.013
     930.22       0.38      0.097      0.012     1135.0
     933.37       0.42      0.123      0.019     1135.0
     934.65       2.23      0.024      0.019
     936.56       0.14      0.125      0.006     1082.0
     941.17       0.13      0.122      0.006     1018.0
     945.15       0.81      0.017      0.009
     947.94       0.84      0.015      0.006     1937.0
     954.60       0.99      0.025      0.007     1771.0
     956.32       0.87      0.032      0.009     1307.0
     960.47       0.18      0.078      0.005      960.0
     964.57       0.54      0.024      0.007     1937.0
     967.61       0.60      0.020      0.006
     979.39       0.07      0.198      0.005      979.0
     989.18       0.09      0.353      0.009      989.0
     990.75       1.20      0.105      0.052
     994.41       0.87      0.036      0.018
     996.29       0.56      0.037      0.010
     999.06       0.68      0.036      0.021
    1001.41       0.22      0.081      0.014
    1004.52       1.04      0.018      0.010     1308.0
    1008.67       0.14      0.099      0.007
    1012.29       0.04      0.433      0.006     1217.0
    1014.62       0.35      0.062      0.005     1217.0
    1016.60       0.32      0.092      0.006     1094.0
    1018.41       0.08      0.303      0.007     1018.0
    1022.68       0.92      0.025      0.012
    1024.96       0.29      0.070      0.008     1997.0
    1027.34       0.10      0.196      0.007     1331.0
    1030.66       0.42      0.038      0.017
    1033.85       0.15      0.108      0.014     1384.0
    1036.78       0.34      0.052      0.010
    1039.15       0.48      0.039      0.007
    1041.47       0.41      0.066      0.007     1956.0
    1043.26       1.09      0.023      0.007
    1051.00       0.25      0.052      0.004     1692.0
    1057.88       0.05      0.300      0.005     1135.0
    1060.86       0.14      0.106      0.007     1138.0
    1064.63       0.75      0.044      0.009
    1066.45       0.98      0.086      0.025     1267.0
    1067.82       0.22      0.353      0.026     1272.0
    1071.24       0.03      0.686      0.007     1217.0
    1078.91       0.14      0.132      0.006
    1082.18       0.19      0.604      0.044     1082.0
    1083.45       1.14      0.099      0.045     1845.0
    1086.07       0.08      0.240      0.007
    1089.42       0.55      0.031      0.008     1905.0
    1094.19       0.08      0.193      0.005     1094.0
    1096.88       0.54      0.027      0.005     1981.0
    1102.93       0.22      0.066      0.006     1308.0
    1105.24       0.15      0.108      0.005     1997.0
    1107.74       0.06      0.304      0.006     1313.0
    1111.42       0.46      0.031      0.008     1313.0
    1115.29       0.17      0.046      0.005     1932.0
    1120.44       0.33      0.043      0.007     1937.0
    1123.52       1.86      0.036      0.023     1906.0
    1124.91       1.78      0.050      0.020     1887.0
    1126.50       0.42      0.110      0.011     1272.0
    1128.63       0.71      0.036      0.009
    1130.65       0.61      0.046      0.013     1997.0
    1133.87       0.90      0.092      0.033     1974.0
    1135.18       0.35      0.249      0.030     1135.0
    1138.38       0.44      0.098      0.012     1138.0
    1139.94       0.17      0.272      0.012     1217.0
    1142.07       0.49      0.041      0.006     1347.0
    1145.47       2.59      0.020      0.015
    1146.99       1.31      0.039      0.015     1950.0
    1151.73       0.26      0.092      0.009
    1153.92       0.28      0.078      0.008     2064.0
    1156.50       1.00      0.067      0.024     1997.0
    1157.91       1.21      0.059      0.023     1974.0
    1161.98       0.34      0.046      0.005     1308.0
    1167.80       4.98      0.022      0.040
    1169.12       0.49      0.225      0.039     1932.0
    1179.26       0.43      0.110      0.013     1384.0
    1180.87       1.11      0.063      0.012     1997.0
    1182.55       1.45      0.034      0.010
    1184.57       0.25      0.108      0.007     1331.0
    1188.37       1.00      0.016      0.008
    1193.79       0.73      0.022      0.005
    1198.95       0.38      0.057      0.007     1502.0
    1201.23       0.17      0.041      0.006     1347.0
    1210.81       0.35      0.064      0.008     1974.0
    1216.00       0.35      0.064      0.007     1649.0
    1220.75       1.15      0.023      0.011
    1222.97       0.75      0.028      0.007
    1228.23       1.78      0.055      0.038
    1229.58       1.51      0.081      0.033
    1231.22       0.55      0.082      0.011     1308.0
    1235.96       0.65      0.034      0.012     1313.0
    1238.72       0.28      0.068      0.008     1384.0
    1241.87       0.28      0.066      0.007
    1250.21       0.74      0.033      0.006
    1252.47       0.76      0.036      0.006
    1254.85       0.37      0.062      0.006
    1260.64       0.50      0.034      0.006
    1265.85       0.65      0.035      0.010
    1268.97       0.39      0.055      0.007
    1272.18       0.11      0.195      0.007     1272.0
    1280.65       0.35      0.053      0.005
    1283.19       0.31      0.058      0.005     1487.0
    1286.91       0.18      0.088      0.006     1719.0
    1296.73       0.13      0.189      0.006     1502.0
    1298.84       0.62      0.039      0.006
    1304.09       0.73      0.024      0.006
    1307.02       0.39      0.054      0.006     1307.0
    1309.34       0.60      0.039      0.008
    1313.21       0.68      0.046      0.008     1313.0
    1315.18       1.48      0.029      0.008
    1317.08       1.29      0.025      0.008
    1321.34       1.09      0.025      0.010
    1329.44       0.18      0.161      0.009     1534.0
    1336.15       0.95      0.027      0.010
    1341.00       0.19      0.123      0.009     1546.0
    1345.12       0.60      0.065      0.010     1649.0
    1347.04       0.31      0.122      0.009     1347.0
    1356.09       0.25      0.077      0.007     1502.0
    1359.95       0.09      0.213      0.006     1565.0
    1366.13       1.78      0.015      0.010        0.0
    1371.56       0.98      0.063      0.018     1675.0
    1373.54       0.59      0.063      0.014     1374.0
    1375.99       1.43      0.022      0.010
    1378.08       0.92      0.031      0.008
    1384.07       0.07      0.276      0.006     1589.0
    1389.60       0.68      0.033      0.008     1692.0
    1400.05       0.06      0.317      0.006     1546.0
    1403.37       0.16      0.120      0.007     1549.0
    1407.92       0.53      0.130      0.018     1613.0
    1409.71       0.76      0.062      0.017     1487.0
    1414.45       0.06      0.496      0.009     1619.0
    1419.91       0.64      0.029      0.012
    1423.70       0.32      0.072      0.008     1727.0
    1426.18       0.57      0.044      0.007     1729.0
    1428.75       0.41      0.056      0.008
    1433.52       0.34      0.058      0.007
    1436.59       0.47      0.073      0.008
    1438.56       0.32      0.110      0.008     1644.0
    1449.38       0.63      0.254      0.055     1595.0
    1450.86       0.50      0.329      0.052     1451.0
    1454.13       0.31      0.098      0.011
    1458.30       0.33      0.104      0.014     1663.0
    1460.85       0.28      0.021      0.010
    1466.54       0.18      0.111      0.007     1613.0
    1471.86       0.34      0.060      0.006     1675.0
    1477.19       0.49      0.044      0.007
    1485.88       0.62      0.084      0.013     2352.0
    1487.67       0.36      0.145      0.013     1487.0
    1498.24       0.23      0.083      0.007     1644.0
    1501.83       0.30      0.074      0.008     1502.0
    1505.94       0.55      0.041      0.011
    1511.38       0.39      0.057      0.006
    1514.17       0.39      0.032      0.006     1719.0
    1517.38       0.52      0.041      0.007     1663.0
    1521.97       4.59      0.055      0.144     1727.0
    1523.13       8.50      0.032      0.161
    1524.51       1.06      0.164      0.073     1729.0
    1533.43       0.76      0.054      0.008     1534.0
    1535.69       0.21      0.129      0.008     1613.0
    1542.35       0.61      0.033      0.007     1619.0
    1546.14       0.26      0.106      0.007     1546.0
    1548.52       0.78      0.038      0.008
    1554.58       1.19      0.082      0.031     1760.0
    1559.86       1.07      0.053      0.014
    1561.72       0.52      0.122      0.013
    1564.08       0.76      0.052      0.017     1997.0
    1565.83       0.72      0.093      0.018     1771.0
    1569.63       0.34      0.049      0.007
    1572.68       0.53      0.042      0.007
    1577.57       3.28      0.011      0.013
    1579.98       3.68      0.048      0.063
    1581.43       1.94      0.072      0.064     1727.0
    1583.70       0.61      0.082      0.010     1729.0
    1586.05       0.51      0.090      0.008     1663.0
    1588.46       0.65      0.051      0.008     1589.0
    1595.38       0.33      0.053      0.009     1675.0
    1599.76       0.44      0.079      0.010
    1602.13       0.57      0.072      0.011
    1604.67       3.52      0.011      0.015
    1609.47       0.68      0.048      0.010
    1612.02       1.11      0.078      0.022     1816.0
    1613.70       0.62      0.132      0.024     1760.0
    1619.09       0.21      0.113      0.008     1619.0
    1622.69       0.49      0.047      0.006
    1628.29       0.21      0.109      0.007     1932.0
    1633.79       0.26      0.094      0.007     1937.0
    1639.31       1.14      0.064      0.020
    1641.07       0.90      0.089      0.018     1845.0
    1643.54       1.22      0.026      0.006     1644.0
    1646.79       0.20      0.118      0.007     1950.0
    1652.69       0.21      0.116      0.007     1956.0
    1662.42       0.28      0.080      0.007
    1667.67       0.67      0.016      0.007
    1670.48       0.80      0.035      0.010
    1675.74       2.28      0.046      0.033
    1677.38       0.88      0.123      0.031     1981.0
    1680.65       0.67      0.037      0.009
    1686.40       0.19      0.142      0.009     1891.0
    1691.69       0.24      0.115      0.008     1692.0
    1697.25       0.48      0.051      0.008
    1700.77       0.13      0.187      0.007     1906.0
    1705.92       0.26      0.088      0.009     1706.0
    1710.81       2.12      0.057      0.036     1711.0
    1712.49       0.82      0.063      0.033     1858.0
    1716.65       0.49      0.010      0.007
    1726.47       0.25      0.151      0.009
    1729.13       0.34      0.130      0.010     1729.0
    1731.87       1.24      0.033      0.013     1937.0
    1737.55       0.49      0.008      0.006
    1741.33       0.77      0.031      0.005     2045.0
    1744.83       0.68      0.035      0.006
    1754.43       0.67      0.034      0.006
    1759.76       0.17      0.141      0.006     1906.0
    1771.06       0.43      0.077      0.009     1771.0
    1784.30       0.49      0.092      0.010     1931.0
    1786.62       0.59      0.077      0.009     1933.0
    1789.71       0.73      0.053      0.008
    1792.28       0.21      0.228      0.009     1997.0
    1794.80       0.87      0.046      0.009
    1802.50       0.40      0.072      0.008
    1807.71       0.67      0.083      0.014
    1810.05       0.44      0.091      0.012     1887.0
    1812.98       0.36      0.101      0.009
    1816.25       0.44      0.071      0.008
    1821.42       0.65      0.042      0.010
    1827.75       0.17      0.167      0.008     1974.0
    1841.52       0.57      0.048      0.012
    1845.57       1.06      0.028      0.019     1845.0
    1850.36       0.52      0.050      0.008
    1854.42       0.64      0.042      0.009
    1866.08       0.54      0.059      0.008
    1869.02       0.44      0.070      0.007
    1873.36       0.68      0.037      0.008     1950.0
    1879.43       0.33      0.090      0.011     1956.0
    1882.88       0.83      0.061      0.011
    1885.16       0.41      0.133      0.011
    1888.12       0.34      0.056      0.010     1887.0
    1891.30       0.55      0.062      0.013     1891.0
    1896.99       0.30      0.124      0.008     1974.0
    1900.11       0.83      0.045      0.009
    1905.63       0.28      0.123      0.014     1906.0
    1909.33       0.21      0.146      0.008
    1915.77       1.05      0.044      0.022
    1918.74       0.62      0.095      0.015
    1921.02       0.33      0.134      0.014     1997.0
    1924.76       0.18      0.159      0.010     2071.0
    1932.33       0.43      0.063      0.007     1932.0
    1937.73       0.14      0.193      0.007
    1945.50       1.61      0.076      0.060     2150.0
    1946.72       2.38      0.053      0.058
    1956.34       0.41      0.091      0.011     1956.0
    1964.12       0.83      0.062      0.010
    1966.71       0.58      0.090      0.010     2045.0
    1974.18       0.31      0.057      0.008     1974.0
    1977.29       0.48      0.073      0.007
    1980.82       0.35      0.096      0.007     1981.0
    1984.06       0.55      0.021      0.009
    1989.06       0.84      0.052      0.014
    1997.48       0.31      0.076      0.008     1997.0
     2001.1        0.8      0.040      0.009
     2008.6        0.3      0.035      0.014
     2013.3        0.9      0.033      0.014      2090.
    2018.58       0.21      0.042      0.006      2322.         1.
    2023.33       0.25      0.064      0.006      2169.         1.
    2027.19       0.20      0.152      0.019      2233.         1.
     2029.8        0.4      0.068      0.011
    2033.87       0.25      0.063      0.007
    2037.00       0.12      0.176      0.013      2242.
     2041.8        0.9      0.026      0.008
    2044.89       0.17      0.120      0.016      2045.         1.
     2048.4        1.3      0.027      0.011      2124.
     2055.0        1.0      0.027      0.011      2260.
     2061.8        0.7      0.101      0.028      2208.         1.
     2063.5        0.8      0.087      0.027      2142.         1.
     2071.8        0.3      0.079      0.007      2276.
     2075.1        0.4      0.092      0.007
     2076.8        0.7      0.088      0.010      2154.         1.
     2079.2        0.5      0.070      0.007
    2082.59       0.12      0.143      0.013      2229.         1.
     2089.2        0.4      0.178      0.066      2293.         1.
     2091.5        0.6      0.185      0.062      2090.
    2095.76       0.12      0.170      0.018      2242.
    2100.23       0.16      0.094      0.014      2306.         1.
     2108.1        0.7      0.083      0.020      2411.         1.
     2110.2        0.7      0.074      0.018      2316.         1.
    2117.61       0.17      0.089      0.007      2118.         1.
    2124.89       0.10      0.228      0.019      5467.
    2128.76       0.20      0.077      0.007      2273.         1.
     2134.1        0.6      0.044      0.009      2282.         1.
    2137.34       0.26      0.134      0.012      2283.         1.
     2139.8        0.4      0.119      0.012      2139.
     2147.3        0.6      0.054      0.025      2352.         1.
     2151.2        0.3      0.146      0.012      2229.         1.
     2153.7        0.6      0.053      0.012      2153.         1.
     2157.7        0.4      0.097      0.009      2462.         1.
     2160.4        0.5      0.071      0.009      2306.         1.
    2168.60       0.15      0.071      0.012      2169.         1.
     2172.9        0.4      0.059      0.009      2477.         1.
    2176.18       0.22      0.089      0.018      2381.         1.
    2181.44       0.13      0.131      0.012      2484.         1.
     2194.8        0.3      0.073      0.007      2195.         1.
    2198.35       0.13      0.153      0.008      2198.
     2203.8        0.3      0.015      0.008      2282.
    2210.87       0.12      0.112      0.023      2356.         1.
     2228.9        0.3      0.119      0.016      2434.         1.
     2239.5        0.4      0.061      0.012      2384.         1.
    2242.75       0.15      0.204      0.013      2447.         1.
    2248.88       0.16      0.126      0.010      2553.         1.
    2252.64       0.22      0.105      0.010
     2257.7        0.3      0.064      0.008      2258.
     2262.2        0.7      0.021      0.008
    2274.13       0.19      0.118      0.016      2273.         1.
     2276.4        1.1      0.056      0.012      2276.         1.
    2283.93       0.14      0.121      0.026      2487.         1.
     2290.1        0.5      0.173      0.030      5467.
     2291.7        0.6      0.148      0.038      2497.         1.
     2295.3        0.6      0.086      0.016      5467.         1.
     2298.2        0.6      0.073      0.013      2601.         1.
     2301.6        0.7      0.047      0.011      2302.         1.
    2308.18       0.22      0.055      0.012
     2316.2        0.3      0.065      0.014      2316.         1.
    2322.03       0.08      0.335      0.015      5467.         1.
     2326.3        0.4      0.051      0.011
     2330.4        0.5      0.037      0.015
     2333.5        1.3      0.048      0.017      2411.
     2343.6        0.6      0.072      0.012      3145.         1.
     2346.3        0.3      0.153      0.013      2492.         1.
     2349.6        1.7      0.149      0.013      2654.         1.
     2354.8        0.6      0.057      0.013      3342.         1.
     2361.8        0.3      0.069      0.011      2565.         1.
     2368.8        0.6      0.062      0.028      2514.         1.
     2371.4        1.3      0.037      0.028      2370.
     2377.4        0.4      0.049      0.016      2583.         1.
     2388.6        0.3      0.047      0.007      2534.
     2394.8        0.5      0.039      0.015      2471.
     2397.7        0.8      0.041      0.022
     2400.4        0.8      0.011      0.006
    2408.71       0.17      0.096      0.011      2613.         1.
     2414.9        0.3      0.072      0.008      2415.         1.
     2419.6        0.3      0.143      0.014      2624.         1.
    2422.63       0.18      0.178      0.014      2628.         1.
    2431.45       0.13      0.257      0.011      2637.         1.
    2442.71       0.18      0.088      0.011      2646.         1.
     2451.7        0.3      0.106      0.011      2528.         1.
     2455.8        0.5      0.058      0.012      2532.         1.
     2462.5        0.4      0.011      0.006      3342.
     2472.2        0.6      0.190      0.063      2618.
     2475.7        0.6      0.042      0.012      3342.         1.
    2481.58       0.22      0.245      0.023      2628.         1.
     2484.3        0.3      0.158      0.023      2484.         1.
     2492.6        0.6      0.068      0.015      2492.         1.
     2495.4        0.4      0.110      0.017
     2504.3        0.4      0.064      0.011
     2508.8        0.3      0.132      0.021
    2511.74       0.24      0.104      0.020      2511.         1.
     2515.5        0.4      0.076      0.011      2514.         1.
    2520.38       0.18      0.135      0.012      2726.
    2528.73       0.20      0.061      0.010
    2537.22       0.21      0.228      0.019      5467.
    2553.28       0.18      0.202      0.014
    2556.94       0.14      0.259      0.013      5467.
    2563.63       0.24      0.086      0.010      2565.         1.
      2570.        0.4      0.051      0.011      5467.         1.
    2577.75       0.24      0.078      0.019
    2584.56       0.07      0.400      0.013      5467.
    2589.95       0.15      0.124      0.009      2589.         1.
     2596.2        0.4      0.022      0.006      5467.         3.
    2601.75       0.11      0.185      0.007      5467.
    2606.09       0.16      0.070      0.006      2910.         1.
    2617.75       0.23      0.179      0.016      2618.
     2622.1        0.3      0.036      0.006      5467.         3.
     2627.1        0.8      0.036      0.014      2628.
     2629.5        0.3      0.082      0.016      5467.
     2633.2        0.4      0.041      0.008      5467.
    2635.99       0.22      0.086      0.008
     2643.8        0.5      0.041      0.010
     2646.5        0.8      0.088      0.025      5467.
     2650.4        0.6      0.018      0.008
     2654.5        0.3      0.035      0.007
    2661.05       0.19      0.087      0.009      5467.
     2670.9        0.5      0.036      0.013      5467.
     2677.0        0.6      0.088      0.033      5467.
     2682.6        1.0      0.074      0.020
     2686.1        0.4      0.113      0.011      5467.
    2689.80       0.18      0.165      0.012      2690.         1.
     2696.2        0.8      0.067      0.021
     2699.2        1.1      0.046      0.014
    2704.57       0.22      0.122      0.012      5467.
     2708.5        1.3      0.288      0.011      5467.
    2730.08       0.22      0.076      0.032      5467.
     2735.5        0.7      0.084      0.020      2736.         1.
    2738.68       0.17      0.304      0.020      5467.
     2740.9        0.8      0.084      0.030
    2744.95       0.19      0.135      0.011      5467.
     2749.8        0.3      0.120      0.033      5467.
     2752.3        0.4      0.046      0.034      5467.
     2757.7        0.4      0.080      0.014
    2760.51       0.09      0.266      0.009      5467.
    2769.47       0.14      0.131      0.010      5467.
     2777.8        0.3      0.083      0.010      5467.
     2781.6        0.3      0.043      0.009      5467.
     2784.9        0.5      0.112      0.032
    2786.44       0.10      0.217      0.009      5467.
     2796.5        0.3      0.075      0.013
     2802.3        0.5      0.050      0.013
    2805.79       0.20      0.157      0.014      5467.
     2813.6        0.3      0.097      0.012      5467.
     2816.2        0.3      0.083      0.018
     2819.5        0.3      0.032      0.010      5467.
     2830.4        0.6      0.118      0.044
     2831.7        0.8      0.059      0.028      2910.
    2839.22       0.18      0.163      0.011      5467.
    2842.81       0.09      0.317      0.010      5467.
    2849.04       0.05      0.359      0.008      5467.
    2855.47       0.23      0.030      0.010
     2860.9        0.5      0.052      0.011      5467.
     2864.8        0.6      0.033      0.011
     2867.1        0.7      0.026      0.010      5467.
     2873.6        0.6      0.045      0.016
     2877.6        0.3      0.259      0.031      5467.
    2882.76       0.15      0.089      0.010      5467.
     2893.7        0.8      0.056      0.025                    3.
     2896.1        1.2      0.055      0.020      5467.         3.
    2902.35       0.19      0.224      0.012      5467.         1.
     2906.5        0.5      0.070      0.008      5467.
     2910.5        0.3      0.189      0.027      5467.
     2913.3        0.4      0.170      0.028      5467.
     2921.0        0.3      0.058      0.008      5467.
     2932.0        0.7      0.136      0.061
     2934.5        1.4      0.084      0.041      5467.
    2939.35       0.17      0.227      0.013      3145.         1.
    2952.49       0.21      0.173      0.013      5467.
     2956.2        0.8      0.132      0.039      5467.         1.
     2963.3        0.4      0.074      0.016      5467.
     2971.4        0.7      0.067      0.016      3176.         1.
     2974.8        0.3      0.122      0.016      5467.         1.
     2980.8        1.1      0.067                 5467.         4.
     2986.9        1.6      0.040      0.013      5467.
     2996.3        0.4      0.243      0.030      5467.
    3005.89       0.16      0.156      0.019      5467.
     3009.8        0.6      0.060      0.025      5467.
    3018.63       0.18      0.062      0.012      5467.
     3028.7        0.9      0.046      0.014      5467.
     3032.6        0.9      0.047      0.016      5467.
    3040.00       0.15      0.143      0.010      5467.
     3048.5        0.9      0.080      0.033
    3051.28       0.24      0.160      0.031      5467.
    3055.49       0.09      0.287      0.008      5467.
     3073.5        0.5      0.038      0.007      5467.
     3085.4        0.6      0.035      0.009      5467.
     3092.4        3.0      0.019                 5467.         4.
     3095.7        1.1      0.122      0.106      5467.
     3097.8        0.6      0.065                 5467.         4.
     3109.5        0.4      0.035      0.011      5467.
    3114.91       0.11      0.263      0.012      5467.
     3122.4        0.9      0.132      0.067      5467.
     3145.2        0.4      0.051      0.012      3145.         1.
    3151.39       0.19      0.099      0.009      5467.
    3160.38       0.16      0.118      0.010      5467.
    3173.69       0.25      0.066      0.007      5467.
     3179.3        0.5      0.023      0.006      5467.         3.
    3183.89       0.17      0.073      0.006      5467.
    3191.11       0.18      0.317      0.021      5467.
     3194.1        0.5      0.107      0.021      5467.         1.
     3200.2        0.5      0.019      0.011      5467.         3.
    3206.78       0.08      0.274      0.007      5467.
    3225.44       0.23      0.664      0.062      5467.
     3234.4        0.3      0.138      0.013      5467.
    3238.54       0.24      0.144      0.014      5467.
     3258.7        0.4      0.051      0.008      5467.
     3263.7        0.3      0.029      0.013      5467.
     3267.9        1.2      0.070      0.042      5467.
    3286.47       0.26      0.064      0.011      5467.
     3293.0        1.0      0.013      0.009      5467.         3.
     3298.0        0.8      0.133      0.054      5467.
     3313.6        0.3      0.163      0.016      5467.
     3316.8        0.4      0.117      0.016      5467.
     3325.8        0.9      0.059      0.022      5467.
     3328.8        0.3      0.174      0.020      5467.
    3342.65       0.21      0.095      0.012      5467.         1.
    3349.69       0.11      0.141      0.011      5467.
    3376.70       0.19      0.326      0.070      5467.
     3383.3        0.7      0.031      0.022      5467.         3.
     3395.5        1.1      0.022      0.008      5467.
     3404.7        0.7      0.032      0.013      5467.
     3408.3        1.0      0.016                 5467.         4.
     3422.9        0.4      0.217      0.010      5467.
     3437.5        1.0      0.019      0.010      5467.
    3443.37       0.17      0.102      0.007      5467.
    3465.60       0.17      0.090      0.009      5467.
    3469.79       0.05      1.200      0.010      5467.
    3486.69       0.19      0.166      0.012      5467.
    3493.17       0.08      0.521      0.013      5467.
     3505.3        0.3      0.014      0.008      5467.
    3510.66       0.06      0.420      0.009      5467.
     3516.8        0.4      0.054      0.012      5467.
     3524.2        0.8      0.025      0.014      5467.         3.
    3530.68       0.24      0.352      0.070      5467.
    3535.19       0.17      0.672      0.044      5467.
    3561.22       0.06      0.673      0.009      5467.
     3575.7        0.3      0.189      0.012      5467.
     3579.6        0.6      0.044      0.012      5467.
    3608.66       0.22      0.082      0.015      5467.
     3621.7        0.3      0.084      0.009      5467.
     3642.5        0.4      0.032      0.008      5467.
     3650.4        1.8      0.036      0.024      5467.
    3696.04       0.24      0.078      0.007      5467.
     3708.0        0.5      0.039      0.007      5467.
     3734.0        0.7      0.064      0.020      5467.
    3738.32       0.16      0.183      0.100      5467.
     3740.2        0.4      0.439      0.093      5467.
    3747.67       0.22      0.116      0.012      5467.
     3756.2        0.8      0.031      0.009      5467.         3.
    3761.07       0.13      0.183      0.008      5467.
    3775.14       0.09      0.220      0.007      5467.
    3803.69       0.11      0.187      0.007      5467.
     3818.8        1.1      0.034      0.012      5467.         3.
     3823.5        0.6      0.081      0.016      5467.
    3847.68       0.06      0.546      0.009      5467.
    3854.05       0.23      0.095      0.010      5467.
     3871.9        0.7      0.015      0.005      5467.         3.
     3876.9        0.4      0.046      0.006      5467.
    3902.12       0.09      0.237      0.007      5467.
     3917.4        0.5      0.084      0.013      5467.
    3921.05       0.20      0.222      0.014      5467.
     3933.1        0.9      0.046      0.012      5467.
    3965.27       0.12      0.332      0.016      5467.
     3981.0        2.3      0.013                 5467.         4.
    4016.08       0.11      0.198      0.007      5467.
     4051.3        0.5      0.026      0.005      5467.
    4082.61       0.07      0.349      0.007      5467.
     4094.0        0.5      0.027      0.005      5467.         3.
    4119.10       0.16      0.609      0.030      5467.
     4135.3        0.4      0.103      0.011      5467.
     4154.0        0.4      0.092      0.010      5467.
    4158.67       0.11      0.369      0.011      5467.
     4194.4        0.5      0.012      0.006      5467.         3.
    4249.72       0.12      1.185      0.050      5467.
    4331.69       0.07      0.414      0.009      5467.
     4372.5        0.4      0.074      0.010      5467.
     4379.7        0.6      0.047      0.007      5467.         3.
    4384.54       0.06      0.654      0.010      5467.
    4448.27       0.11      0.546      0.016      5467.
     4470.3        0.6      0.033      0.010      5467.         4.
    4477.64       0.13      0.159      0.008      5467.
    4487.20       0.12      0.178      0.007      5467.
     4494.1        2.0      0.007                 5467.         4.
     4506.3        1.7      0.005                 5467.         4.
     4551.6        2.7      0.007                 5467.         4.
    4557.88       0.10      0.265      0.008      5467.
    4574.92       0.05      0.923      0.011      5467.
     4585.7        0.6      0.013      0.005      5467.         3.
     4602.6        1.5      0.061      0.029      5467.
     4606.6        1.1      0.040      0.015      5467.         3.
     4615.3        0.7      0.013      0.003      5467.         3.
    4626.57       0.05      1.470      0.017      5467.
    4650.54       0.06      0.518      0.008      5467.
     4662.8        0.3      0.058      0.007      5467.
    4684.53       0.05      1.750      0.016      5467.
     4704.8        0.4      0.023      0.003      5467.         3.
     4826.0        1.0      0.012      0.003      5467.         3.
     5163.5        0.4      0.034      0.005      5467.         3.
    5261.81       0.07      5.830      0.065      5467.
    5320.84       0.07      4.118      0.049      5467.
    5388.85       0.26      0.036      0.003      5467.
    5466.63       0.09      0.256      0.004      5467.
ENDDATA            754
ENDSUBENT          768
SUBENT        31650003   20080823   20081028   20081023       3130
BIB                  3          6
REACTION   (74-W-186(N,G)74-W-187,,SIG,,SPA) neutron radiative
                      capture cross section for 2200 m/s neutrons
ANALYSIS   For the extraction of the thermal cross section
           21 most reliable secondary and 28 primary gamma-rays
           were selected.
ERR-ANALYS (DATA-ERR) Nothing said about uncertainty
ENDBIB               6
NOCOMMON             0          0
DATA                 2          1
DATA       DATA-ERR
B          B
  35.9        1.1
ENDDATA              3
ENDSUBENT           14
ENDENTRY             3
