ENTRY            F0700   20050621   20050831                  F022
SUBENT        F0700001   20050621   20050831                  F022
BIB                 15         41
TITLE      Measurements of the elastic scattering cross-section of
           alpha particles of the heavy and medium weight nuclei
           in the vicinity of the Coulomb barrier in a wide
           angular range.
AUTHOR     (W.Karcz,I.Kluska,Z.Sanok,J.Szmider,J.Szymakowski,
           S.Wiktor,R.Wolski)
INSTITUTE  (3POLITJ)
REFERENCE  (J,APP/B,3,525,1972)
FACILITY   (CYCLO)
INC-SOURCE Collimated beam of alpha particles.
INC-SPECT  The exact energies of the incident alpha particles at
           half target thickness are given.
SAMPLE     Nb, Pd, Ag, In, Sn, Ta, Pt, Am, Pb, Bi self-supporting
           targets were made of natural elements.
DETECTOR   (SIBAR) Three silicon surface barrier counters were
           mounted on a rotatable arm inside the scattering
           chamber.
           After passing the target the beam was collected in
           the Faraday cup connected with the current integrator.
MONITOR    (83-BI-209(A,2N)85-AT-211,,DA) The energy measurements
           were verified kinematically, determining the angle at
           which the alpha peaks from two independent sources
           coincided.
           The intensity of the beam was monitored by
           semiconductor counter viewing the target at a fixed
           angle of 20 degrees.
METHOD     (BCINT)
COMMENT    The absolute values of cross-sections for all targets
           except the lightest ones were determined by
           normalization of the experimental data, taken at
           relative small angles, to the Rutherford cross-section.
CORRECTION Corrections were node for energy loss in the targets.
ERR-ANALYS (ANG-ERR) The accuracy of the angle setting
           (DATA-ERR1) Data error from table
           (DATA-ERR2) Error of absolute value of cross-section
           The error of the absolute value of the cross-section
           was evaluated individually taking into account the
           possible energy fluctuation of the beam.
           The accuracy of the measurement of the absolute energy
           value was estimated to be +-150 keV.
HISTORY    (20050425C)
ENDBIB              41
COMMON               2          3
EN-RSL     ANG-ERR
KEV        ADEG
 350.       0.1
ENDCOMMON            3
ENDSUBENT           48
SUBENT        F0700002   20050621   20050831                  F022
BIB                  4          8
REACTION   (41-NB-93(A,EL)41-NB-93,,DA)
SAMPLE     41Nb target (rolled) was used. The Nb target  was
           contaminated by a small percentage of tantalium. This
           contamination was determined by chemical analysis.
CORRECTION For angles smaller than 90 degrees the contribution of
           alpha particles scattered on tantalium was calculated
           and subtracted.
STATUS     (CURVE)Table 2
ENDBIB               8
COMMON               1          3
THICKNESS
G/CM-SQ
 0.0037
ENDCOMMON            3
DATA                 5        100
EN         ANG-CM     DATA-CM    DATA-ERR1  DATA-ERR2
MEV        ADEG       MB/SR      MB/SR      PER-CENT
 23.100     10.430    0.26400E+06 10000.     5.5000
 23.100     13.030    0.10400E+06 3000.0     5.5000
 23.100     15.640     52800.     1700.0     5.5000
 23.100     18.240     30800.     1100.0     5.5000
 23.100     20.840     20400.     1000.0     5.5000
 23.100     23.450     12300.     400.00     5.5000
 23.100     26.040     8120.0     410.00     5.5000
 23.100     28.640     5230.0     260.00     5.5000
 23.100     31.230     3330.0     170.00     5.5000
 23.100     33.830     2050.0     100.00     5.5000
 23.100     36.420     1390.0     70.000     5.5000
 23.100     39.000     958.00     48.000     5.5000
 23.100     41.590     627.00     32.000     5.5000
 23.100     44.170     407.00     20.000     5.5000
 23.100     46.750     274.00     14.000     5.5000
 23.100     49.320     198.00     10.000     5.5000
 23.100     51.890     150.00     8.0000     5.5000
 23.100     54.460     110.00     6.0000     5.5000
 23.100     57.020     78.900     3.9000     5.5000
 23.100     59.580     52.700     2.6000     5.5000
 23.100     62.140     38.500     1.9000     5.5000
 23.100     64.690     31.500     1.6000     5.5000
 23.100     67.240     25.200     1.3000     5.5000
 23.100     69.780     19.700     1.0000     5.5000
 23.100     72.320     13.900    0.70000     5.5000
 23.100     74.860     9.7100    0.49000     5.5000
 23.100     77.390     7.6700    0.38000     5.5000
 23.100     79.910     6.9200    0.59000     5.5000
 23.100     82.430     5.5900    0.48000     5.5000
 23.100     84.950     4.3900    0.37000     5.5000
 23.100     87.460     3.5400    0.30000     5.5000
 23.100     89.970     2.7200    0.23000     5.5000
 23.100     92.470     2.0800    0.18000     5.5000
 23.100     94.970     1.6600    0.14000     5.5000
 23.100     97.460     1.5700    0.13000     5.5000
 23.100     99.950     1.4200    0.12000     5.5000
 23.100     102.43     1.1500    0.10000     5.5000
 23.100     104.91    0.85900    0.73000E-01 5.5000
 23.100     107.39    0.81300    0.69000E-01 5.5000
 23.100     109.86    0.59100    0.50000E-01 5.5000
 23.100     112.32    0.56700    0.48000E-01 5.5000
 23.100     114.78    0.48900    0.42000E-01 5.5000
 23.100     117.24    0.49900    0.42000E-01 5.5000
 23.100     119.69    0.38200    0.33000E-01 5.5000
 23.100     122.14    0.30600    0.26000E-01 5.5000
 23.100     124.58    0.24500    0.21000E-01 5.5000
 23.100     127.02    0.29200    0.25000E-01 5.5000
 23.100     129.46    0.24500    0.21000E-01 5.5000
 23.100     131.89    0.21700    0.18000E-01 5.5000
 23.100     134.32    0.21000    0.18000E-01 5.5000
 23.100     136.75    0.17700    0.15000E-01 5.5000
 23.100     139.17    0.12300    0.10000E-01 5.5000
 23.100     141.59    0.13000    0.11000E-01 5.5000
 27.300     10.430    0.17300E+06 9000.0     7.0000
 27.300     13.030     71100.     3000.0     7.0000
 27.300     15.640     38900.     1600.0     7.0000
 27.300     18.240     21300.     600.00     7.0000
 27.300     20.840     12100.     300.00     7.0000
 27.300     23.450     7110.0     180.00     7.0000
 27.300     26.040     4160.0     80.000     7.0000
 27.300     28.640     2200.0     40.000     7.0000
 27.300     31.230     1310.0     30.000     7.0000
 27.300     33.830     873.00     13.000     7.0000
 27.300     36.420     561.00     16.000     7.0000
 27.300     39.000     323.00     6.0000     7.0000
 27.300     41.590     187.00     9.0000     7.0000
 27.300     44.170     147.00     4.0000     7.0000
 27.300     46.750     108.00     3.0000     7.0000
 27.300     49.320     67.600     1.8000     7.0000
 27.300     51.890     42.800     1.4000     7.0000
 27.300     54.460     29.100     1.1000     7.0000
 27.300     57.020     24.800     1.0000     7.0000
 27.300     59.580     19.500    0.80000     7.0000
 27.300     62.140     13.700    0.40000     7.0000
 27.300     64.690     8.1400    0.42000     7.0000
 27.300     67.240     5.7200    0.30000     7.0000
 27.300     69.780     5.3700    0.23000     7.0000
 27.300     72.320     4.4400    0.17000     7.0000
 27.300     74.860     3.2500    0.13000     7.0000
 27.300     77.390     2.0100    0.15000     7.0000
 27.300     79.910     1.4200    0.90000E-01 7.0000
 27.300     82.430     1.1500    0.70000E-01 7.0000
 27.300     84.950     1.1900    0.50000E-01 7.0000
 27.300     87.460     1.1500    0.40000E-01 7.0000
 27.300     89.970    0.86500    0.66000E-01 7.0000
 27.300     92.470    0.48400    0.25000E-01 7.0000
 27.300     94.970    0.32300    0.21000E-01 7.0000
 27.300     97.460    0.30300    0.24000E-01 7.0000
 27.300     99.950    0.32300    0.24000E-01 7.0000
 27.300     102.43    0.32000    0.24000E-01 7.0000
 27.300     104.91    0.26500    0.20000E-01 7.0000
 27.300     107.39    0.18900    0.14000E-01 7.0000
 27.300     109.86    0.11800    0.90000E-02 7.0000
 27.300     112.32    0.83800E-010.60000E-02 7.0000
 27.300     114.78    0.96100E-010.80000E-02 7.0000
 27.300     117.24    0.11000    0.90000E-02 7.0000
 27.300     119.69    0.11100    0.90000E-02 7.0000
 27.300     122.14    0.89400E-010.72000E-02 7.0000
 27.300     124.58    0.80400E-010.85000E-02 7.0000
 27.300     127.02    0.46300E-010.38000E-02 7.0000
ENDDATA            102
ENDSUBENT          119
SUBENT        F0700003   20050621   20050831                  F022
BIB                  3          3
REACTION   (46-PD-0(A,EL)46-PD-0,,DA)
SAMPLE     Pd target : rolled
STATUS     (CURVE)Table 2
ENDBIB               3
COMMON               1          3
THICKNESS
G/CM-SQ
 0.004
ENDCOMMON            3
DATA                 5        117
EN         ANG-CM     DATA-CM    DATA-ERR1  DATA-ERR2
MEV        ADEG       MB/SR      MB/SR      PER-CENT
 23.100     10.370    0.32100E+06 11000.     4.0000
 23.100     11.600    0.24600E+06 8000.0     4.0000
 23.100     12.960    0.13700E+06 4000.0     4.0000
 23.100     15.560     63000.     1800.0     4.0000
 23.100     16.850     53000.     1500.0     4.0000
 23.100     18.150     34400.     900.00     4.0000
 23.100     20.730     21900.     600.00     4.0000
 23.100     22.000     19800.     600.00     4.0000
 23.100     23.320     14600.     400.00     4.0000
 23.100     25.910     9900.0     240.00     4.0000
 23.100     28.490     7190.0     170.00     4.0000
 23.100     31.070     4850.0     120.00     4.0000
 23.100     33.650     3340.0     80.000     4.0000
 23.100     36.230     2340.0     60.000     4.0000
 23.100     38.810     1640.0     20.000     4.0000
 23.100     41.380     1170.0     30.000     4.0000
 23.100     43.950     821.00     12.000     4.0000
 23.100     46.520     560.00     14.000     4.0000
 23.100     49.080     388.00     6.0000     4.0000
 23.100     51.650     298.00     5.0000     4.0000
 23.100     54.210     229.00     4.0000     4.0000
 23.100     56.760     165.00     3.0000     4.0000
 23.100     59.310     124.00     2.0000     4.0000
 23.100     61.860     84.600     2.1000     4.0000
 23.100     64.410     70.600     1.4000     4.0000
 23.100     66.950     54.200    0.60000     4.0000
 23.100     69.490     41.000    0.50000     4.0000
 23.100     72.020     31.600    0.40000     4.0000
 23.100     74.550     24.200    0.40000     4.0000
 23.100     77.080     19.100    0.30000     4.0000
 23.100     79.600     15.100    0.30000     4.0000
 23.100     82.120     12.200    0.20000     4.0000
 23.100     84.630     9.5100    0.16000     4.0000
 23.100     87.140     7.6200    0.15000     4.0000
 23.100     89.650     6.4200    0.13000     4.0000
 23.100     92.150     5.1500    0.12000     4.0000
 23.100     94.650     4.3600    0.11000     4.0000
 23.100     97.140     3.5600    0.10000     4.0000
 23.100     99.630     2.9900    0.60000E-01 4.0000
 23.100     102.12     2.4000    0.80000E-01 4.0000
 23.100     104.60     2.1100    0.50000E-01 4.0000
 23.100     107.08     1.8300    0.70000E-01 4.0000
 23.100     109.55     1.5700    0.60000E-01 4.0000
 23.100     112.02     1.3300    0.50000E-01 4.0000
 23.100     114.49     1.1500    0.30000E-01 4.0000
 23.100     116.35    0.97100    0.42000E-01 4.0000
 23.100     119.41    0.92800    0.26000E-01 4.0000
 23.100     121.86    0.68500    0.34000E-01 4.0000
 23.100     124.31    0.71800    0.23000E-01 4.0000
 23.100     126.76    0.65100    0.23000E-01 4.0000
 23.100     129.21    0.60700    0.26000E-01 4.0000
 23.100     131.65    0.52000    0.21000E-01 4.0000
 23.100     134.08    0.45700    0.23000E-01 4.0000
 23.100     136.52    0.44300    0.19000E-01 4.0000
 23.100     138.95    0.38700    0.20000E-01 4.0000
 23.100     141.38    0.39000    0.27000E-01 4.0000
 23.100     146.23    0.31500    0.25000E-01 4.0000
 23.100     151.07    0.25700    0.22000E-01 4.0000
 27.300     10.370    0.24100E+06 14000.     6.0000
 27.300     12.960     94900.     2600.0     6.0000
 27.300     15.560     47800.     1800.0     6.0000
 27.300     18.150     26400.     2500.0     6.0000
 27.300     20.730     17600.     700.00     6.0000
 27.300     23.320     10700.     200.00     6.0000
 27.300     25.910     6640.0     180.00     6.0000
 27.300     28.490     3900.0     110.00     6.0000
 27.300     31.070     2390.0     40.000     6.0000
 27.300     33.650     1560.0     50.000     6.0000
 27.300     36.230     965.00     37.000     6.0000
 27.300     38.810     617.00     22.000     6.0000
 27.300     41.380     374.00     8.0000     6.0000
 27.300     43.950     260.00     3.0000     6.0000
 27.300     46.520     179.00     8.0000     6.0000
 27.300     49.080     118.00     2.0000     6.0000
 27.300     51.650     76.600     5.1000     6.0000
 27.300     54.210     59.600     1.0000     6.0000
 27.300     56.760     44.600     1.3000     6.0000
 27.300     59.310     32.000    0.80000     6.0000
 27.300     61.860     21.900    0.60000     6.0000
 27.300     64.410     14.900    0.30000     6.0000
 27.300     66.950     11.400    0.40000     6.0000
 27.300     69.490     9.5400    0.25000     6.0000
 27.300     72.020     7.5400    0.15000     6.0000
 27.300     74.550     5.4100    0.80000E-01 6.0000
 27.300     77.080     3.9400    0.90000E-01 6.0000
 27.300     79.600     3.0200    0.50000E-01 6.0000
 27.300     82.120     2.4600    0.90000E-01 6.0000
 27.300     84.630     2.1400    0.70000E-01 6.0000
 27.300     87.140     1.6000    0.30000E-01 6.0000
 27.300     89.650     1.2900    0.30000E-01 6.0000
 27.300     92.150    0.93100    0.48000E-01 6.0000
 27.300     94.650    0.73400    0.10000E-01 6.0000
 27.300     97.140    0.61500    0.28000E-01 6.0000
 27.300     99.630    0.54800    0.80000E-02 6.0000
 27.300     102.12    0.46400    0.12000E-01 6.0000
 27.300     104.60    0.40200    0.60000E-02 6.0000
 27.300     107.08    0.31600    0.80000E-02 6.0000
 27.300     109.55    0.25300    0.11000E-01 6.0000
 27.300     112.02    0.21300    0.30000E-02 6.0000
 27.300     114.49    0.20000    0.12000E-01 6.0000
 27.300     116.35    0.17000    0.40000E-02 6.0000
 27.300     119.41    0.13500    0.50000E-02 6.0000
 27.300     121.86    0.12800    0.30000E-02 6.0000
 27.300     124.31    0.10700    0.60000E-02 6.0000
 27.300     126.76    0.99400E-010.26000E-02 6.0000
 27.300     129.21    0.91300E-010.46000E-02 6.0000
 27.300     131.65    0.75900E-010.48000E-02 6.0000
 27.300     134.08    0.64400E-010.45000E-02 6.0000
 27.300     136.52    0.57500E-010.43000E-02 6.0000
 27.300     138.95    0.47400E-010.39000E-02 6.0000
 27.300     141.38    0.38400E-010.34000E-02 6.0000
 27.300     143.81    0.39100E-010.34000E-02 6.0000
 27.300     146.23    0.43400E-010.32000E-02 6.0000
 27.300     148.66    0.33300E-010.28000E-02 6.0000
 27.300     151.07    0.45400E-010.33000E-02 6.0000
 27.300     153.49    0.40500E-010.31000E-02 6.0000
 27.300     155.91    0.31100E-010.29000E-02 6.0000
ENDDATA            119
ENDSUBENT          131
SUBENT        F0700004   20050621   20050831                  F022
BIB                  3          3
REACTION   (47-AG-0(A,EL)47-AG-0,,DA)
SAMPLE     47Ag target : evaporated
STATUS     (CURVE)Table 2
ENDBIB               3
NOCOMMON             0          0
DATA                 6        113
EN         ANG-CM     DATA-CM    DATA-ERR1  DATA-ERR2  THICKNESS
MEV        ADEG       MB/SR      MB/SR      PER-CENT   G/CM-SQ
 23.200     10.370    0.34500E+06 9000.0     5.0000    0.17000E-02
 23.200     12.960    0.14500E+06 4000.0     5.0000    0.17000E-02
 23.200     15.550     67300.     1600.0     5.0000    0.17000E-02
 23.200     18.140     36400.     2400.0     5.0000    0.17000E-02
 23.200     20.730     22900.     800.00     5.0000    0.17000E-02
 23.200     23.310     14400.     1000.0     5.0000    0.17000E-02
 23.200     25.900     10300.     200.00     5.0000    0.17000E-02
 23.200     28.480     7220.0     170.00     5.0000    0.17000E-02
 23.200     31.060     5120.0     50.000     5.0000    0.17000E-02
 23.200     33.640     3650.0     230.00     5.0000    0.17000E-02
 23.200     36.220     2400.0     40.000     5.0000    0.17000E-02
 23.200     38.790     1810.0     100.00     5.0000    0.17000E-02
 23.200     41.370     1250.0     60.000     5.0000    0.17000E-02
 23.200     43.940     873.00     61.000     5.0000    0.17000E-02
 23.200     46.500     673.00     57.000     5.0000    0.17000E-02
 23.200     49.070     468.00     28.000     5.0000    0.17000E-02
 23.200     51.630     347.00     26.000     5.0000    0.17000E-02
 23.200     54.190     251.00     17.000     5.0000    0.17000E-02
 23.200     56.740     186.00     16.000     5.0000    0.17000E-02
 23.200     59.290     136.00     12.000     5.0000    0.17000E-02
 23.200     61.840     98.400     6.2000     5.0000    0.17000E-02
 23.200     64.390     82.600     5.2000     5.0000    0.17000E-02
 23.200     66.930     55.700     4.3000     5.0000    0.17000E-02
 23.200     69.470     46.500    0.50000     5.0000    0.17000E-02
 23.200     72.000     36.200    0.50000     5.0000    0.17000E-02
 23.200     74.530     28.400    0.40000     5.0000    0.17000E-02
 23.200     77.050     21.000    0.40000     5.0000    0.17000E-02
 23.200     79.580     17.100    0.30000     5.0000    0.17000E-02
 23.200     82.090     13.800    0.20000     5.0000    0.17000E-02
 23.200     84.610     10.600    0.20000     5.0000    0.17000E-02
 23.200     87.120     9.2200    0.17000     5.0000    0.17000E-02
 23.200     89.620     7.2300    0.15000     5.0000    0.17000E-02
 23.200     92.130     5.9900    0.13000     5.0000    0.17000E-02
 23.200     94.620     4.9100    0.12000     5.0000    0.17000E-02
 23.200     97.120     3.9100    0.90000E-01 5.0000    0.17000E-02
 23.200     99.610     3.3500    0.10000     5.0000    0.17000E-02
 23.200     102.09     2.7600    0.70000E-01 5.0000    0.17000E-02
 23.200     104.58     2.3300    0.60000E-01 5.0000    0.17000E-02
 23.200     107.05     2.0100    0.60000E-01 5.0000    0.17000E-02
 23.200     109.53     1.7300    0.50000E-01 5.0000    0.17000E-02
 23.200     112.02     1.4300    0.40000E-01 5.0000    0.17000E-02
 23.200     114.47     1.3000    0.70000E-01 5.0000    0.17000E-02
 23.200     116.93     1.1100    0.60000E-01 5.0000    0.17000E-02
 23.200     119.39    0.96800    0.48000     5.0000    0.17000E-02
 23.200     121.84    0.85500    0.43000     5.0000    0.17000E-02
 23.200     124.29    0.70000    0.35000     5.0000    0.17000E-02
 23.200     126.74    0.62000    0.31000     5.0000    0.17000E-02
 23.200     129.19    0.56000    0.28000     5.0000    0.17000E-02
 23.200     131.63    0.52200    0.26000     5.0000    0.17000E-02
 23.200     134.07    0.47100    0.24000     5.0000    0.17000E-02
 23.200     136.50    0.40000    0.20000     5.0000    0.17000E-02
 23.200     138.94    0.39300    0.20000     5.0000    0.17000E-02
 23.200     141.37    0.36900    0.19000     5.0000    0.17000E-02
 23.200     143.79    0.34200    0.17000     5.0000    0.17000E-02
 23.200     146.22    0.30000    0.15000     5.0000    0.17000E-02
 23.200     148.64    0.26600    0.13000     5.0000    0.17000E-02
 23.200     151.06    0.25900    0.13000     5.0000    0.17000E-02
 23.200     153.48    0.22000    0.11000     5.0000    0.17000E-02
 23.200     155.90    0.24300    0.12000     5.0000    0.17000E-02
 23.200     158.31    0.24100    0.12000     5.0000    0.17000E-02
 23.200     160.73    0.22900    0.12000     5.0000    0.17000E-02
 23.200     163.14    0.21400    0.11000     5.0000    0.17000E-02
 23.200     165.55    0.20600    0.10000     5.0000    0.17000E-02
 23.200     167.96    0.21000    0.10000     5.0000    0.17000E-02
 27.500     10.370    0.24500E+06 11000.     4.5000    0.13000E-02
 27.500     12.960     96900.     3100.0     4.5000    0.13000E-02
 27.500     15.550     46200.     2100.0     4.5000    0.13000E-02
 27.500     18.140     27800.     1000.0     4.5000    0.13000E-02
 27.500     20.730     16800.     800.00     4.5000    0.13000E-02
 27.500     23.310     10400.     400.00     4.5000    0.13000E-02
 27.500     25.900     6930.0     110.00     4.5000    0.13000E-02
 27.500     28.480     4040.0     40.000     4.5000    0.13000E-02
 27.500     31.060     2490.0     50.000     4.5000    0.13000E-02
 27.500     33.640     1530.0     20.000     4.5000    0.13000E-02
 27.500     36.220     1010.0     10.000     4.5000    0.13000E-02
 27.500     38.790     608.00     21.000     4.5000    0.13000E-02
 27.500     41.370     393.00     9.0000     4.5000    0.13000E-02
 27.500     43.940     268.00     3.0000     4.5000    0.13000E-02
 27.500     46.500     191.00     2.0000     4.5000    0.13000E-02
 27.500     49.070     119.00     3.0000     4.5000    0.13000E-02
 27.500     51.630     83.800    0.80000     4.5000    0.13000E-02
 27.500     54.190     59.300    0.10000     4.5000    0.13000E-02
 27.500     56.740     42.900    0.40000     4.5000    0.13000E-02
 27.500     59.290     30.600    0.70000     4.5000    0.13000E-02
 27.500     61.840     22.100    0.80000     4.5000    0.13000E-02
 27.500     64.390     15.000    0.20000     4.5000    0.13000E-02
 27.500     66.930     11.400    0.20000     4.5000    0.13000E-02
 27.500     69.470     9.0700    0.20000     4.5000    0.13000E-02
 27.500     72.000     7.0100    0.11000     4.5000    0.13000E-02
 27.500     74.530     5.0400    0.14000     4.5000    0.13000E-02
 27.500     77.050     3.5800    0.70000E-01 4.5000    0.13000E-02
 27.500     79.580     2.7000    0.60000E-01 4.5000    0.13000E-02
 27.500     82.090     2.2300    0.50000E-01 4.5000    0.13000E-02
 27.500     84.610     1.9200    0.30000E-01 4.5000    0.13000E-02
 27.500     87.120     1.5900    0.40000E-01 4.5000    0.13000E-02
 27.500     89.620     1.1500    0.20000E-01 4.5000    0.13000E-02
 27.500     92.130    0.82700    0.14000E-01 4.5000    0.13000E-02
 27.500     94.620    0.65900    0.37000E-01 4.5000    0.13000E-02
 27.500     97.120    0.55600    0.12000E-01 4.5000    0.13000E-02
 27.500     99.610    0.49500    0.80000E-02 4.5000    0.13000E-02
 27.500     102.09    0.42400    0.12000E-01 4.5000    0.13000E-02
 27.500     104.58    0.32800    0.24000E-01 4.5000    0.13000E-02
 27.500     107.05    0.26800    0.70000E-02 4.5000    0.13000E-02
 27.500     109.53    0.21100    0.70000E-02 4.5000    0.13000E-02
 27.500     112.02    0.18400    0.60000E-02 4.5000    0.13000E-02
 27.500     114.47    0.14600    0.90000E-02 4.5000    0.13000E-02
 27.500     116.93    0.12500    0.40000E-02 4.5000    0.13000E-02
 27.500     119.39    0.11800    0.11000E-01 4.5000    0.13000E-02
 27.500     121.84    0.11000    0.40000E-02 4.5000    0.13000E-02
 27.500     124.29    0.90600E-010.36000E-02 4.5000    0.13000E-02
 27.500     126.74    0.77000E-010.25000E-02 4.5000    0.13000E-02
 27.500     129.19    0.65100E-010.36000E-02 4.5000    0.13000E-02
 27.500     131.63    0.57800E-010.27000E-02 4.5000    0.13000E-02
ENDDATA            115
ENDSUBENT          123
SUBENT        F0700005   20050621   20050831                  F022
BIB                  3          3
REACTION   (49-IN-0(A,EL)49-IN-0,,DA)
SAMPLE     49In target : evaporated
STATUS     (CURVE)Table 2
ENDBIB               3
COMMON               1          3
THICKNESS
G/CM-SQ
 0.0014
ENDCOMMON            3
DATA                 5        136
EN         ANG-CM     DATA-CM    DATA-ERR1  DATA-ERR2
MEV        ADEG       MB/SR      MB/SR      PER-CENT
 23.500     10.350    0.35900E+06 15000.     4.0000
 23.500     12.930    0.15900E+06 6000.0     4.0000
 23.500     15.920     73000.     2600.0     4.0000
 23.500     18.100     38800.     1500.0     4.0000
 23.500     20.680     22400.     800.00     4.0000
 23.500     23.260     15300.     500.00     4.0000
 23.500     25.840     10100.     300.00     4.0000
 23.500     28.420     7780.0     150.00     4.0000
 23.500     31.000     5210.0     110.00     4.0000
 23.500     33.570     3940.0     170.00     4.0000
 23.500     36.150     2580.0     50.000     4.0000
 23.500     38.720     1960.0     60.000     4.0000
 23.500     41.280     1320.0     10.000     4.0000
 23.500     43.850     909.00     7.0000     4.0000
 23.500     46.410     646.00     5.0000     4.0000
 23.500     48.970     441.00     3.0000     4.0000
 23.500     51.530     335.00     3.0000     4.0000
 23.500     54.080     241.00     3.0000     4.0000
 23.500     56.640     188.00     4.0000     4.0000
 23.500     59.190     136.00     6.0000     4.0000
 23.500     61.730     102.00     4.0000     4.0000
 23.500     64.270     73.900     3.2000     4.0000
 23.500     66.810     59.400    0.70000     4.0000
 23.500     69.350     44.400    0.70000     4.0000
 23.500     71.880     33.200     1.5000     4.0000
 23.500     74.410     25.400    0.80000     4.0000
 23.500     76.930     19.500    0.80000     4.0000
 23.500     79.450     15.500    0.30000     4.0000
 23.500     81.970     12.500    0.50000     4.0000
 23.500     84.480     10.100    0.30000     4.0000
 23.500     86.990     7.6000    0.27000     4.0000
 23.500     89.500     6.3100    0.20000     4.0000
 23.500     92.000     5.0300    0.22000     4.0000
 23.500     94.500     4.1500    0.60000E-01 4.0000
 23.500     96.990     3.3400    0.14000     4.0000
 23.500     99.480     2.8500    0.60000E-01 4.0000
 23.500     101.97     2.4900    0.80000E-01 4.0000
 23.500     104.45     1.9800    0.10000     4.0000
 23.500     106.93     1.8000    0.70000E-01 4.0000
 23.500     109.40     1.4200    0.60000E-01 4.0000
 23.500     111.88     1.2500    0.40000E-01 4.0000
 23.500     114.35    0.96500    0.29000E-01 4.0000
 23.500     116.81    0.85400    0.26000E-01 4.0000
 23.500     119.27    0.71800    0.29000E-01 4.0000
 23.500     121.73    0.63900    0.19000E-01 4.0000
 23.500     124.19    0.54100    0.22000E-01 4.0000
 23.500     126.64    0.48100    0.15000E-01 4.0000
 23.500     129.09    0.46000    0.18000E-01 4.0000
 23.500     131.53    0.38600    0.12000E-01 4.0000
 23.500     133.97    0.32200    0.80000E-02 4.0000
 23.500     136.41    0.31700    0.13000E-01 4.0000
 23.500     138.85    0.26200    0.70000E-02 4.0000
 23.500     141.28    0.21900    0.60000E-02 4.0000
 23.500     143.72    0.19900    0.10000E-01 4.0000
 23.500     146.15    0.18700    0.60000E-02 4.0000
 23.500     148.57    0.18250    0.73000E-01 4.0000
 23.500     151.00    0.17400    0.90000E-02 4.0000
 23.500     153.42    0.16900    0.50000E-02 4.0000
 23.500     155.84    0.17300    0.52000E-01 4.0000
 23.500     158.26    0.17300    0.70000E-02 4.0000
 23.500     160.68    0.17200    0.90000E-02 4.0000
 23.500     163.10    0.14500    0.70000E-02 4.0000
 23.500     165.52    0.13400    0.40000E-02 4.0000
 23.500     167.93    0.12000    0.40000E-02 4.0000
 23.500     170.35    0.11300    0.30000E-02 4.0000
 23.500     172.76    0.99300E-010.40000E-02 4.0000
 23.500     175.17    0.99100E-010.60000E-02 4.0000
 23.500     177.58    0.95400E-010.85000E-02 4.0000
 27.640     10.350    0.25000E+06 9000.0     5.0000
 27.640     12.930    0.10200E+06 3000.0     5.0000
 27.640     15.520     47200.     1600.0     5.0000
 27.640     18.100     29100.     900.00     5.0000
 27.640     20.680     17600.     600.00     5.0000
 27.640     23.260     11800.     400.00     5.0000
 27.640     25.840     7830.0     150.00     5.0000
 27.640     28.420     4880.0     100.00     5.0000
 27.640     31.000     2900.0     50.000     5.0000
 27.640     33.570     1980.0     30.000     5.0000
 27.640     36.150     1230.0     20.000     5.0000
 27.640     38.720     750.00     12.000     5.0000
 27.640     41.280     474.00     8.0000     5.0000
 27.640     43.850     330.00     6.0000     5.0000
 27.640     46.410     252.00     4.0000     5.0000
 27.640     48.970     152.00     3.0000     5.0000
 27.640     51.530     97.200     1.7000     5.0000
 27.640     54.080     70.500     1.5000     5.0000
 27.640     56.640     47.800    0.80000     5.0000
 27.640     59.190     38.500    0.80000     5.0000
 27.640     61.730     25.200    0.60000     5.0000
 27.640     64.270     17.800    0.40000     5.0000
 27.640     66.810     13.600    0.30000     5.0000
 27.640     69.350     11.600    0.30000     5.0000
 27.640     71.880     8.2700    0.20000     5.0000
 27.640     74.410     5.4600    0.14000     5.0000
 27.640     76.930     3.9400    0.11000     5.0000
 27.640     79.450     3.1100    0.90000E-01 5.0000
 27.640     81.970     2.8100    0.80000E-01 5.0000
 27.640     84.480     2.2100    0.50000E-01 5.0000
 27.640     86.990     1.7600    0.40000E-01 5.0000
 27.640     89.500     1.2200    0.30000E-01 5.0000
 27.640     92.000    0.83000    0.29000E-01 5.0000
 27.640     94.500    0.71400    0.24000E-01 5.0000
 27.640     96.990    0.64700    0.22000E-01 5.0000
 27.640     99.480    0.60600    0.24000E-01 5.0000
 27.640     101.97    0.51300    0.18000E-01 5.0000
 27.640     104.45    0.34900    0.14000E-01 5.0000
 27.640     106.93    0.22900    0.12000E-01 5.0000
 27.640     109.40    0.21800    0.90000E-02 5.0000
 27.640     111.88    0.18800    0.10000E-01 5.0000
 27.640     114.35    0.16600    0.60000E-02 5.0000
 27.640     116.81    0.15600    0.60000E-02 5.0000
 27.640     119.27    0.13100    0.50000E-02 5.0000
 27.640     121.73    0.11450    0.50000E-01 5.0000
 27.640     124.19    0.86200E-010.42000E-02 5.0000
 27.640     126.64    0.78400E-010.49000E-02 5.0000
 27.640     129.09    0.60600E-010.38000E-02 5.0000
 27.640     131.53    0.55050E-010.36000E-02 5.0000
 27.640     133.97    0.47800E-010.34000E-02 5.0000
 27.640     136.41    0.45900E-010.41000E-02 5.0000
 27.640     138.85    0.43500E-010.32000E-02 5.0000
 27.640     141.28    0.37300E-010.28000E-02 5.0000
 27.640     143.72    0.36400E-010.22000E-02 5.0000
 27.640     146.15    0.32000E-010.22000E-02 5.0000
 27.640     148.57    0.30200E-010.36000E-02 5.0000
 27.640     151.00    0.27000E-010.20000E-02 5.0000
 27.640     153.42    0.22900E-010.21000E-02 5.0000
 27.640     155.84    0.23600E-010.19000E-02 5.0000
 27.640     158.26    0.23000E-010.17000E-02 5.0000
 27.640     160.68    0.22100E-010.16000E-02 5.0000
 27.640     163.10    0.29600E-010.19000E-02 5.0000
 27.640     165.52    0.27200E-010.20000E-02 5.0000
 27.640     167.93    0.26300E-010.20000E-02 5.0000
 27.640     170.35    0.23600E-010.20000E-02 5.0000
 27.640     172.76    0.17200E-010.16000E-02 5.0000
 27.640     175.17    0.13000E-010.14000E-02 5.0000
 27.640     177.58    0.10800E-010.12000E-02 5.0000
ENDDATA            138
ENDSUBENT          150
SUBENT        F0700006   20050621   20050831                  F022
BIB                  3          3
REACTION   (50-SN-0(A,EL)50-SN-0,,DA)
SAMPLE     50Sn target : evaporated
STATUS     (CURVE)Table 2
ENDBIB               3
NOCOMMON             0          0
DATA                 6        135
EN         ANG-CM     DATA-CM    DATA-ERR1  DATA-ERR2  THICKNESS
MEV        ADEG       MB/SR      MB/SR      PER-CENT   G/CM-SQ
 23.300     10.340    0.37800E+06 11000.     3.5000    0.14000E-02
 23.300     12.920    0.16100E+06 4000.0     3.5000    0.14000E-02
 23.300     15.500     79400.     1700.0     3.5000    0.14000E-02
 23.300     18.080     41500.     800.00     3.5000    0.14000E-02
 23.300     20.660     23900.     500.00     3.5000    0.14000E-02
 23.300     23.240     15900.     300.00     3.5000    0.14000E-02
 23.300     25.820     10900.     200.00     3.5000    0.14000E-02
 23.300     28.390     7460.0     180.00     3.5000    0.14000E-02
 23.300     30.970     5880.0     120.00     3.5000    0.14000E-02
 23.300     33.540     4140.0     60.000     3.5000    0.14000E-02
 23.300     36.110     3040.0     40.000     3.5000    0.14000E-02
 23.300     38.680     2170.0     40.000     3.5000    0.14000E-02
 23.300     41.240     1540.0     20.000     3.5000    0.14000E-02
 23.300     43.810     1045.0     14.000     3.5000    0.14000E-02
 23.300     46.370     753.00     11.000     3.5000    0.14000E-02
 23.300     48.930     529.00     9.0000     3.5000    0.14000E-02
 23.300     51.480     393.00     8.0000     3.5000    0.14000E-02
 23.300     54.030     279.00     6.0000     3.5000    0.14000E-02
 23.300     56.580     192.00     2.0000     3.5000    0.14000E-02
 23.300     59.130     144.00     2.0000     3.5000    0.14000E-02
 23.300     61.670     103.00     2.0000     3.5000    0.14000E-02
 23.300     64.210     79.300    0.60000     3.5000    0.14000E-02
 23.300     66.750     59.500    0.60000     3.5000    0.14000E-02
 23.300     69.290     47.400    0.40000     3.5000    0.14000E-02
 23.300     71.820     36.500    0.30000     3.5000    0.14000E-02
 23.300     74.340     27.900    0.30000     3.5000    0.14000E-02
 23.300     76.870     22.200    0.30000     3.5000    0.14000E-02
 23.300     79.390     16.800    0.20000     3.5000    0.14000E-02
 23.300     81.900     13.800    0.20000     3.5000    0.14000E-02
 23.300     84.420     12.700    0.20000     3.5000    0.14000E-02
 23.300     86.930     8.9400    0.12000     3.5000    0.14000E-02
 23.300     89.430     7.3200    0.12000     3.5000    0.14000E-02
 23.300     91.930     5.4500    0.90000E-01 3.5000    0.14000E-02
 23.300     94.430     4.7400    0.10000     3.5000    0.14000E-02
 23.300     96.930     3.5700    0.70000E-01 3.5000    0.14000E-02
 23.300     99.420     3.1800    0.80000E-01 3.5000    0.14000E-02
 23.300     101.90     2.5600    0.60000E-01 3.5000    0.14000E-02
 23.300     104.39     2.1900    0.50000E-01 3.5000    0.14000E-02
 23.300     106.87     1.8100    0.40000E-01 3.5000    0.14000E-02
 23.300     109.34     1.6100    0.40000E-01 3.5000    0.14000E-02
 23.300     111.83     1.2950    0.34000E-01 3.5000    0.14000E-02
 23.300     114.29     1.1300    0.40000E-01 3.5000    0.14000E-02
 23.300     116.75    0.96000    0.32000E-01 3.5000    0.14000E-02
 23.300     119.21    0.78300    0.20000E-01 3.5000    0.14000E-02
 23.300     121.67    0.67800    0.20000E-01 3.5000    0.14000E-02
 23.300     124.13    0.60200    0.18000E-01 3.5000    0.14000E-02
 23.300     126.58    0.54500    0.17000E-01 3.5000    0.14000E-02
 23.300     129.03    0.46100    0.16000E-01 3.5000    0.14000E-02
 23.300     131.48    0.42200    0.15000E-01 3.5000    0.14000E-02
 23.300     133.93    0.39000    0.14000E-01 3.5000    0.14000E-02
 23.300     136.37    0.34100    0.14000E-01 3.5000    0.14000E-02
 23.300     138.81    0.29400    0.29000E-01 3.5000    0.14000E-02
 23.300     141.24    0.27500    0.12000E-01 3.5000    0.14000E-02
 23.300     143.68    0.24600    0.12000E-01 3.5000    0.14000E-02
 23.300     146.11    0.23100    0.12000E-01 3.5000    0.14000E-02
 23.300     148.54    0.20800    0.80000E-02 3.5000    0.14000E-02
 23.300     150.97    0.21300    0.11000E-01 3.5000    0.14000E-02
 23.300     153.39    0.19800    0.16000E-01 3.5000    0.14000E-02
 23.300     155.82    0.21500    0.70000E-02 3.5000    0.14000E-02
 23.300     158.24    0.23100    0.10000E-01 3.5000    0.14000E-02
 23.300     160.06    0.20000    0.80000E-02 3.5000    0.14000E-02
 23.300     163.03    0.19000    0.80000E-02 3.5000    0.14000E-02
 23.300     165.50    0.17700    0.90000E-02 3.5000    0.14000E-02
 23.300     167.92    0.17400    0.70000E-02 3.5000    0.14000E-02
 23.300     170.34    0.13300    0.60000E-02 3.5000    0.14000E-02
 23.300     172.75    0.13800    0.12000E-01 3.5000    0.14000E-02
 23.300     175.17    0.12700    0.64000E-01 3.5000    0.14000E-02
 27.700     10.340    0.26500E+06 11000.     5.0000    0.90000E-03
 27.700     12.920    0.10050E+06 3800.0     5.0000    0.90000E-03
 27.700     15.500     49600.     1300.0     5.0000    0.90000E-03
 27.700     18.080     28600.     700.00     5.0000    0.90000E-03
 27.700     20.660     18800.     300.00     5.0000    0.90000E-03
 27.700     23.240     12000.     200.00     5.0000    0.90000E-03
 27.700     25.820     8180.0     110.00     5.0000    0.90000E-03
 27.700     28.390     5010.0     90.000     5.0000    0.90000E-03
 27.700     30.970     3140.0     50.000     5.0000    0.90000E-03
 27.700     33.540     2090.0     40.000     5.0000    0.90000E-03
 27.700     36.110     1360.0     20.000     5.0000    0.90000E-03
 27.700     38.680     880.00     22.000     5.0000    0.90000E-03
 27.700     41.240     536.00     11.000     5.0000    0.90000E-03
 27.700     43.810     350.00     4.0000     5.0000    0.90000E-03
 27.700     46.370     252.00     4.0000     5.0000    0.90000E-03
 27.700     48.930     169.00     2.0000     5.0000    0.90000E-03
 27.700     51.480     112.00     1.0000     5.0000    0.90000E-03
 27.700     54.030     75.900     1.3000     5.0000    0.90000E-03
 27.700     56.580     58.200    0.40000     5.0000    0.90000E-03
 27.700     59.130     41.800    0.80000     5.0000    0.90000E-03
 27.700     61.670     29.600    0.30000     5.0000    0.90000E-03
 27.700     64.210     20.600    0.40000     5.0000    0.90000E-03
 27.700     66.750     15.200    0.10000     5.0000    0.90000E-03
 27.700     69.290     12.450    0.30000     5.0000    0.90000E-03
 27.700     71.820     9.4100    0.90000E-01 5.0000    0.90000E-03
 27.700     74.340     6.9600    0.10000     5.0000    0.90000E-03
 27.700     76.870     4.7250    0.71000E-01 5.0000    0.90000E-03
 27.700     79.390     3.7300    0.80000E-01 5.0000    0.90000E-03
 27.700     81.900     3.1200    0.40000E-01 5.0000    0.90000E-03
 27.700     84.420     2.6900    0.70000E-01 5.0000    0.90000E-03
 27.700     86.930     2.0800    0.30000E-01 5.0000    0.90000E-03
 27.700     89.430     1.4600    0.30000E-01 5.0000    0.90000E-03
 27.700     91.930     1.0800    0.20000E-01 5.0000    0.90000E-03
 27.700     94.430    0.84150    0.19000E-01 5.0000    0.90000E-03
 27.700     96.930    0.71800    0.18000E-01 5.0000    0.90000E-03
 27.700     99.420    0.69000    0.17000E-01 5.0000    0.90000E-03
 27.700     101.90    0.56200    0.16000E-01 5.0000    0.90000E-03
 27.700     104.39    0.40500    0.13000E-01 5.0000    0.90000E-03
 27.700     106.87    0.29900    0.12000E-01 5.0000    0.90000E-03
 27.700     109.34    0.25100    0.11000E-01 5.0000    0.90000E-03
 27.700     111.83    0.19750    0.95000E-02 5.0000    0.90000E-03
 27.700     114.29    0.19850    0.95000E-02 5.0000    0.90000E-03
 27.700     116.75    0.18400    0.90000E-02 5.0000    0.90000E-03
 27.700     119.21    0.15400    0.80000E-02 5.0000    0.90000E-03
 27.700     121.67    0.12750    0.76000E-02 5.0000    0.90000E-03
 27.700     124.13    0.11200    0.70000E-02 5.0000    0.90000E-03
 27.700     126.58    0.83900E-010.38000E-02 5.0000    0.90000E-03
 27.700     129.03    0.74200E-010.58000E-02 5.0000    0.90000E-03
 27.700     131.48    0.59900E-010.32000E-02 5.0000    0.90000E-03
 27.700     133.93    0.58600E-010.42000E-02 5.0000    0.90000E-03
 27.700     136.37    0.57300E-010.32000E-02 5.0000    0.90000E-03
 27.700     138.81    0.58900E-010.43000E-02 5.0000    0.90000E-03
 27.700     141.24    0.44000E-010.32000E-02 5.0000    0.90000E-03
 27.700     143.68    0.38400E-010.21000E-02 5.0000    0.90000E-03
 27.700     146.11    0.28100E-010.15000E-02 5.0000    0.90000E-03
 27.700     148.54    0.27500E-010.18000E-02 5.0000    0.90000E-03
 27.700     150.97    0.22700E-010.11000E-02 5.0000    0.90000E-03
 27.700     153.39    0.21000E-010.80000E-03 5.0000    0.90000E-03
 27.700     155.82    0.22000E-010.80000E-03 5.0000    0.90000E-03
 27.700     158.24    0.27100E-010.80000E-03 5.0000    0.90000E-03
 27.700     160.06    0.31200E-010.14000E-02 5.0000    0.90000E-03
 27.700     163.03    0.32300E-010.14000E-02 5.0000    0.90000E-03
 27.700     165.50    0.33000E-010.10000E-02 5.0000    0.90000E-03
 27.700     167.92    0.29550E-010.65000E-03 5.0000    0.90000E-03
 27.700     170.34    0.19900E-010.50000E-03 5.0000    0.90000E-03
 27.700     172.75    0.12600E-010.60000E-03 5.0000    0.90000E-03
 27.700     175.17    0.88200E-020.55000E-03 5.0000    0.90000E-03
 27.700     177.08    0.56700E-020.67000E-03 5.0000    0.90000E-03
ENDDATA            137
ENDSUBENT          145
SUBENT        F0700007   20050621   20050831                  F022
BIB                  3          3
REACTION   (73-TA-0(A,EL)73-TA-0,,DA)
SAMPLE     73Ta target : rolled
STATUS     (CURVE)Table 2
ENDBIB               3
COMMON               1          3
THICKNESS
G/CM-SQ
 0.0067
ENDCOMMON            3
DATA                 5        134
EN         ANG-CM     DATA-CM    DATA-ERR1  DATA-ERR2
MEV        ADEG       MB/SR      MB/SR      PER-CENT
 23.500     10.220    0.83600E+06 29000.     1.7000
 23.500     12.770    0.35600E+06 11000.     1.7000
 23.500     15.330    0.16100E+06 39000.     1.7000
 23.500     17.880     91000.     1900.0     1.7000
 23.500     20.430     51700.     1100.0     1.7000
 23.500     22.990     33600.     700.00     1.7000
 23.500     25.540     22100.     400.00     1.7000
 23.500     28.090     15400.     200.00     1.7000
 23.500     30.630     10900.     100.00     1.7000
 23.500     33.180     7900.0     80.000     1.7000
 23.500     35.730     5860.0     60.000     1.7000
 23.500     38.270     4450.0     50.000     1.7000
 23.500     40.820     3420.0     40.000     1.7000
 23.500     43.360     2710.0     30.000     1.7000
 23.500     45.900     2280.0     30.000     1.7000
 23.500     48.740     1910.0     20.000     1.7000
 23.500     50.970     1620.0     20.000     1.7000
 23.500     53.510     1360.0     20.000     1.7000
 23.500     56.040     1160.0     10.000     1.7000
 23.500     58.570     974.00     26.000     1.7000
 23.500     61.100     837.00     10.000     1.7000
 23.500     63.630     690.00     19.000     1.7000
 23.500     66.150     574.00     9.0000     1.7000
 23.500     68.670     485.00     16.000     1.7000
 23.500     71.190     434.00     4.0000     1.7000
 23.500     73.710     369.00     4.0000     1.7000
 23.500     76.230     308.00     3.0000     1.7000
 23.500     78.740     262.00     3.0000     1.7000
 23.500     81.250     213.00     2.0000     1.7000
 23.500     83.760     182.00     2.0000     1.7000
 23.500     86.260     156.00     2.0000     1.7000
 23.500     88.770     131.00     2.0000     1.7000
 23.500     91.270     112.00     2.0000     1.7000
 23.500     93.770     95.500     1.4000     1.7000
 23.500     96.260     80.200     1.5000     1.7000
 23.500     98.760     68.100     1.2000     1.7000
 23.500     101.25     57.000     1.0000     1.7000
 23.500     103.74     48.700    0.80000     1.7000
 23.500     106.22     43.100    0.80000     1.7000
 23.500     108.71     37.100    0.70000     1.7000
 23.500     111.19     33.200    0.70000     1.7000
 23.500     113.67     28.400    0.60000     1.7000
 23.500     116.15     24.700     1.1000     1.7000
 23.500     118.63     20.900    0.40000     1.7000
 23.500     121.10     18.300    0.50000     1.7000
 23.500     123.57     16.400    0.80000     1.7000
 23.500     126.04     13.600    0.50000     1.7000
 23.500     128.51     13.000    0.60000     1.7000
 23.500     130.97     11.400    0.50000     1.7000
 23.500     133.44     10.600    0.50000     1.7000
 23.500     135.90     9.4200    0.45000     1.7000
 23.500     138.36     9.0400    0.40000     1.7000
 23.500     140.82     8.1700    0.38000     1.7000
 23.500     143.27     7.4400    0.34000     1.7000
 23.500     145.72     6.4800    0.31000     1.7000
 23.500     148.18     5.9600    0.28000     1.7000
 23.500     150.63     6.0700    0.32000     1.7000
 23.500     153.09     5.1800    0.28000     1.7000
 23.500     155.54     4.7900    0.23000     1.7000
 23.500     157.99     4.8100    0.21000     1.7000
 23.500     160.43     4.3400    0.21000     1.7000
 23.500     162.88     3.5700    0.18000     1.7000
 23.500     165.33     3.7500    0.19000     1.7000
 23.500     167.77     3.4700    0.12000     1.7000
 23.500     170.22     3.5500    0.15000     1.7000
 23.500     172.67     3.4500    0.16000     1.7000
 23.500     175.11     3.1200    0.12000     1.7000
 27.200     10.220    0.57200E+06 19000.     2.2000
 27.200     12.770    0.24900E+06 7000.0     2.2000
 27.200     15.330    0.11900E+06 3000.0     2.2000
 27.200     17.880     67700.     1200.0     2.2000
 27.200     20.430     40200.     700.00     2.2000
 27.200     22.990     25900.     600.00     2.2000
 27.200     25.540     16200.     400.00     2.2000
 27.200     28.090     11200.     200.00     2.2000
 27.200     30.630     8020.0     160.00     2.2000
 27.200     33.180     6340.0     120.00     2.2000
 27.200     35.730     4940.0     70.000     2.2000
 27.200     38.270     4010.0     30.000     2.2000
 27.200     40.820     3050.0     30.000     2.2000
 27.200     43.360     2450.0     50.000     2.2000
 27.200     45.900     1830.0     20.000     2.2000
 27.200     48.740     1480.0     20.000     2.2000
 27.200     50.970     1070.0     30.000     2.2000
 27.200     53.510     846.00     9.0000     2.2000
 27.200     56.040     649.00     15.000     2.2000
 27.200     58.570     500.00     16.000     2.2000
 27.200     61.100     370.00     3.0000     2.2000
 27.200     63.630     302.00     2.0000     2.2000
 27.200     66.150     234.00     2.0000     2.2000
 27.200     68.670     180.00     4.0000     2.2000
 27.200     71.190     140.00     3.0000     2.2000
 27.200     73.710     107.00     3.0000     2.2000
 27.200     76.230     82.800     2.1000     2.2000
 27.200     78.740     65.300     2.2000     2.2000
 27.200     81.250     49.900     1.3000     2.2000
 27.200     83.760     39.700    0.80000     2.2000
 27.200     86.260     30.100     1.2000     2.2000
 27.200     88.770     25.800    0.50000     2.2000
 27.200     91.270     20.300    0.30000     2.2000
 27.200     93.770     16.800    0.40000     2.2000
 27.200     96.260     13.500    0.20000     2.2000
 27.200     98.760     11.200    0.20000     2.2000
 27.200     101.25     9.4200    0.24000     2.2000
 27.200     103.74     7.5300    0.17000     2.2000
 27.200     106.22     5.9400    0.12000     2.2000
 27.200     108.71     5.1300    0.12000     2.2000
 27.200     111.19     4.4100    0.13000     2.2000
 27.200     113.67     3.5000    0.40000E-01 2.2000
 27.200     116.15     3.1600    0.90000E-01 2.2000
 27.200     118.63     2.7300    0.11000     2.2000
 27.200     121.10     2.4300    0.70000E-01 2.2000
 27.200     123.57     1.8500    0.50000E-01 2.2000
 27.200     126.04     1.7200    0.70000E-01 2.2000
 27.200     128.51     1.4400    0.50000E-01 2.2000
 27.200     130.97     1.2600    0.30000E-01 2.2000
 27.200     133.44     1.1400    0.20000E-01 2.2000
 27.200     135.90     1.0600    0.20000E-01 2.2000
 27.200     138.36    0.89700    0.28000E-01 2.2000
 27.200     140.82    0.84300    0.20000E-01 2.2000
 27.200     143.27    0.77000    0.18000E-01 2.2000
 27.200     145.72    0.71500    0.19000E-01 2.2000
 27.200     148.18    0.66200    0.26000E-01 2.2000
 27.200     150.63    0.59200    0.18000E-01 2.2000
 27.200     153.09    0.55400    0.33000E-01 2.2000
 27.200     155.54    0.50000    0.10000E-01 2.2000
 27.200     157.99    0.49500    0.11000E-01 2.2000
 27.200     160.43    0.49600    0.17000E-01 2.2000
 27.200     162.88    0.46300    0.10000E-01 2.2000
 27.200     165.33    0.45300    0.11000E-01 2.2000
 27.200     167.77    0.44200    0.80000E-02 2.2000
 27.200     170.22    0.42500    0.90000E-02 2.2000
 27.200     172.67    0.40100    0.16000E-01 2.2000
 27.200     175.11    0.39300    0.14000E-01 2.2000
ENDDATA            136
ENDSUBENT          148
SUBENT        F0700008   20050621   20050831                  F022
BIB                  3          3
REACTION   (78-PT-0(A,EL)78-PT-0,,DA)
SAMPLE     78Pt target : rolled
STATUS     (CURVE)Table 2
ENDBIB               3
COMMON               1          3
THICKNESS
G/CM-SQ
 0.0045
ENDCOMMON            3
DATA                 5        134
EN         ANG-CM     DATA-CM    DATA-ERR1  DATA-ERR2
MEV        ADEG       MB/SR      MB/SR      PER-CENT
 23.350     10.200    0.96500E+06 39000.     1.6000
 23.350     12.750    0.40300E+06 13000.     1.6000
 23.350     15.300    0.18800E+06 7000.0     1.6000
 23.350     17.850    0.10400E+06 3000.0     1.6000
 23.350     20.400     60000.     2100.0     1.6000
 23.350     22.900     39400.     1100.0     1.6000
 23.350     25.500     25200.     300.00     1.6000
 23.350     28.040     17800.     300.00     1.6000
 23.350     30.590     12300.     200.00     1.6000
 23.350     33.130     9130.0     130.00     1.6000
 23.350     35.670     6870.0     70.000     1.6000
 23.350     38.220     5300.0     70.000     1.6000
 23.350     40.760     4080.0     50.000     1.6000
 23.350     43.290     3160.0     30.000     1.6000
 23.350     45.830     2610.0     30.000     1.6000
 23.350     48.370     2170.0     30.000     1.6000
 23.350     50.960     1830.0     20.000     1.6000
 23.350     53.430     1530.0     40.000     1.6000
 23.350     55.960     1370.0     50.000     1.6000
 23.350     58.490     1170.0     10.000     1.6000
 23.350     61.020     1010.0     10.000     1.6000
 23.350     63.540     874.00     9.0000     1.6000
 23.350     66.070     751.00     8.0000     1.6000
 23.350     68.590     646.00     7.0000     1.6000
 23.350     71.100     567.00     5.0000     1.6000
 23.350     73.620     459.00     7.0000     1.6000
 23.350     76.140     416.00     5.0000     1.6000
 23.350     78.650     363.00     4.0000     1.6000
 23.350     81.160     310.00     4.0000     1.6000
 23.350     83.670     259.00     3.0000     1.6000
 23.350     86.170     222.00     3.0000     1.6000
 23.350     88.670     191.00     3.0000     1.6000
 23.350     91.180     167.00     2.0000     1.6000
 23.350     93.670     146.00     2.0000     1.6000
 23.350     96.170     123.00     2.0000     1.6000
 23.350     98.670     106.00     1.0000     1.6000
 23.350     101.16     91.600    0.10000     1.6000
 23.350     103.65     79.100    0.10000     1.6000
 23.350     106.14     66.800    0.90000     1.6000
 23.350     108.62     59.900    0.70000     1.6000
 23.350     111.10     51.200    0.70000     1.6000
 23.350     113.59     46.000    0.60000     1.6000
 23.350     116.07     39.300    0.60000     1.6000
 23.350     118.54     35.200    0.60000     1.6000
 23.350     121.02     30.900    0.50000     1.6000
 23.350     123.49     27.400    0.40000     1.6000
 23.350     125.96     24.100    0.50000     1.6000
 23.350     128.43     23.100    0.40000     1.6000
 23.350     130.90     20.100    0.40000     1.6000
 23.350     133.37     18.200    0.30000     1.6000
 23.350     135.81     16.500    0.30000     1.6000
 23.350     138.29     14.900    0.30000     1.6000
 23.350     140.76     13.400    0.30000     1.6000
 23.350     143.22     13.000    0.30000     1.6000
 23.350     145.67     12.100    0.30000     1.6000
 23.350     148.13     11.500    0.20000     1.6000
 23.350     150.59     10.300    0.20000     1.6000
 23.350     153.04     9.9300    0.40000     1.6000
 23.350     155.50     9.3800    0.24000     1.6000
 23.350     157.95     8.9800    0.22000     1.6000
 23.350     160.40     8.6600    0.23000     1.6000
 23.350     162.85     8.4000    0.50000     1.6000
 23.350     165.30     8.1500    0.21000     1.6000
 23.350     167.75     8.0200    0.32000     1.6000
 23.350     170.20     7.7600    0.27000     1.6000
 23.350     172.65     7.5800    0.30000     1.6000
 23.350     175.10     7.5300    0.26000     1.6000
 27.700     10.200    0.69500E+06 51000.     1.8000
 27.700     12.750    0.28600E+06 22000.     1.8000
 27.700     15.300    0.13800E+06 11000.     1.8000
 27.700     17.850     71900.     5600.0     1.8000
 27.700     20.400     44400.     3600.0     1.8000
 27.700     22.950     27100.     2300.0     1.8000
 27.700     25.500     17500.     300.00     1.8000
 27.700     28.040     11800.     200.00     1.8000
 27.700     30.590     8100.0     180.00     1.8000
 27.700     33.130     5920.0     140.00     1.8000
 27.700     35.670     4730.0     110.00     1.8000
 27.700     38.220     3820.0     100.00     1.8000
 27.700     40.760     3060.0     40.000     1.8000
 27.700     43.290     2610.0     70.000     1.8000
 27.700     45.830     2050.0     20.000     1.8000
 27.700     48.370     1660.0     40.000     1.8000
 27.700     50.960     1290.0     10.000     1.8000
 27.700     53.430     1040.0     20.000     1.8000
 27.700     55.960     760.00     10.000     1.8000
 27.700     58.490     614.00     8.0000     1.8000
 27.700     61.020     461.00     5.0000     1.8000
 27.700     63.540     364.00     5.0000     1.8000
 27.700     66.070     270.00     5.0000     1.8000
 27.700     68.590     203.00     6.0000     1.8000
 27.700     71.100     169.00     2.0000     1.8000
 27.700     73.620     133.00     4.0000     1.8000
 27.700     76.140     105.00     2.0000     1.8000
 27.700     78.650     81.700     3.3000     1.8000
 27.700     81.160     64.900    0.70000     1.8000
 27.700     83.670     51.500     1.2000     1.8000
 27.700     86.170     40.800     1.4000     1.8000
 27.700     88.670     34.200    0.80000     1.8000
 27.700     91.180     26.900    0.40000     1.8000
 27.700     93.670     22.100    0.30000     1.8000
 27.700     96.170     18.300    0.30000     1.8000
 27.700     98.670     15.100    0.30000     1.8000
 27.700     101.16     12.300    0.50000     1.8000
 27.700     103.65     10.400    0.20000     1.8000
 27.700     106.14     8.8200    0.16000     1.8000
 27.700     108.62     7.2300    0.33000     1.8000
 27.700     111.10     6.3600    0.10000     1.8000
 27.700     113.59     5.3700    0.17000     1.8000
 27.700     116.07     4.0300    0.80000E-01 1.8000
 27.700     118.54     3.6300    0.60000E-01 1.8000
 27.700     121.02     3.0600    0.70000E-01 1.8000
 27.700     123.49     2.7500    0.70000E-01 1.8000
 27.700     125.96     2.4000    0.60000E-01 1.8000
 27.700     128.43     2.0900    0.70000E-01 1.8000
 27.700     130.90     1.8700    0.50000E-01 1.8000
 27.700     133.37     1.5500    0.40000E-01 1.8000
 27.700     135.81     1.3900    0.40000E-01 1.8000
 27.700     138.29     1.3000    0.40000E-01 1.8000
 27.700     140.76     1.2000    0.60000E-01 1.8000
 27.700     143.22     1.1200    0.50000E-01 1.8000
 27.700     145.67    0.95600    0.32000E-01 1.8000
 27.700     148.13    0.87800    0.25000E-01 1.8000
 27.700     150.59    0.82400    0.25000E-01 1.8000
 27.700     153.04    0.78300    0.23000E-01 1.8000
 27.700     155.50    0.70500    0.23000E-01 1.8000
 27.700     157.95    0.66100    0.21000E-01 1.8000
 27.700     160.40    0.65900    0.57000E-01 1.8000
 27.700     162.85    0.62400    0.30000E-01 1.8000
 27.700     165.30    0.61400    0.35000E-01 1.8000
 27.700     167.75    0.59900    0.29000E-01 1.8000
 27.700     170.20    0.58700    0.28000E-01 1.8000
 27.700     172.65    0.61400    0.30000E-01 1.8000
 27.700     175.10    0.58900    0.37000E-01 1.8000
ENDDATA            136
ENDSUBENT          148
SUBENT        F0700009   20050621   20050831                  F022
BIB                  3          3
REACTION   (79-AU-197(A,EL)79-AU-197,,DA)
SAMPLE     Au target : evaporated
STATUS     (CURVE)Table 2
ENDBIB               3
NOCOMMON             0          0
DATA                 6        121
EN         ANG-CM     DATA-CM    DATA-ERR1  DATA-ERR2  THICKNESS
MEV        ADEG       MB/SR      MB/SR      PER-CENT   G/CM-SQ
 23.650     10.200    0.92200E+06 41000.     2.5000    0.90000E-03
 23.650     12.750    0.39600E+06 14000.     2.5000    0.90000E-03
 23.650     15.300    0.19800E+06 15000.     2.5000    0.90000E-03
 23.650     17.850    0.10700E+06 1000.0     2.5000    0.90000E-03
 23.650     20.400     59300.     600.00     2.5000    0.90000E-03
 23.650     22.950     39600.     500.00     2.5000    0.90000E-03
 23.650     25.490     25800.     200.00     2.5000    0.90000E-03
 23.650     28.040     17200.     100.00     2.5000    0.90000E-03
 23.650     30.580     12300.     100.00     2.5000    0.90000E-03
 23.650     33.130     8960.0     30.000     2.5000    0.90000E-03
 23.650     35.670     7060.0     30.000     2.5000    0.90000E-03
 23.650     38.210     5110.0     20.000     2.5000    0.90000E-03
 23.650     40.750     4380.0     30.000     2.5000    0.90000E-03
 23.650     43.290     3200.0     10.000     2.5000    0.90000E-03
 23.650     45.820     2770.0     100.00     2.5000    0.90000E-03
 23.650     48.360     2140.0     10.000     2.5000    0.90000E-03
 23.650     50.890     1900.0     10.000     2.5000    0.90000E-03
 23.650     53.420     1550.0     10.000     2.5000    0.90000E-03
 23.650     55.950     1380.0     10.000     2.5000    0.90000E-03
 23.650     61.010     1050.0     10.000     2.5000    0.90000E-03
 23.650     66.050     792.00     2.0000     2.5000    0.90000E-03
 23.650     71.090     592.00     2.0000     2.5000    0.90000E-03
 23.650     76.120     440.00     2.0000     2.5000    0.90000E-03
 23.650     81.150     323.00     1.0000     2.5000    0.90000E-03
 23.650     86.160     237.00     1.0000     2.5000    0.90000E-03
 23.650     91.160     174.00     1.0000     2.5000    0.90000E-03
 23.650     96.160     125.00     1.0000     2.5000    0.90000E-03
 23.650     101.15     92.600    0.10000     2.5000    0.90000E-03
 23.650     106.12     70.200    0.30000     2.5000    0.90000E-03
 23.650     111.09     52.800    0.30000     2.5000    0.90000E-03
 23.650     116.05     41.300    0.40000     2.5000    0.90000E-03
 23.650     121.01     33.700    0.40000     2.5000    0.90000E-03
 23.650     123.48     29.300    0.30000     2.5000    0.90000E-03
 23.650     125.95     26.000    0.30000     2.5000    0.90000E-03
 23.650     128.42     23.300    0.60000     2.5000    0.90000E-03
 23.650     130.89     20.700    0.40000     2.5000    0.90000E-03
 23.650     133.36     19.000    0.60000     2.5000    0.90000E-03
 23.650     135.82     17.700    0.30000     2.5000    0.90000E-03
 23.650     138.29     16.400    0.20000     2.5000    0.90000E-03
 23.650     140.75     15.100    0.20000     2.5000    0.90000E-03
 23.650     143.21     14.000    0.20000     2.5000    0.90000E-03
 23.650     145.67     13.000    0.20000     2.5000    0.90000E-03
 23.650     148.13     11.700    0.20000     2.5000    0.90000E-03
 23.650     150.58     11.200    0.20000     2.5000    0.90000E-03
 23.650     153.04     10.100    0.10000     2.5000    0.90000E-03
 23.650     155.49     9.4900    0.16000     2.5000    0.90000E-03
 23.650     157.95     9.1500    0.13000     2.5000    0.90000E-03
 23.650     160.40     9.0600    0.16000     2.5000    0.90000E-03
 23.650     162.85     8.4900    0.10000     2.5000    0.90000E-03
 23.650     165.30     8.0600    0.10000     2.5000    0.90000E-03
 23.650     167.75     8.0000    0.13000     2.5000    0.90000E-03
 23.650     170.20     7.8700    0.11000     2.5000    0.90000E-03
 23.650     172.65     8.0000    0.13000     2.5000    0.90000E-03
 23.650     175.10     7.2000    0.12000     2.5000    0.90000E-03
 27.950     10.200    0.65100E+06 16000.     2.0000    0.21000E-02
 27.950     12.750    0.27800E+06 7000.0     2.0000    0.21000E-02
 27.950     15.300    0.13700E+06 4000.0     2.0000    0.21000E-02
 27.950     17.850     76400.     2800.0     2.0000    0.21000E-02
 27.950     20.400     44900.     1600.0     2.0000    0.21000E-02
 27.950     22.950     29200.     1200.0     2.0000    0.21000E-02
 27.950     25.490     19100.     1100.0     2.0000    0.21000E-02
 27.950     28.040     13000.     900.00     2.0000    0.21000E-02
 27.950     30.580     8990.0     720.00     2.0000    0.21000E-02
 27.950     33.130     6670.0     10.000     2.0000    0.21000E-02
 27.950     35.670     5190.0     60.000     2.0000    0.21000E-02
 27.950     38.210     4280.0     40.000     2.0000    0.21000E-02
 27.950     40.750     3480.0     30.000     2.0000    0.21000E-02
 27.950     43.290     2790.0     30.000     2.0000    0.21000E-02
 27.950     45.820     2330.0     20.000     2.0000    0.21000E-02
 27.950     48.360     1860.0     40.000     2.0000    0.21000E-02
 27.950     50.890     1640.0     10.000     2.0000    0.21000E-02
 27.950     53.420     1150.0     10.000     2.0000    0.21000E-02
 27.950     55.950     934.00     6.0000     2.0000    0.21000E-02
 27.950     58.480     721.00     5.0000     2.0000    0.21000E-02
 27.950     61.010     570.00     5.0000     2.0000    0.21000E-02
 27.950     63.530     426.00     4.0000     2.0000    0.21000E-02
 27.950     66.050     322.00     6.0000     2.0000    0.21000E-02
 27.950     68.580     246.00     3.0000     2.0000    0.21000E-02
 27.950     71.090     185.00     5.0000     2.0000    0.21000E-02
 27.950     73.610     149.00     4.0000     2.0000    0.21000E-02
 27.950     76.120     111.00     4.0000     2.0000    0.21000E-02
 27.950     78.640     83.900     3.3000     2.0000    0.21000E-02
 27.950     81.150     65.700     2.0000     2.0000    0.21000E-02
 27.950     83.650     53.700     1.9000     2.0000    0.21000E-02
 27.950     86.160     39.400     1.6000     2.0000    0.21000E-02
 27.950     88.660     31.900     1.4000     2.0000    0.21000E-02
 27.950     91.160     26.600     1.3000     2.0000    0.21000E-02
 27.950     93.660     21.000     1.2000     2.0000    0.21000E-02
 27.950     96.160     17.700    0.30000     2.0000    0.21000E-02
 27.950     98.650     14.300    0.40000     2.0000    0.21000E-02
 27.950     101.15     11.700    0.30000     2.0000    0.21000E-02
 27.950     103.64     10.200    0.50000     2.0000    0.21000E-02
 27.950     106.12     7.2600    0.22000     2.0000    0.21000E-02
 27.950     108.61     6.4200    0.29000     2.0000    0.21000E-02
 27.950     111.09     5.0300    0.18000     2.0000    0.21000E-02
 27.950     113.58     4.2600    0.36000     2.0000    0.21000E-02
 27.950     116.05     3.7300    0.18000     2.0000    0.21000E-02
 27.950     118.53     3.3600    0.31000     2.0000    0.21000E-02
 27.950     121.01     3.0600    0.11000     2.0000    0.21000E-02
 27.950     123.48     2.7900    0.14000     2.0000    0.21000E-02
 27.950     125.95     2.4100    0.60000E-01 2.0000    0.21000E-02
 27.950     128.42     2.1500    0.21000     2.0000    0.21000E-02
 27.950     130.89     1.9600    0.80000E-01 2.0000    0.21000E-02
 27.950     133.36     1.7900    0.11000     2.0000    0.21000E-02
 27.950     135.82     1.5500    0.70000E-01 2.0000    0.21000E-02
 27.950     138.29     1.5300    0.60000E-01 2.0000    0.21000E-02
 27.950     140.75     1.3700    0.30000E-01 2.0000    0.21000E-02
 27.950     143.21     1.3200    0.50000E-01 2.0000    0.21000E-02
 27.950     145.67     1.2000    0.30000E-01 2.0000    0.21000E-02
 27.950     148.13     1.0600    0.20000E-01 2.0000    0.21000E-02
 27.950     150.58    0.96000    0.40000E-01 2.0000    0.21000E-02
 27.950     153.04    0.93100    0.40000E-01 2.0000    0.21000E-02
 27.950     155.49    0.81300    0.33000E-01 2.0000    0.21000E-02
 27.950     157.95    0.77200    0.19000E-01 2.0000    0.21000E-02
 27.950     160.40    0.77700    0.23000E-01 2.0000    0.21000E-02
 27.950     162.85    0.72900    0.24000E-01 2.0000    0.21000E-02
 27.950     165.30    0.70500    0.37000E-01 2.0000    0.21000E-02
 27.950     167.75    0.70200    0.24000E-01 2.0000    0.21000E-02
 27.950     170.20    0.66400    0.39000E-01 2.0000    0.21000E-02
 27.950     172.65    0.64800    0.22000E-01 2.0000    0.21000E-02
 27.950     175.10    0.61500    0.35000E-01 2.0000    0.21000E-02
ENDDATA            123
ENDSUBENT          131
SUBENT        F0700010   20050621   20050831                  F022
BIB                  3          3
REACTION   (82-PB-208(A,EL)82-PB-208,,DA)
SAMPLE     Pb target : evaporated
STATUS     (CURVE)Table 2
ENDBIB               3
NOCOMMON             0          0
DATA                 6        134
EN         ANG-CM     DATA-CM    DATA-ERR1  DATA-ERR2  THICKNESS
MEV        ADEG       MB/SR      MB/SR      PER-CENT   G/CM-SQ
 23.600     10.190    0.10300E+07 50000.     1.5000    0.12000E-02
 23.600     12.740    0.44800E+06 23000.     1.5000    0.12000E-02
 23.600     15.290    0.20100E+06 9000.0     1.5000    0.12000E-02
 23.600     17.830    0.11200E+06 4000.0     1.5000    0.12000E-02
 23.600     20.380     74600.     3400.0     1.5000    0.12000E-02
 23.600     22.920     42300.     1400.0     1.5000    0.12000E-02
 23.600     25.470     27300.     600.00     1.5000    0.12000E-02
 23.600     28.010     18700.     500.00     1.5000    0.12000E-02
 23.600     30.550     13400.     300.00     1.5000    0.12000E-02
 23.600     33.100     9930.0     210.00     1.5000    0.12000E-02
 23.600     35.640     7450.0     160.00     1.5000    0.12000E-02
 23.600     38.170     5930.0     110.00     1.5000    0.12000E-02
 23.600     40.710     4540.0     80.000     1.5000    0.12000E-02
 23.600     43.250     3510.0     70.000     1.5000    0.12000E-02
 23.600     45.780     2790.0     70.000     1.5000    0.12000E-02
 23.600     48.320     2320.0     40.000     1.5000    0.12000E-02
 23.600     50.850     1900.0     40.000     1.5000    0.12000E-02
 23.600     53.380     1630.0     30.000     1.5000    0.12000E-02
 23.600     55.910     1400.0     40.000     1.5000    0.12000E-02
 23.600     58.430     1230.0     20.000     1.5000    0.12000E-02
 23.600     60.600     1070.0     30.000     1.5000    0.12000E-02
 23.600     63.480     943.00     20.000     1.5000    0.12000E-02
 23.600     66.000     841.00     13.000     1.5000    0.12000E-02
 23.600     68.520     720.00     13.000     1.5000    0.12000E-02
 23.600     71.040     617.00     23.000     1.5000    0.12000E-02
 23.600     73.560     533.00     9.0000     1.5000    0.12000E-02
 23.600     76.070     462.00     25.000     1.5000    0.12000E-02
 23.600     78.580     391.00     10.000     1.5000    0.12000E-02
 23.600     81.090     343.00     10.000     1.5000    0.12000E-02
 23.600     83.600     296.00     8.0000     1.5000    0.12000E-02
 23.600     86.100     253.00     6.0000     1.5000    0.12000E-02
 23.600     88.610     219.00     5.0000     1.5000    0.12000E-02
 23.600     91.110     182.00     5.0000     1.5000    0.12000E-02
 23.600     93.610     159.00     2.0000     1.5000    0.12000E-02
 23.600     96.100     136.00     2.0000     1.5000    0.12000E-02
 23.600     98.600     118.00     1.0000     1.5000    0.12000E-02
 23.600     101.09     106.00     3.0000     1.5000    0.12000E-02
 23.600     103.58     89.100     1.3000     1.5000    0.12000E-02
 23.600     106.07     80.000     3.0000     1.5000    0.12000E-02
 23.600     108.56     69.500     1.0000     1.5000    0.12000E-02
 23.600     111.04     61.700     1.9000     1.5000    0.12000E-02
 23.600     113.52     52.000     1.1000     1.5000    0.12000E-02
 23.600     116.00     45.600     3.2000     1.5000    0.12000E-02
 23.600     118.42     39.000    0.60000     1.5000    0.12000E-02
 23.600     120.96     33.200    0.50000     1.5000    0.12000E-02
 23.600     123.43     30.900    0.60000     1.5000    0.12000E-02
 23.600     125.91     28.400     1.0000     1.5000    0.12000E-02
 23.600     128.38     24.400    0.40000     1.5000    0.12000E-02
 23.600     130.85     21.000    0.30000     1.5000    0.12000E-02
 23.600     133.32     19.500    0.30000     1.5000    0.12000E-02
 23.600     135.78     17.900    0.30000     1.5000    0.12000E-02
 23.600     138.25     15.900    0.30000     1.5000    0.12000E-02
 23.600     140.71     15.000    0.30000     1.5000    0.12000E-02
 23.600     143.17     13.100    0.30000     1.5000    0.12000E-02
 23.600     145.64     12.300    0.60000     1.5000    0.12000E-02
 23.600     148.10     11.200    0.30000     1.5000    0.12000E-02
 23.600     150.55     11.000    0.30000     1.5000    0.12000E-02
 23.600     153.01     10.400    0.20000     1.5000    0.12000E-02
 23.600     155.47     9.8700    0.22000     1.5000    0.12000E-02
 23.600     157.92     9.2600    0.25000     1.5000    0.12000E-02
 23.600     160.38     8.5900    0.23000     1.5000    0.12000E-02
 23.600     162.83     8.5600    0.23000     1.5000    0.12000E-02
 23.600     165.29     8.4600    0.23000     1.5000    0.12000E-02
 23.600     167.74     8.1300    0.22000     1.5000    0.12000E-02
 23.600     170.19     7.7800    0.21000     1.5000    0.12000E-02
 23.600     172.64     7.8300    0.21000     1.5000    0.12000E-02
 23.600     175.10     7.9600    0.22000     1.5000    0.12000E-02
 27.600     10.190    0.73900E+06 28000.     1.7000    0.80000E-03
 27.600     12.740    0.29900E+06 15000.     1.7000    0.80000E-03
 27.600     15.290    0.15100E+06 5000.0     1.7000    0.80000E-03
 27.600     17.830     81100.     2900.0     1.7000    0.80000E-03
 27.600     20.380     49600.     2500.0     1.7000    0.80000E-03
 27.600     22.920     29600.     1100.0     1.7000    0.80000E-03
 27.600     25.470     21500.     400.00     1.7000    0.80000E-03
 27.600     28.010     14700.     200.00     1.7000    0.80000E-03
 27.600     30.550     9880.0     160.00     1.7000    0.80000E-03
 27.600     33.100     7170.0     110.00     1.7000    0.80000E-03
 27.600     35.640     5440.0     100.00     1.7000    0.80000E-03
 27.600     38.170     4180.0     80.000     1.7000    0.80000E-03
 27.600     40.710     3590.0     20.000     1.7000    0.80000E-03
 27.600     43.250     2860.0     10.000     1.7000    0.80000E-03
 27.600     45.780     2450.0     20.000     1.7000    0.80000E-03
 27.600     48.320     1960.0     10.000     1.7000    0.80000E-03
 27.600     50.850     1640.0     20.000     1.7000    0.80000E-03
 27.600     53.380     1280.0     80.000     1.7000    0.80000E-03
 27.600     55.910     1060.0     10.000     1.7000    0.80000E-03
 27.600     58.430     834.00     6.0000     1.7000    0.80000E-03
 27.600     60.600     649.00     6.0000     1.7000    0.80000E-03
 27.600     63.480     516.00     5.0000     1.7000    0.80000E-03
 27.600     66.000     399.00     5.0000     1.7000    0.80000E-03
 27.600     68.520     315.00     4.0000     1.7000    0.80000E-03
 27.600     71.040     247.00     2.0000     1.7000    0.80000E-03
 27.600     73.560     191.00     2.0000     1.7000    0.80000E-03
 27.600     76.070     149.00     2.0000     1.7000    0.80000E-03
 27.600     78.580     117.00     1.0000     1.7000    0.80000E-03
 27.600     81.090     94.200     1.2000     1.7000    0.80000E-03
 27.600     83.600     74.800    0.90000     1.7000    0.80000E-03
 27.600     86.100     59.500    0.60000     1.7000    0.80000E-03
 27.600     88.610     47.700    0.50000     1.7000    0.80000E-03
 27.600     91.110     38.200    0.50000     1.7000    0.80000E-03
 27.600     93.610     31.400    0.40000     1.7000    0.80000E-03
 27.600     96.100     25.700    0.40000     1.7000    0.80000E-03
 27.600     98.600     22.200     1.0000     1.7000    0.80000E-03
 27.600     101.09     17.200    0.30000     1.7000    0.80000E-03
 27.600     103.58     14.900    0.50000     1.7000    0.80000E-03
 27.600     106.07     12.600    0.70000     1.7000    0.80000E-03
 27.600     108.56     10.100    0.50000     1.7000    0.80000E-03
 27.600     111.04     8.7100    0.37000     1.7000    0.80000E-03
 27.600     113.52     7.5100    0.21000     1.7000    0.80000E-03
 27.600     116.52     6.1800    0.30000     1.7000    0.80000E-03
 27.600     118.42     5.6900    0.45000     1.7000    0.80000E-03
 27.600     120.96     4.6300    0.36000     1.7000    0.80000E-03
 27.600     123.43     4.3200    0.34000     1.7000    0.80000E-03
 27.600     125.91     3.6600    0.36000     1.7000    0.80000E-03
 27.600     128.38     3.4600    0.19000     1.7000    0.80000E-03
 27.600     130.85     2.9500    0.11000     1.7000    0.80000E-03
 27.600     133.32     2.5500    0.11000     1.7000    0.80000E-03
 27.600     135.78     2.2800    0.50000E-01 1.7000    0.80000E-03
 27.600     138.25     2.0100    0.50000E-01 1.7000    0.80000E-03
 27.600     140.71     1.8300    0.40000E-01 1.7000    0.80000E-03
 27.600     143.17     1.6700    0.80000E-01 1.7000    0.80000E-03
 27.600     145.64     1.6200    0.40000E-01 1.7000    0.80000E-03
 27.600     148.10     1.4800    0.40000E-01 1.7000    0.80000E-03
 27.600     150.55     1.4100    0.40000E-01 1.7000    0.80000E-03
 27.600     153.01     1.2800    0.11000     1.7000    0.80000E-03
 27.600     155.47     1.1900    0.30000E-01 1.7000    0.80000E-03
 27.600     157.92     1.0200    0.30000E-01 1.7000    0.80000E-03
 27.600     160.38     1.0300    0.30000E-01 1.7000    0.80000E-03
 27.600     162.83     1.0200    0.30000E-01 1.7000    0.80000E-03
 27.600     165.29    0.96600    0.22000E-01 1.7000    0.80000E-03
 27.600     167.74    0.99100    0.29000E-01 1.7000    0.80000E-03
 27.600     170.19    0.91800    0.48000E-01 1.7000    0.80000E-03
 27.600     172.64    0.94500    0.34000E-01 1.7000    0.80000E-03
 27.600     175.10    0.91500    0.27000E-01 1.7000    0.80000E-03
ENDDATA            136
ENDSUBENT          144
SUBENT        F0700011   20050621   20050831                  F022
BIB                  3          3
REACTION   (83-BI-209(A,EL)83-BI-209,,DA)
SAMPLE     Bi target : evaporated
STATUS     (CURVE)Table 2
ENDBIB               3
COMMON               1          3
THICKNESS
G/CM-SQ
 0.001
ENDCOMMON            3
DATA                 5        135
EN         ANG-CM     DATA-CM    DATA-ERR1  DATA-ERR2
MEV        ADEG       MB/SR      MB/SR      PER-CENT
 23.650     10.190    0.10300E+07 30000.     1.5000
 23.650     12.740    0.43400E+06 11000.     1.5000
 23.650     15.280    0.20900E+06 2000.0     1.5000
 23.650     17.830    0.12000E+06 1000.0     1.5000
 23.650     20.380     68200.     700.00     1.5000
 23.650     22.920     42900.     700.00     1.5000
 23.650     25.460     28100.     300.00     1.5000
 23.650     28.010     19100.     200.00     1.5000
 23.650     30.550     13900.     100.00     1.5000
 23.650     33.090     10000.     100.00     1.5000
 23.650     35.630     7490.0     100.00     1.5000
 23.650     38.170     5720.0     70.000     1.5000
 23.650     40.710     4680.0     40.000     1.5000
 23.650     43.240     3680.0     30.000     1.5000
 23.650     45.780     2980.0     30.000     1.5000
 23.650     48.310     2380.0     20.000     1.5000
 23.650     50.840     1980.0     30.000     1.5000
 23.650     53.370     1700.0     20.000     1.5000
 23.650     55.900     1450.0     10.000     1.5000
 23.650     58.430     1280.0     10.000     1.5000
 23.650     60.950     1080.0     10.000     1.5000
 23.650     63.470     967.00     9.0000     1.5000
 23.650     66.000     876.00     10.000     1.5000
 23.650     68.510     764.00     9.0000     1.5000
 23.650     71.030     682.00     6.0000     1.5000
 23.650     73.550     594.00     4.0000     1.5000
 23.650     76.060     524.00     5.0000     1.5000
 23.650     78.570     449.00     5.0000     1.5000
 23.650     81.080     393.00     5.0000     1.5000
 23.650     83.590     351.00     4.0000     1.5000
 23.650     86.090     310.00     4.0000     1.5000
 23.650     88.600     274.00     3.0000     1.5000
 23.650     91.100     234.00     3.0000     1.5000
 23.650     93.600     210.00     3.0000     1.5000
 23.650     96.090     179.00     3.0000     1.5000
 23.650     98.590     156.00     2.0000     1.5000
 23.650     101.08     139.00     2.0000     1.5000
 23.650     103.57     119.00     2.0000     1.5000
 23.650     106.06     105.00     2.0000     1.5000
 23.650     108.55     91.700     1.3000     1.5000
 23.650     111.03     80.300     1.6000     1.5000
 23.650     113.51     71.900     1.2000     1.5000
 23.650     116.00     62.800    0.50000     1.5000
 23.650     118.47     57.400    0.70000     1.5000
 23.650     120.95     50.600    0.40000     1.5000
 23.650     123.43     45.200    0.70000     1.5000
 23.650     125.90     40.900    0.90000     1.5000
 23.650     128.37     35.800    0.60000     1.5000
 23.650     130.84     32.800    0.40000     1.5000
 23.650     133.31     29.800    0.40000     1.5000
 23.650     135.78     26.800    0.40000     1.5000
 23.650     138.24     24.800    0.30000     1.5000
 23.650     140.71     22.700    0.30000     1.5000
 23.650     143.17     21.200    0.30000     1.5000
 23.650     145.63     20.400    0.20000     1.5000
 23.650     148.09     18.300    0.30000     1.5000
 23.650     150.55     17.500    0.20000     1.5000
 23.650     153.01     15.900    0.20000     1.5000
 23.650     155.46     15.600    0.20000     1.5000
 23.650     157.92     14.300    0.10000     1.5000
 23.650     160.38     13.700    0.20000     1.5000
 23.650     162.83     13.400    0.10000     1.5000
 23.650     165.28     12.900    0.10000     1.5000
 23.650     167.74     12.500    0.20000     1.5000
 23.650     170.19     12.300    0.20000     1.5000
 23.650     172.64     12.100    0.20000     1.5000
 23.650     175.10     12.300    0.20000     1.5000
 27.500     10.190    0.76400E+06 31000.     1.5000
 27.500     12.740    0.33100E+06 10000.     1.5000
 27.500     15.280    0.15400E+06 5000.0     1.5000
 27.500     17.830     86400.     2400.0     1.5000
 27.500     20.380     48900.     1000.0     1.5000
 27.500     22.920     31800.     600.00     1.5000
 27.500     25.460     21400.     300.00     1.5000
 27.500     28.010     14800.     200.00     1.5000
 27.500     30.550     10500.     200.00     1.5000
 27.500     33.090     7260.0     90.000     1.5000
 27.500     35.630     5570.0     70.000     1.5000
 27.500     38.170     4280.0     50.000     1.5000
 27.500     40.710     3250.0     20.000     1.5000
 27.500     43.240     2770.0     20.000     1.5000
 27.500     45.780     2300.0     10.000     1.5000
 27.500     48.310     1950.0     10.000     1.5000
 27.500     50.840     1610.0     10.000     1.5000
 27.500     53.370     1290.0     10.000     1.5000
 27.500     55.900     1050.0     10.000     1.5000
 27.500     58.430     838.00     4.0000     1.5000
 27.500     60.950     673.00     3.0000     1.5000
 27.500     63.470     541.00     3.0000     1.5000
 27.500     66.000     413.00     2.0000     1.5000
 27.500     68.510     335.00     2.0000     1.5000
 27.500     71.030     267.00     2.0000     1.5000
 27.500     73.550     208.00     1.0000     1.5000
 27.500     76.060     163.00     1.0000     1.5000
 27.500     78.570     131.00     1.0000     1.5000
 27.500     81.080     99.800     1.1000     1.5000
 27.500     83.590     83.700     1.0000     1.5000
 27.500     86.090     64.300    0.80000     1.5000
 27.500     88.600     52.200    0.70000     1.5000
 27.500     91.100     42.400    0.60000     1.5000
 27.500     93.600     34.800    0.50000     1.5000
 27.500     96.090     28.300    0.50000     1.5000
 27.500     98.590     23.600    0.40000     1.5000
 27.500     101.08     18.900    0.30000     1.5000
 27.500     103.57     15.300    0.40000     1.5000
 27.500     106.06     12.600    0.30000     1.5000
 27.500     108.55     11.000    0.20000     1.5000
 27.500     111.03     8.9100    0.23000     1.5000
 27.500     113.51     7.8300    0.21000     1.5000
 27.500     116.00     6.3200    0.10000     1.5000
 27.500     118.47     5.6100    0.13000     1.5000
 27.500     120.95     4.7300    0.70000E-01 1.5000
 27.500     123.43     4.1400    0.80000E-01 1.5000
 27.500     125.90     3.7500    0.14000     1.5000
 27.500     128.37     3.2300    0.70000E-01 1.5000
 27.500     130.84     2.8600    0.60000E-01 1.5000
 27.500     133.31     2.4000    0.70000E-01 1.5000
 27.500     135.78     2.2500    0.60000E-01 1.5000
 27.500     138.24     2.0300    0.60000E-01 1.5000
 27.500     140.71     1.8000    0.60000E-01 1.5000
 27.500     143.17     1.7200    0.40000E-01 1.5000
 27.500     145.63     1.6000    0.40000E-01 1.5000
 27.500     148.09     1.4500    0.40000E-01 1.5000
 27.500     150.55     1.4000    0.40000E-01 1.5000
 27.500     153.01     1.2900    0.50000E-01 1.5000
 27.500     155.46     1.2200    0.50000E-01 1.5000
 27.500     157.92     1.0400    0.20000E-01 1.5000
 27.500     160.38    0.93800    0.19000E-01 1.5000
 27.500     162.83    0.90000    0.27000E-01 1.5000
 27.500     165.28    0.86100    0.93000E-01 1.5000
 27.500     167.74    0.78200    0.85000E-01 1.5000
 27.500     170.19    0.76600    0.61000E-01 1.5000
 27.500     172.64    0.75200    0.56000E-01 1.5000
 27.500     175.10    0.78600    0.63000E-01 1.5000
 27.500     177.55    0.81800    0.62000E-01 1.5000
ENDDATA            137
ENDSUBENT          149
ENDENTRY            11
