ENTRY            F0717   20050727   20050831                  F022
SUBENT        F0717001   20050727   20050831                  F022
BIB                  8         11
TITLE      Study of the 6Li+16O light heavy-ion system around the
           Coulomb barrier.
AUTHOR     (K.Glasner,L.Ricken,E.Kuhlmann)
INSTITUTE  (2GERBOC)
REFERENCE  (J,NP/A,452,150,1986)
FACILITY   (DYNAM) 4 MV Dynamitron Tandem accelerator.
INC-SOURCE 6Li beam.
INC-SPECT  Energy was up to 150 particle-nA. With the help of a
           set of collimators the beam spot on the target was
           focused to about 2.5 mm diameter.
HISTORY    (20050524C)
ENDBIB              11
NOCOMMON             0          0
ENDSUBENT           14
SUBENT        F0717002   20050727   20050831                  F022
BIB                  7         28
REACTION   (8-O-16(3-LI-6,P)10-NE-21,PAR,SIG)
SAMPLE     25 mu-g/cm2 thin self-supporting SiO2 target of natural
           isotopic composition was mounted in the center of a 42
           cm diameter scattering chamber.
DETECTOR   (SIBAR) Six detectors of nominal thickness 1.0-3.0 mm,
           each subtending a solid angle of about 1 msr were used.
           Faraday cup was used. Secondary-electron emission was
           suppressed be a coper ring biased to -400 V in front of
           the cup, thus enabling the collected charge to be
           measured with an error of about 3%.
METHOD     (BCINT) Beam reaching the cup had to be determined for
           each bombarding energy by comparison of the beam
           current with and without hitting the target. This
           procedure introduced an additional error of 4%.
           Thin (10-20 microns) Al foils were placed in front of
           the forward-angle detectors in order to stop
           elastically scatered 6Li ions.
ANALYSIS   Total cross sections were deduced by analysing the
           proton angular distributions in terms of a Legendre
           polynominal expansion.
ERR-ANALYS (EN-ERR-DIG) Digitizing error
           (ERR-DIG)    Digitizing error
           (DATA-ERR)   Error from the graphic bars
           Differential cross sections could be deduced with an
           estimated error of about 25%, the main contribution
           stemming from the uncertainty in the actual target
           thickness.
STATUS     (CURVE)Fig.3
ENDBIB              28
COMMON               2          3
EN-ERR-DIG ERR-DIG
MEV        MB
0.01       0.01
ENDCOMMON            3
DATA                 4        151
E-LVL      EN         DATA       DATA-ERR
KEV        MEV        MB         MB
 0.0000     4.4901    0.79793
 0.0000     4.5852    0.98613
 0.0000     4.6807     1.0653
 0.0000     4.7939     1.0980
 0.0000     4.8900     1.0681
 0.0000     4.9253    0.95957
 0.0000     4.9777    0.94470
 0.0000     5.0811     1.2265
 0.0000     5.1854     1.2902
 0.0000     5.2798     1.6497
 0.0000     5.3842     1.6978
 0.0000     5.4814     1.4032
 0.0000     5.5857     1.4825
 0.0000     5.6898     1.5929
 0.0000     5.7765     1.7031
 0.0000     5.8808     1.7824
 0.0000     5.9772     1.6591
 0.0000     6.0723     1.8629
 0.0000     6.1847     2.0825
 0.0000     6.2717     2.1148
 0.0000     6.3771     1.9293
 0.0000     6.4815     1.9930
 0.0000     6.5772     2.0410
 0.0000     6.6734     1.9645
 0.0000     6.7706     1.6698
 0.0000     6.8764     1.3753
 0.0000     6.9730     1.2053
 0.0000     7.0771     1.3469
 0.0000     7.1724     1.4883
 0.0000     7.2677     1.6298
 0.0000     7.3200     1.6305
 0.0000     7.3721     1.6780
 0.0000     7.4677     1.7415
 0.0000     7.5624     2.0232    0.10902
 0.0000     7.6581     2.0868    0.10902
 0.0000     7.7623     2.1661    0.10902
 0.0000     7.8589     2.0116    0.93449E-01
 0.0000     7.9554     1.8727    0.10902
 350.70     4.4985    0.76952
 350.70     4.5931     1.0395
 350.70     4.6885     1.1516
 350.70     4.7846     1.1057
 350.70     4.8984     1.0128
 350.70     4.9250    0.91847
 350.70     4.9941     1.0459
 350.70     5.0893     1.1896
 350.70     5.1939     1.2070
 350.70     5.2974     1.4298
 350.70     5.3917     1.7629
 350.70     5.4945     2.1278
 350.70     5.5895     2.3188
 350.70     5.6838     2.6362    0.94748E-01
 350.70     5.7792     2.7483    0.11054
 350.70     5.8834     2.8447    0.94609E-01
 350.70     5.9802     2.6567    0.94748E-01
 350.70     6.0762     2.6267    0.94748E-01
 350.70     6.1801     2.7862    0.94748E-01
 350.70     6.2745     3.0878    0.94748E-01
 350.70     6.3872     3.2159    0.94748E-01
 350.70     6.4814     3.5649    0.94748E-01
 350.70     6.5776     3.5033    0.78956E-01
 350.70     6.6816     3.6313    0.94748E-01
 350.70     6.7784     3.4591    0.94748E-01
 350.70     6.8753     3.2395    0.94748E-01
 350.70     6.9818     2.8622    0.94748E-01
 350.70     7.0792     2.5479    0.11040
 350.70     7.1840     2.5180    0.11040
 350.70     7.2803     2.4248    0.12633
 350.70     7.3336     2.2361    0.94748E-01
 350.70     7.3857     2.2686    0.78957E-01
 350.70     7.4739     2.0647
 350.70     7.5766     2.4611    0.11054
 350.70     7.6721     2.5416    0.94748E-01
 350.70     7.7749     2.9065    0.11054
 350.70     7.8708     2.9238    0.11054
 350.70     7.9835     3.0361    0.12619
 1745.9     4.4987    0.69023
 1745.9     4.5936    0.89327
 1745.9     4.6888     1.0343
 1745.9     4.7922     1.2685
 1745.9     4.8877     1.3475
 1745.9     4.9223     1.4101
 1745.9     4.9819     1.6901
 1745.9     5.0892     1.1493
 1745.9     5.1938     1.1665
 1745.9     5.2890     1.2920
 1745.9     5.3856     1.1541
 1745.9     5.4812     1.2176
 1745.9     5.5944     1.2504
 1745.9     5.6893     1.4380
 1745.9     5.7850     1.4860
 1745.9     5.8977     1.6118
 1745.9     5.9845     1.6907
 1745.9     6.0884     1.8319
 1745.9     6.1915     2.1126
 1745.9     6.2868     2.2381
 1745.9     6.3908     2.3638
 1745.9     6.4849     2.7218
 1745.9     6.5886     2.8940
 1745.9     6.6843     2.9421
 1745.9     6.7886     3.0057
 1745.9     6.8841     3.0693
 1745.9     6.9897     2.8850
 1745.9     7.0949     2.7782
 1745.9     7.1812     2.9501
 1745.9     7.2847     3.1688
 1745.9     7.3386     2.8596    0.10849
 1745.9     7.3810     3.0773    0.77355E-01
 1745.9     7.4863     2.9550    0.62137E-01
 1745.9     7.5796     3.4525    0.10849
 1745.9     7.6749     3.5781    0.12399
 1745.9     7.8757     3.5193    0.12399
 1745.9     7.9803     3.5210    0.13949
 3884.3     4.4672    0.39673
 3884.3     4.5732    0.30550
 3884.3     4.6771    0.48024
 3884.3     4.7818    0.54546
 3884.3     4.8676    0.78235
 3884.3     4.8944    0.72042
 3884.3     4.9599     1.3167
 3884.3     5.0654     1.2881
 3884.3     5.1685     1.5567
 3884.3     5.2635     1.7468
 3884.3     5.3673     1.9372
 3884.3     5.4723     1.9712
 3884.3     5.5711     1.6763
 3884.3     5.6712     1.2094
 3884.3     5.7756     1.3215
 3884.3     5.8626     1.4176
 3884.3     5.9755     1.5613
 3884.3     6.0638     1.4853
 3884.3     6.1685     1.5505
 3884.3     6.2639     1.6937
 3884.3     6.3500     1.8993
 3884.3     6.4620     2.1525
 3884.3     6.5585     2.1549
 3884.3     6.6559     2.0322
 3884.3     6.7607     2.0974
 3884.3     6.8658     2.1157
 3884.3     6.9629     2.0399
 3884.3     7.0670     2.1833
 3884.3     7.1737     1.9982
 3884.3     7.2619     1.9379
 3884.3     7.3245     1.7830
 3884.3     7.3679     1.8466
 3884.3     7.4715     2.0527
 3884.3     7.5791     1.7581
 3884.3     7.6590     2.7459    0.10952
 3884.3     7.7520     3.1864    0.10952
 3884.3     7.8492     3.0950    0.10952
 3884.3     7.9523     3.3792    0.14081
ENDDATA            153
ENDSUBENT          190
SUBENT        F0717003   20050727   20050831                  F022
BIB                  7         28
REACTION   (8-O-16(3-LI-6,P)10-NE-21,PAR,SIG,G)
SAMPLE     25 mu-g/cm2 thin self-supporting SiO2 target of natural
           isotopic composition was mounted in the center of a 42
           cm diameter scattering chamber.
DETECTOR   (SIBAR) Six detectors of nominal thickness 1.0-3.0 mm,
           each subtending a solid angle of about 1 msr were used.
           Faraday cup was used. Secondary-electron emission was
           suppressed be a coper ring biased to -400 V in front of
           the cup, thus enabling the collected charge to be
           measured with an error of about 3%.
METHOD     (BCINT) Beam reaching the cup had to be determined for
           each bombarding energy by comparison of the beam
           current with and without hitting the target. This
           procedure introduced an additional error of 4%.
           Thin (10-20 microns) Al foils were placed in front of
           the forward-angle detectors in order to stop
           elastically scatered 6Li ions.
ANALYSIS   Total cross sections were deduced by analysing the
           proton angular distributions in terms of a Legendre
           polynominal expansion.
ERR-ANALYS (EN-ERR-DIG) Digitizing error
           (ERR-DIG)    Digitizing error
           (DATA-ERR)   Error from the graphic bars
           Differential cross sections could be deduced with an
           estimated error of about 25%, the main contribution
           stemming from the uncertainty in the actual target
           thickness.
STATUS     (CURVE)Fig.3
ENDBIB              28
COMMON               2          3
EN-ERR-DIG ERR-DIG
MEV        MB
0.01       0.01
ENDCOMMON            3
DATA                 5         76
E-LVL-MIN  E-LVL-MAX  EN         DATA       DATA-ERR
KEV        KEV        MEV        MB         MB
 2788.8     2866.2     4.4405    0.69152
 2788.8     2866.2     4.5445    0.95342
 2788.8     2866.2     4.6496    0.98062
 2788.8     2866.2     4.7366     1.1245
 2788.8     2866.2     4.8317     1.4096
 2788.8     2866.2     4.8588     1.2462
 2788.8     2866.2     4.9364     1.5072
 2788.8     2866.2     5.0309     1.9096
 2788.8     2866.2     5.1257     2.2651
 2788.8     2866.2     5.2285     2.7617
 2788.8     2866.2     5.3411     3.0474
 2788.8     2866.2     5.4207     2.9094
 2788.8     2866.2     5.5445     2.7025
 2788.8     2866.2     5.6393     3.0580
 2788.8     2866.2     5.7345     3.3196
 2788.8     2866.2     5.8369     3.8866
 2788.8     2866.2     5.9341     3.7492
 2788.8     2866.2     6.0375     4.1285
 2788.8     2866.2     6.1409     4.5077
 2788.8     2866.2     6.2273     4.7690
 2788.8     2866.2     6.3407     4.8904
 2788.8     2866.2     6.4363     5.0816
 2788.8     2866.2     6.5346     4.7094
 2788.8     2866.2     6.6240     4.3605
 2788.8     2866.2     6.7291     4.3877
 2788.8     2866.2     6.8249     4.5319
 2788.8     2866.2     6.9296     4.6530
 2788.8     2866.2     7.0349     4.6332
 2788.8     2866.2     7.1402     4.6370
 2788.8     2866.2     7.2384     4.2883
 2788.8     2866.2     7.2926     3.9616
 2788.8     2866.2     7.3340     4.4560
 2788.8     2866.2     7.4391     4.4832
 2788.8     2866.2     7.5338     4.8622    0.16430
 2788.8     2866.2     7.6298     4.9594    0.18777
 2788.8     2866.2     7.7263     4.9394    0.16461
 2788.8     2866.2     7.8280     5.6707    0.16430
 2788.8     2866.2     7.9318     5.9561    0.16430
 3663.7     3753.3     4.4302    0.90900
 3663.7     3753.3     4.5343     1.1235
 3663.7     3753.3     4.6387     1.2912
 3663.7     3753.3     4.7249     1.5752
 3663.7     3753.3     4.8302     1.5558
 3663.7     3753.3     4.8559     1.6737
 3663.7     3753.3     4.9244     1.9805
 3663.7     3753.3     5.0277     2.3587
 3663.7     3753.3     5.1239     2.4091
 3663.7     3753.3     5.2212     2.2491
 3663.7     3753.3     5.3181     2.1826
 3663.7     3753.3     5.4216     2.5140
 3663.7     3753.3     5.5177     2.5878
 3663.7     3753.3     5.6216     2.8257
 3663.7     3753.3     5.7264     2.9233
 3663.7     3753.3     5.8201     3.4415
 3663.7     3753.3     5.9243     3.6326
 3663.7     3753.3     6.0294     3.6599
 3663.7     3753.3     6.1346     3.6873
 3663.7     3753.3     6.2195     4.2052
 3663.7     3753.3     6.3254     4.0923
 3663.7     3753.3     6.4208     4.2830
 3663.7     3753.3     6.5181     4.1464
 3663.7     3753.3     6.6238     4.0568
 3663.7     3753.3     6.7211     3.8968
 3663.7     3753.3     6.8187     3.6900
 3663.7     3753.3     6.9231     3.8577    0.16371
 3663.7     3753.3     7.0268     4.1423    0.14033
 3663.7     3753.3     7.1312     4.3101    0.16371
 3663.7     3753.3     7.2355     4.4778    0.16405
 3663.7     3753.3     7.2810     4.1754    0.14033
 3663.7     3753.3     7.3232     4.4811
 3663.7     3753.3     7.4217     4.1106
 3663.7     3753.3     7.5233     4.7928    0.21082
 3663.7     3753.3     7.6208     4.6094    0.16371
 3663.7     3753.3     7.7184     4.4026    0.16338
 3663.7     3753.3     7.8165     4.1022    0.16371
 3663.7     3753.3     7.9228     3.8957    0.18677
ENDDATA             78
ENDSUBENT          115
SUBENT        F0717004   20050727   20050831                  F022
BIB                  7         20
REACTION   (8-O-16(3-LI-6,P)10-NE-21,PAR,SIG,G)
INC-SOURCE 6Li2+ beam passed through a liquid-nitrogen trap.
           6Li+3 charge state was used to maintain reasonable
           beam for energies in excess of 8 MeV.
EN-SEC     (E-LVL-INI,10-NE-21)
           (E-LVL-FIN,10-NE-21)
SAMPLE     100 mu-g/cm2 MoO3 layer evaporated on 0.1 mm thick,
           air-cooled Ta backing was used.The target thickness
           corresponds to an energy loss of the Li6 ions of 160
            (70) keV at ELi=4(12) MeV.
DETECTOR   (GELI) 120 cm3 detector of 1.95 keV resolution at
            E gamma = 1.33 MeV was placed at a distance of 85 mm
            from the target.
ERR-ANALYS (EN-ERR-DIG) Digitizing error
           (ERR-DIG)    Digitizing error
           (DATA-ERR)   Error from the graphic bars
           (ERR-T)      Overall error was mainly due to
           uncerntainties with respect to actual thickness and
           homogenety of the MoO3 target layer.
STATUS     (CURVE)Fig.5
ENDBIB              20
COMMON               5          3
E-LVL-INI  E-LVL-FIN  ERR-T      EN-ERR-DIG ERR-DIG
KEV        KEV        PER-CENT   MEV        MB
 350.7      0.         20.        0.02       0.07
ENDCOMMON            3
DATA                 3         83
EN         DATA       DATA-ERR
MEV        MB         MB
 4.0943     2.3531
 4.1948     3.1203
 4.2953     3.8184
 4.4046     4.9314
 4.5043     6.2509
 4.5945     7.7769
 4.6936     9.5797    0.48332
 4.9020     12.496    0.55167
 4.9920     14.160    0.62141
 5.0910     16.031    0.82855
 5.1892     18.525    0.89759
 5.2877     20.742    0.96664
 5.3863     22.890     1.1738
 5.4853     24.762     1.2428
 5.5835     27.255     1.3119
 5.6831     28.644     1.4500
 5.7819     30.723     1.5880
 5.8807     32.733     1.5190
 5.9810     33.638     1.7261
 6.0812     34.612     1.6571
 6.1894     36.485     1.8642
 6.2880     38.633     1.8642
 6.3872     40.366     2.0023
 6.4947     42.791     2.1404
 6.5939     44.525     2.2095
 6.6956     44.395     2.2095
 6.7967     44.678     2.2785
 6.8978     44.962     2.2095
 7.0000     44.487     2.2785
 7.0997     45.806     2.3476
 7.2014     45.676     2.3469
 7.2951     44.647     2.2095
 7.3960     45.069     2.2095
 7.4959     46.250     2.2095
 7.5935     49.158     2.4863
 7.7103     51.514     2.5540
 7.8019     52.074     2.6237
 7.8954     51.114     2.5547
 7.9869     51.742     2.6237
 8.0872     52.647     2.7618
 8.1876     53.484     2.6237
 8.2869     55.079     2.7618
 8.3884     55.087     2.6928
 8.4826     53.713     2.6244
 8.5931     53.859     2.6928
 8.6954     53.246     2.6928
 8.7882     52.907     2.6237
 8.8901     52.639     2.6928
 8.9925     51.956     2.6237
 9.0906     54.449     2.6928
 9.1914     55.009     2.8316
 9.2930     54.948     2.7625
 9.3947     54.817     2.6928
 9.4970     54.204     2.6928
 9.5886     54.694     2.7625
 9.6823     53.665     2.6935
 9.7934     53.397     2.6237
 9.8959     52.645     2.6237
 9.9876     53.067     2.6935
 10.088     53.696     2.6928
 10.191     52.737     2.6928
 10.291     53.780     2.6928
 10.392     54.340     2.6237
 10.485     54.002     2.6935
 10.588     52.559     2.6237
 10.683     50.909     2.6244
 10.786     49.536     2.4856
 10.880     48.645     2.4166
 10.990     48.792     2.4166
 11.184     48.323     2.3475
 11.287     47.916     2.3476
 11.389     46.957     2.2785
 11.490     47.241     2.3475
 11.592     47.042     2.3476
 11.694     46.635     2.3475
 11.788     45.261     2.2095
 11.891     44.302     2.2095
 11.991     45.276     2.2095
 12.095     43.903     2.1404
 12.196     44.118     2.2095
 12.297     44.332     2.2095
 12.392     42.751     2.0714
 12.495     41.516     2.0714
ENDDATA             85
ENDSUBENT          114
SUBENT        F0717005   20050727   20050831                  F022
BIB                  7         20
REACTION   (8-O-16(3-LI-6,N)11-NA-21,PAR,SIG,G)
INC-SOURCE 6Li2+ beam passed through a liquid-nitrogen trap.
           6Li+3 charge state was used to maintain reasonable
           beam for energies in excess of 8 MeV.
EN-SEC     (E-LVL-INI,11-NA-21)
           (E-LVL-FIN,11-NA-21)
SAMPLE     100 mu-g/cm2 MoO3 layer evaporated on 0.1 mm thick,
           air-cooled Ta backing was used.The target thickness
           corresponds to an energy loss of the Li6 ions of 160
            (70) keV at ELi=4(12) MeV.
DETECTOR   (GELI) 120 cm3 detector of 1.95 keV resolution at
            E gamma = 1.33 MeV was placed at a distance of 85 mm
            from the target.
ERR-ANALYS (EN-ERR-DIG) Digitizing error
           (ERR-DIG)    Digitizing error
           (DATA-ERR)   Error from the graphic bars
           (ERR-T)      Overall error was mainly due to
           uncerntainties with respect to actual thickness and
           homogenety of the MoO3 target layer.
STATUS     (CURVE)Fig.5
ENDBIB              20
COMMON               5          3
E-LVL-INI  E-LVL-FIN  ERR-T      EN-ERR-DIG ERR-DIG
KEV        KEV        PER-CENT   MEV        MB
 331.9      0.         20.        0.02       0.02
ENDCOMMON            3
DATA                 3         83
EN         DATA       DATA-ERR
MEV        MB         MB
 4.0964    0.42197
 4.1970    0.57939
 4.3069    0.73701
 4.3982    0.91151
 4.4984     1.1380
 4.5991     1.2954
 4.6989     1.5909    0.86114E-01
 4.8983     2.2165    0.10338
 4.9993     2.3048    0.10356
 5.0899     2.6002    0.13809
 5.1884     3.1201    0.12082
 5.2965     3.5884    0.17242
 5.3948     4.1428    0.18968
 5.4854     4.4381    0.20713
 5.5833     5.0616    0.24165
 5.6837     5.2535    0.25891
 5.7776     4.9792    0.24184
 5.8860     5.3958    0.25872
 5.9850     5.8294    0.27617
 6.0858     5.9523    0.27617
 6.1856     6.2478    0.29343
 6.2839     6.8022    0.31069
 6.3928     7.1324    0.32814
 6.4895     7.9630    0.37974
 6.5867     8.7073    0.41426
 6.6869     8.9338    0.44878
 6.7983     8.8325    0.43133
 6.8938     8.2820    0.41426
 6.9962     8.1460    0.41426
 7.1069     8.1483    0.39681
 7.1968     8.5644    0.41426
 7.3039     9.2053    0.44878
 7.3954     9.3453    0.46604
 7.4952     9.6408    0.44878
 7.5941     10.092    0.50056
 7.6977     9.7485    0.46604
 7.7959     10.320    0.51782
 7.8975     10.305    0.50056
 7.9894     10.376    0.50075
 8.0929     10.050    0.51782
 8.1966     9.6724    0.46585
 8.2872     9.9678    0.48311
 8.3953     10.436    0.51763
 8.4896     10.093    0.48330
 8.5891     10.440    0.50056
 8.6929     10.062    0.51782
 8.7922     10.444    0.51782
 8.8874     9.9455    0.48349
 8.9952     10.466    0.51782
 9.0961     10.571    0.51782
 9.1988     10.366    0.50037
 9.2912     10.368    0.50056
 9.3926     10.387    0.51782
 9.4926     10.648    0.51782
 9.5900     11.358    0.56960
 9.6933     11.067    0.56960
 9.7871     10.810    0.53508
 9.8919     10.260    0.50056
 9.9869     9.7954    0.44878
 10.097     9.9012    0.50037
 10.189     9.9377    0.48330
 10.290     10.130    0.48330
 10.382     10.114    0.48330
 10.485     9.8919    0.46604
 10.588     9.6696    0.46604
 10.692     9.2402    0.46585
 10.785     9.0349    0.44878
 10.887     8.9852    0.43152
 10.987     9.1944    0.46604
 11.181     9.1984    0.46623
 11.286     8.6654    0.41426
 11.386     8.9782    0.43152
 11.491     8.4106    0.41426
 11.588     9.0514    0.44878
 11.691     8.8808    0.44878
 11.791     9.1418    0.43152
 11.893     9.0058    0.43152
 11.995     8.9043    0.44878
 12.091     8.3884    0.41426
 12.194     8.1834    0.39700
 12.286     8.1680    0.39719
 12.389     7.9629    0.37974
 12.488     8.2930    0.41426
ENDDATA             85
ENDSUBENT          114
SUBENT        F0717006   20050727   20050831                  F022
BIB                  7         20
REACTION   (8-O-16(3-LI-6,A)9-F-18,PAR,SIG)
INC-SOURCE 6Li2+ beam passed through a liquid-nitrogen trap.
           6Li+3 charge state was used to maintain reasonable
           beam for energies in excess of 8 MeV.
EN-SEC     (E-LVL-INI,9-F-18)
           (E-LVL-FIN,9-F-18)
SAMPLE     100 mu-g/cm2 MoO3 layer evaporated on 0.1 mm thick,
           air-cooled Ta backing was used.The target thickness
           corresponds to an energy loss of the Li6 ions of 160
            (70) keV at ELi=4(12) MeV.
DETECTOR   (GELI) 120 cm3 detector of 1.95 keV resolution at
            E gamma = 1.33 MeV was placed at a distance of 85 mm
            from the target.
ERR-ANALYS (EN-ERR-DIG) Digitizing error
           (ERR-DIG)    Digitizing error
           (DATA-ERR)   Error from the graphic bars
           (ERR-T)      Overall error was mainly due to
           uncerntainties with respect to actual thickness and
           homogenety of the MoO3 target layer.
STATUS     (CURVE)Fig.6
ENDBIB              20
COMMON               4          3
E-LVL-FIN  ERR-T      EN-ERR-DIG ERR-DIG
KEV        PER-CENT   MEV        MB
 0.         20.       0.02       0.03
ENDCOMMON            3
DATA                 4        251
E-LVL-INI  EN         DATA       DATA-ERR
KEV        MEV        MB         MB
 109.90     4.1083     3.3795     1.6805
 109.90     4.2102     4.0270     1.6805
 109.90     4.2991     5.0924     1.6805
 109.90     4.4005     6.5800     1.6805
 109.90     4.5018     8.2778     1.6783
 109.90     4.6036     9.1353     1.6805
 109.90     4.7050     10.623     1.6783
 109.90     4.8943     14.646     1.8905
 109.90     5.0079     17.187     1.8884
 109.90     5.0956     20.142     1.8905
 109.90     5.1830     23.518     2.1006
 109.90     5.2836     26.267     2.1006
 109.90     5.3838     29.645     2.3106
 109.90     5.4848     31.763     2.3106
 109.90     5.5853     34.721     2.3106
 109.90     5.6869     35.998     2.3106
 109.90     5.7872     39.166     2.3106
 109.90     5.8873     42.755     2.5207
 109.90     5.9881     45.293     2.7308
 109.90     6.0889     47.620     2.7308
 109.90     6.1886     51.839     2.7308
 109.90     6.2895     54.167     3.1509
 109.90     6.3912     55.234     2.9408
 109.90     6.4927     56.512     2.9408
 109.90     6.5949     56.739     3.1509
 109.90     6.6841     57.385     2.9451
 109.90     6.7988     58.034     2.9408
 109.90     6.8994     60.782     3.1509
 109.90     6.9995     64.370     3.1509
 109.90     7.0998     67.539     3.5710
 109.90     7.1999     71.127     3.7811
 109.90     7.3013     72.615     3.5710
 109.90     7.4038     72.422     3.7810
 109.90     7.5074     70.338     3.5710
 109.90     7.6083     72.666     3.5710
 109.90     7.7100     73.734     3.7811
 109.90     7.7989     74.799     3.7811
 109.90     7.9018     73.766     3.7832
 109.90     8.0039     74.204     3.7811
 109.90     8.1044     77.162     3.7810
 109.90     8.2067     77.179     3.7810
 109.90     8.3083     78.457     3.9911
 109.90     8.4107     78.264     3.9911
 109.90     8.5145     75.970     3.9889
 109.90     8.6030     77.666     4.2012
 109.90     8.7063     76.003     3.7811
 109.90     8.8096     74.550     3.7810
 109.90     8.9114     75.407     3.7810
 109.90     9.0025     72.902     3.5710
 109.90     9.1050     72.709     3.9911
 109.90     9.2069     73.356     3.7832
 109.90     9.3097     72.533     3.7810
 109.90     9.4108     74.651     3.9911
 109.90     9.5118     76.769     4.2012
 109.90     9.6128     78.887     4.2012
 109.90     9.7139     80.795     4.2012
 109.90     9.8159     81.442     4.2012
 109.90     9.9192     79.779     4.2012
 109.90     10.010     77.483     3.9911
 109.90     10.112     77.921     3.9911
 109.90     10.216     75.837     3.9911
 109.90     10.318     76.905     3.7810
 109.90     10.420     76.712     3.7810
 109.90     10.522     77.149     3.9911
 109.90     10.625     76.116     3.9911
 109.90     10.728     74.873     3.7789
 109.90     10.830     75.101     3.7789
 109.90     10.921     73.225     3.7832
 109.90     11.022     74.923     3.7810
 109.90     11.228     73.907     3.7789
 109.90     11.317     73.502     3.7810
 109.90     11.421     70.999     3.7810
 109.90     11.524     70.596     3.5688
 109.90     11.614     69.771     3.5710
 109.90     11.718     67.688     3.5710
 109.90     11.808     66.442     3.5710
 109.90     11.911     65.829     3.3609
 109.90     12.013     66.687     3.5688
 109.90     12.116     64.604     3.5688
 109.90     12.206     64.619     3.3609
 109.90     12.309     63.166     3.3609
 109.90     12.398     64.441     3.3609
 109.90     12.488     62.986     3.1509
 197.10     3.9947    0.10846    0.30071
 197.10     4.1085    0.48782    0.30071
 197.10     4.2102    0.67884    0.33830
 197.10     4.2993    0.79430    0.26312
 197.10     4.4015    0.83497    0.26312
 197.10     4.5032     1.0260    0.22553
 197.10     4.5918     1.2918    0.22553
 197.10     4.6926     1.7460    0.30071
 197.10     4.8932     2.9174    0.33830
 197.10     4.9818     3.1832    0.33830
 197.10     5.0951     3.7129    0.33792
 197.10     5.1970     3.8287    0.33792
 197.10     5.2862     3.9442    0.33830
 197.10     5.3865     4.5111    0.37551
 197.10     5.4764     4.4010    0.30071
 197.10     5.5760     5.1935    0.37589
 197.10     5.6780     5.3093    0.30071
 197.10     5.7748     6.8912    0.45107
 197.10     5.8792     6.2928    0.37589
 197.10     5.9817     6.2583    0.37551
 197.10     6.0698     6.6745    0.41387
 197.10     6.1695     7.4293    0.41348
 197.10     6.2727     7.1693    0.41348
 197.10     6.3763     6.7965    0.41310
 197.10     6.4648     7.0999    0.41387
 197.10     6.5656     7.5540    0.45107
 197.10     6.6690     7.2564    0.41348
 197.10     6.7701     7.5978    0.41348
 197.10     6.8727     7.5257    0.41348
 197.10     6.9633     7.2276    0.37589
 197.10     7.0644     7.5690    0.41348
 197.10     7.1664     7.6849    0.41348
 197.10     7.2688     7.6504    0.41348
 197.10     7.3687     8.3676    0.45107
 197.10     7.4724     7.9572    0.45107
 197.10     7.5729     8.4866    0.45107
 197.10     7.6748     8.6024    0.45107
 197.10     7.7674     7.7405    0.41348
 197.10     7.8697     7.7436    0.37589
 197.10     7.9713     7.9722    0.41348
 197.10     8.0605     8.0501    0.45107
 197.10     8.1643     7.6397    0.41348
 197.10     8.2647     8.2066    0.45107
 197.10     8.3665     8.3600    0.41348
 197.10     8.4681     8.5511    0.45107
 197.10     8.5719     8.1407    0.45107
 197.10     8.6616     8.1058    0.45145
 197.10     8.7649     7.8081    0.41348
 197.10     8.8786     8.2251    0.45068
 197.10     8.9701     7.6639    0.45107
 197.10     9.0709     8.1181    0.41348
 197.10     9.1721     8.4219    0.45107
 197.10     9.2738     8.6129    0.48866
 197.10     9.3755     8.8039    0.45107
 197.10     9.4760     9.3332    0.48866
 197.10     9.5792     9.0732    0.48866
 197.10     9.6705     8.5872    0.48866
 197.10     9.7827     9.4177    0.48866
 197.10     9.8772     7.9920    0.41348
 197.10     9.9793     8.0702    0.45107
 197.10     10.080     8.4116    0.45107
 197.10     10.172     7.7001    0.41348
 197.10     10.285     8.4929    0.45107
 197.10     10.378     7.5559    0.37589
 197.10     10.492     7.6345    0.41310
 197.10     10.581     7.9003    0.45107
 197.10     10.696     7.9038    0.41310
 197.10     10.784     8.4703    0.45107
 197.10     10.887     8.1351    0.45107
 197.10     10.990     7.9878    0.41348
 197.10     11.184     7.3170    0.41348
 197.10     11.287     7.1697    0.37589
 197.10     11.387     7.9246    0.45107
 197.10     11.501     8.1912    0.45069
 197.10     11.588     8.9456    0.45107
 197.10     11.681     7.9710    0.45145
 197.10     11.780     8.8762    0.45107
 197.10     11.884     8.5034    0.45107
 197.10     11.984     8.9952    0.45107
 197.10     12.077     8.1709    0.45107
 197.10     12.179     8.1740    0.45107
 197.10     12.280     8.4778    0.48866
 197.10     12.369     8.7812    0.45145
 197.10     12.471     8.8218    0.48866
 1345.7     4.0071    0.14556    0.16737
 1345.7     4.1204    0.51091    0.25106
 1345.7     4.2091    0.68038    0.27925
 1345.7     4.3105    0.87806    0.27895
 1345.7     4.4120     1.0478    0.27895
 1345.7     4.5133     1.2455    0.27895
 1345.7     4.6020     1.4150    0.25106
 1345.7     4.7031     1.6684    0.27895
 1345.7     4.9043     2.3706    0.27895
 1345.7     5.0050     2.7078    0.27895
 1345.7     5.1054     3.1007    0.30685
 1345.7     5.2054     3.5774    0.30685
 1345.7     5.3074     3.6355    0.33474
 1345.7     5.3946     4.1119    0.30685
 1345.7     5.4940     4.7001    0.36264
 1345.7     5.5943     5.1209    0.36264
 1345.7     5.6948     5.4860    0.36264
 1345.7     5.7952     5.8789    0.36264
 1345.7     5.8951     6.3834    0.36264
 1345.7     5.9964     6.5811    0.36234
 1345.7     6.0843     6.9179    0.39053
 1345.7     6.1862     7.0040    0.41843
 1345.7     6.2841     7.8991    0.44662
 1345.7     6.3823     8.7383    0.47452
 1345.7     6.4969     8.8526    0.50181
 1345.7     6.5864     8.8547    0.50211
 1345.7     6.6930     7.9924    0.41843
 1345.7     6.7970     7.6601    0.41843
 1345.7     6.8876     7.4390    0.41843
 1345.7     6.9902     7.3856    0.39053
 1345.7     7.0873     8.4480    0.44632
 1345.7     7.1892     8.5341    0.47452
 1345.7     7.2917     8.5086    0.44632
 1345.7     7.3935     8.6226    0.47422
 1345.7     7.4959     8.5971    0.44662
 1345.7     7.5959     9.0738    0.47422
 1345.7     7.6978     9.1599    0.47422
 1345.7     7.8000     9.1902    0.47392
 1345.7     7.9032     9.0252    0.47392
 1345.7     7.9881     9.9478    0.50241
 1345.7     8.0895     10.146    0.50241
 1345.7     8.1917     10.176    0.53031
 1345.7     8.2944     10.095    0.53001
 1345.7     8.3967     10.097    0.47422
 1345.7     8.4907     9.2064    0.44632
 1345.7     8.6047     9.4323    0.47422
 1345.7     8.6960     9.0717    0.44632
 1345.7     8.7992     8.9068    0.47422
 1345.7     8.9000     9.2160    0.47422
 1345.7     9.0027     9.1348    0.44632
 1345.7     9.1118     10.365    0.50211
 1345.7     9.2125     10.702    0.53001
 1345.7     9.2992     11.262    0.55790
 1345.7     9.4028     11.013    0.50211
 1345.7     9.5062     10.793    0.50211
 1345.7     9.6087     10.767    0.53001
 1345.7     9.7154     9.8769    0.47452
 1345.7     9.8173     9.9630    0.44662
 1345.7     9.8978     9.2116    0.44632
 1345.7     10.014     8.9911    0.44602
 1345.7     10.101     9.4396    0.47422
 1345.7     10.205     9.1630    0.47452
 1345.7     10.307     9.2491    0.47422
 1345.7     10.410     9.1121    0.47422
 1345.7     10.512     9.2539    0.47422
 1345.7     10.613     9.5074    0.44632
 1345.7     10.704     9.2027    0.47452
 1345.7     10.818     9.4006    0.47422
 1345.7     10.912     8.4264    0.41843
 1345.7     11.011     9.1541    0.44632
 1345.7     11.217     8.9636    0.44632
 1345.7     11.309     8.3242    0.44632
 1345.7     11.412     8.1871    0.41843
 1345.7     11.512     8.7474    0.44632
 1345.7     11.612     9.1124    0.44632
 1345.7     11.705     8.4172    0.41843
 1345.7     11.810     7.9733    0.41843
 1345.7     11.907     9.0636    0.44632
 1345.7     11.998     8.6472    0.44632
 1345.7     12.089     8.3704    0.44662
 1345.7     12.196     7.5917    0.41873
 1345.7     12.296     7.9568    0.41843
 1345.7     12.401     7.4292    0.39023
 1345.7     12.488     7.9613    0.41843
ENDDATA            253
ENDSUBENT          282
SUBENT        F0717007   20050727   20050831                  F022
BIB                  4          9
REACTION  1(8-O-16(3-LI-6,0),,EN)
          2(8-O-16(3-LI-6,TOT),,WID)
          3(8-O-16(3-LI-6,0),,J)
ANALYSIS   Experimental excitation energies were deduced in a
           crude way from several cross-section curves by making
           a four-level Breit-Wigner fit including a quadratic
           background function.
ERR-ANALYS (DATA-ERR)Error in definition of resonance width
STATUS     (TABLE) Table 5 from reference
ENDBIB               9
COMMON               1          3
PARITY
NO-DIM
 1.
ENDCOMMON            3
DATA                 5          4
DATA      1DATA-ERR  1DATA      2DATA-ERR  2DATA      3
MEV        MEV        KEV        KEV        NO-DIM
 17.900    0.10000     420.00     40.000     1.0000
 18.450    0.80000E-01 480.00     50.000     2.0000
 19.200    0.80000E-01 800.00     100.00     3.0000
 20.150    0.15000     500.00     60.000     4.0000
ENDDATA              6
ENDSUBENT           24
ENDENTRY             7
