ENTRY            F0713   20050516   20050831                  F022
SUBENT        F0713001   20050516   20050831                  F022
BIB                 12         34
TITLE      A study of the 16O(d,p)17O reaction.
AUTHOR     (J.L.Alty,L.L.Green,R.Huby,G.D.Jones,J.R.Mines,
           J.B.Sharpey-Schafer)
INSTITUTE  (2UK LVP)
REFERENCE  (J,NP/A,97,541,1967)
FACILITY   (VDGT)
INC-SPECT  Spread in beam energy was 10 keV.
DETECTOR   (TELES,SIBAR) Counter telescope located on a movable
           arm which was rotated from outside the chamber through
           a high vacuum seal. The scattering angle could be set
           by remote control to withing +-0.2 degr.Telescope
           consisted of two surface barrier detectors, one behind
           the other. The front counter was a fully depleted
           delta-E/delta-x counter 0.8 microns thick. The second
           counter had an 0.2 m depletion layer and recorded the
           residal energy  E - Delta-E of the detected particle.
           Faraday cup and integrator.
           Pulse multiplier was used for particle identification.
METHOD     (BCINT)
           (EDE)
           Counting rate was kept below 5000 per sec to maintain
           good resolution and minimise background.
SAMPLE     Target system was mounted on the lid of the chamber.
           Three targets could be placed in the chamber
           simultaneously. The targets were either WO3 backed by 5
           mu-g/cm2 thickness carbon or self supporting SiO2
           foils. All were less than 100 mu-g/cm2 thick. The
           target position was adjusted to minimise the energy
           spread and was 6 keV thick for 12 MeV deuterons.
MONITOR    Elastically scattered particles from a gold foil placed
           between the scattering chamber and the Faraday cup were
           examined at 30 degrees.
ERR-ANALYS (ERR-DIG)    Digitizing error
HISTORY    (20050415C)
ENDBIB              34
COMMON               1          3
EN-RSL
KEV
 50.
ENDCOMMON            3
ENDSUBENT           41
SUBENT        F0713002   20050516   20050831                  F022
BIB                  4         14
REACTION   (8-O-16(D,EL)8-O-16,,DA,,REL)
SAMPLE     WO3 target was used except at angles forward of 40
           degrees where the large W(d,d) peak starts to obscure
           the 16O(d,d) peak. A SiO2 target enabled measurements
           to be taken in to 17.5 degrees.
ERR-ANALYS (EN-ERR-DIG) Digitizing error
           (DATA-ERR)   Error from the graphic bar
           The statistical errors were kept below 1%. This error
           together with the 0.2 degree uncertainty in the
           scattering angle and an extraction error at the very
           forward angles gave a total error of 5% at 17.5 degrees
           decreasing to less than 2% for angles grater than 80
           degrees.
STATUS     (CURVE)Fig.5
ENDBIB              14
COMMON               3          3
ANG        EN-ERR-DIG ERR-DIG
ADEG       MEV        ARB-UNITS
 80.        0.01       0.02
ENDCOMMON            3
DATA                 3         55
EN         DATA       DATA-ERR
MEV        ARB-UNITS  ARB-UNITS
 10.041     1.9643    0.90085E-01
 10.138     1.6655    0.80085E-01
 10.188     1.5246    0.63335E-01
 10.240     1.3670    0.70002E-01
 10.292     1.2195    0.60002E-01
 10.341     1.1619    0.60084E-01
 10.391     1.2044    0.60084E-01
 10.442     1.2236    0.63335E-01
 10.490     1.2860    0.63418E-01
 10.547     1.3689    0.70002E-01
 10.595     1.3979    0.76751E-01
 10.649     1.3539    0.96752E-01
 10.700     1.4731    0.80003E-01
 10.754     1.6726    0.70002E-01
 10.804     1.6650    0.46668E-01
 10.848     1.4704    0.50084E-01
 10.900     1.4663    0.63335E-01
 10.955     1.5891    0.50002E-01
 11.003     1.5314    0.50002E-01
 11.059     1.4541    0.56751E-01
 11.155     1.6323    0.56669E-01
 11.208     1.6983    0.73336E-01
 11.254     1.7072    0.73336E-01
 11.306     1.8199    0.76669E-01
 11.358     1.6990    0.60002E-01
 11.399     1.7644    0.63418E-01
 11.452     1.6370    0.60002E-01
 11.501     1.6127    0.66751E-01
 11.549     1.6184    0.70002E-01
 11.596     1.5740    0.63335E-01
 11.740     1.4810    0.76751E-01
 11.785     1.4266    0.80003E-01
 11.834     1.5057    0.83336E-01
 11.888     1.4783    0.86669E-01
 11.935     1.4973    0.76669E-01
 11.988     1.4966    0.73336E-01
 12.037     1.5624    0.56668E-01
 12.089     1.4615    0.60002E-01
 12.135     1.4738    0.56669E-01
 12.186     1.6598    0.66669E-01
 12.233     1.6621    0.60002E-01
 12.290     1.9584    0.73336E-01
 12.340     1.9542    0.73336E-01
 12.386     1.9899    0.80003E-01
 12.441     2.1393    0.73336E-01
 12.490     2.2485    0.80002E-01
 12.543     2.2344    0.70002E-01
 12.593     2.3670    0.93254E-01
 12.647     2.5164    0.73336E-01
 12.696     2.7123    0.60084E-01
 12.748     2.7048    0.56668E-01
 12.794     2.7638    0.80003E-01
 12.844     2.7763    0.83336E-01
 12.896     2.8489    0.66669E-01
 12.948     2.9649    0.53335E-01
ENDDATA             57
ENDSUBENT           80
SUBENT        F0713003   20050516   20050831                  F022
BIB                  5         11
REACTION   (8-O-16(D,P)8-O-17,PAR,DA,,REL)
SAMPLE     WO3 target was used.
CORRECTION A background correction was made.
ERR-ANALYS (EN-ERR-DIG) Digitizing error
           (DATA-ERR)   Error from the graphic bar
           Maximum statistical error was 10% decreasing to below
           2% beyond 60 degrees.
           The errors involved in the background and extraction
           were different for each point and generally larger than
           the statistical errors.
STATUS     (CURVE)Fig.6
ENDBIB              11
COMMON               3          3
ANG        EN-ERR-DIG ERR-DIG
ADEG       MEV        ARB-UNITS
 80.        0.01       0.01
ENDCOMMON            3
DATA                 4        175
E-LVL      EN         DATA       DATA-ERR
MEV        MEV        ARB-UNITS  ARB-UNITS
 0.0000     10.552     1.9856    0.79963E-01
 0.0000     10.596     1.8115    0.93326E-01
 0.0000     10.649     1.7971    0.86660E-01
 0.0000     10.691     1.6530    0.76661E-01
 0.0000     10.794     1.6644    0.83327E-01
 0.0000     10.846     1.7501    0.76691E-01
 0.0000     10.897     1.7325    0.79994E-01
 0.0000     10.943     1.7250    0.86660E-01
 0.0000     10.993     1.8074    0.76661E-01
 0.0000     11.043     1.8432    0.79994E-01
 0.0000     11.144     1.7980    0.89962E-01
 0.0000     11.190     1.7438    0.89962E-01
 0.0000     11.240     1.6962    0.89962E-01
 0.0000     11.293     1.7619    0.10329
 0.0000     11.340     1.6210    0.96659E-01
 0.0000     11.392     1.6934    0.89962E-01
 0.0000     11.440     1.6291    0.93326E-01
 0.0000     11.496     1.5948    0.99992E-01
 0.0000     11.545     1.5772    0.83327E-01
 0.0000     11.590     1.6030    0.96628E-01
 0.0000     11.638     1.6088    0.89993E-01
 0.0000     11.685     1.7812    0.83327E-01
 0.0000     11.739     1.6336    0.76691E-01
 0.0000     11.784     1.6894    0.79994E-01
 0.0000     11.841     1.7084    0.73327E-01
 0.0000     11.889     1.7041    0.76630E-01
 0.0000     11.941     1.6065    0.86629E-01
 0.0000     11.989     1.6089    0.96659E-01
 0.0000     12.040     1.6113    0.86690E-01
 0.0000     12.095     1.5870    0.83327E-01
 0.0000     12.138     1.5695    0.73327E-01
 0.0000     12.189     1.5352    0.86629E-01
 0.0000     12.290     1.5234    0.83327E-01
 0.0000     12.340     1.5124    0.79994E-01
 0.0000     12.386     1.5282    0.89993E-01
 0.0000     12.439     1.4939    0.83327E-01
 0.0000     12.487     1.5464    0.70025E-01
 0.0000     12.536     1.4221    0.73297E-01
 0.0000     12.584     1.3712    0.76661E-01
 0.0000     12.634     1.4470    0.73327E-01
 0.0000     12.693     1.3959    0.83327E-01
 0.0000     12.741     1.3816    0.76630E-01
 0.0000     12.793     1.3440    0.73327E-01
 0.0000     12.839     1.3132    0.83327E-01
 0.0000     12.880     1.3424    0.73297E-01
0.87000     10.550     1.9752    0.83755E-01
0.87000     10.602     1.8940    0.83801E-01
0.87000     10.650     1.8263    0.77076E-01
0.87000     10.695     1.8391    0.90457E-01
0.87000     10.745     1.8954    0.87106E-01
0.87000     10.793     1.8411    0.93831E-01
0.87000     10.846     1.9074    0.87129E-01
0.87000     10.893     1.8029    0.97160E-01
0.87000     10.945     1.7754    0.83778E-01
0.87000     10.998     1.8819    0.90480E-01
0.87000     11.047     1.8108    0.87129E-01
0.87000     11.142     1.8196    0.97160E-01
0.87000     11.193     1.7116    0.97183E-01
0.87000     11.248     1.8349    0.80450E-01
0.87000     11.296     1.8677    0.87129E-01
0.87000     11.342     1.7029    0.83778E-01
0.87000     11.395     1.8060    0.10724
0.87000     11.448     1.7316    0.87129E-01
0.87000     11.494     1.7075    0.77076E-01
0.87000     11.544     1.6398    0.83778E-01
0.87000     11.597     1.7362    0.80427E-01
0.87000     11.643     1.6585    0.97183E-01
0.87000     11.694     1.7181    0.90503E-01
0.87000     11.746     1.6973    0.90480E-01
0.87000     11.794     1.6498    0.97205E-01
0.87000     11.848     1.6691    0.90480E-01
0.87000     11.898     1.6450    0.10053
0.87000     11.954     1.6241    0.80427E-01
0.87000     11.997     1.7039    0.93831E-01
0.87000     12.041     1.7670    0.10388
0.87000     12.094     1.7227    0.80427E-01
0.87000     12.150     1.7722    0.97183E-01
0.87000     12.198     1.7246    0.97160E-01
0.87000     12.295     1.6462    0.87129E-01
0.87000     12.345     1.7461    0.93831E-01
0.87000     12.391     1.6281    0.90435E-01
0.87000     12.439     1.6375    0.73702E-01
0.87000     12.492     1.5999    0.90457E-01
0.87000     12.543     1.6126    0.77076E-01
0.87000     12.593     1.5416    0.80427E-01
0.87000     12.642     1.5107    0.77076E-01
0.87000     12.694     1.4966    0.90457E-01
0.87000     12.738     1.4792    0.73725E-01
0.87000     12.793     1.4282    0.90457E-01
0.87000     12.842     1.3572    0.87106E-01
0.87000     12.890     1.2962    0.67022E-01
 3.8600     10.552     3.6149    0.20415
 3.8600     10.600     3.3169    0.12047
 3.8600     10.647     3.0389    0.16398
 3.8600     10.697     3.0622    0.13386
 3.8600     10.747     2.8143    0.11378
 3.8600     10.799     2.5832    0.12383
 3.8600     10.849     2.8976    0.11713
 3.8600     10.902     2.6129    0.15395
 3.8600     10.946     2.6261    0.11379
 3.8600     10.999     2.3113    0.15395
 3.8600     11.044     2.0869    0.11713
 3.8600     11.153     2.4881    0.11044
 3.8600     11.251     2.9529    0.13387
 3.8600     11.301     2.5779    0.12717
 3.8600     11.351     2.8354    0.14391
 3.8600     11.403     2.6946    0.15059
 3.8600     11.453     2.5740    0.11043
 3.8600     11.504     3.0189    0.13387
 3.8600     11.552     2.9986    0.10040
 3.8600     11.605     2.8043    0.10709
 3.8600     11.650     2.3825    0.12718
 3.8600     11.704     2.1379    0.12383
 3.8600     11.755     1.9202    0.10709
 3.8600     11.847     1.8328    0.14055
 3.8600     11.899     2.0569    0.14391
 3.8600     11.954     1.9964    0.15729
 3.8600     12.001     2.1970    0.11713
 3.8600     12.057     2.0496    0.14391
 3.8600     12.102     2.3138    0.12718
 3.8600     12.152     1.9722    0.12717
 3.8600     12.204     2.0256    0.12048
 3.8600     12.306     2.3766    0.15059
 3.8600     12.365     2.4299    0.13721
 3.8600     12.406     2.2256    0.14055
 3.8600     12.460     2.2555    0.13721
 3.8600     12.506     2.8176    0.16399
 3.8600     12.561     2.4626    0.14390
 3.8600     12.602     2.0776    0.15395
 3.8600     12.652     2.1778    0.14725
 3.8600     12.702     2.0471    0.16399
 3.8600     12.801     2.2508    0.15394
 3.8600     12.897     2.2471    0.15729
 5.0800     10.550     2.1562    0.10409
 5.0800     10.594     1.8840    0.10074
 5.0800     10.655     2.4344    0.10074
 5.0800     10.700     2.2058    0.10744
 5.0800     10.750     1.9940    0.11080
 5.0800     10.801     2.1818    0.10409
 5.0800     10.847     2.0204    0.11752
 5.0800     10.893     2.0705    0.12088
 5.0800     10.945     2.1643    0.11416
 5.0800     10.995     2.2513    0.10744
 5.0800     11.040     2.1470    0.11081
 5.0800     11.151     2.3143    0.10409
 5.0800     11.199     2.5894    0.10409
 5.0800     11.248     2.4145    0.11753
 5.0800     11.297     2.5721    0.10744
 5.0800     11.345     2.2730    0.90663E-01
 5.0800     11.398     2.3164    0.10745
 5.0800     11.448     2.2187    0.97379E-01
 5.0800     11.502     2.0573    0.11081
 5.0800     11.549     2.1410    0.10074
 5.0800     11.609     1.9325    0.10745
 5.0800     11.652     1.9255    0.10745
 5.0800     11.704     1.9387    0.10073
 5.0800     11.751     1.8747    0.10409
 5.0800     11.860     1.8774    0.94021E-01
 5.0800     11.900     1.7530    0.11081
 5.0800     11.957     1.8602    0.11081
 5.0800     12.002     1.7088    0.11418
 5.0800     12.057     2.0074    0.97379E-01
 5.0800     12.144     1.8222    0.10745
 5.0800     12.196     1.8556    0.10075
 5.0800     12.308     1.7677    0.10074
 5.0800     12.355     1.6969    0.97362E-01
 5.0800     12.405     1.6631    0.97379E-01
 5.0800     12.454     2.1867    0.83956E-01
 5.0800     12.502     1.7062    0.10074
 5.0800     12.656     1.6853    0.94004E-01
 5.0800     12.699     1.7421    0.97379E-01
 5.0800     12.751     1.7351    0.10409
 5.0800     12.798     1.7215    0.11080
 5.0800     12.843     1.7313    0.10074
 5.0800     12.895     1.6269    0.83956E-01
ENDDATA            177
ENDSUBENT          197
SUBENT        F0713004   20050516   20050831                  F022
BIB                  5         10
REACTION   (8-O-17(P,EL)8-O-17,,DA,,REL)
SAMPLE     WO3 target 50% enriched was used. The presence of small
           amounts of O18 in the targets led to an uncertainty.
CORRECTION At angles forward of 110 degrees the 16O(p,p) and
           17O(p,p)peaks overlapped and an extraction was
           necessary.
ERR-ANALYS (EN-ERR-DIG) Digitizing error
           (DATA-ERR)   Error from the graphic bar
           A 5% error was placed separately on each point.
STATUS     (CURVE)Fig.7
ENDBIB              10
COMMON               3          3
ANG        EN-ERR-DIG ERR-DIG
ADEG       MEV        ARB-UNITS
 120.       0.01        0.02
ENDCOMMON            3
DATA                 3         38
EN         DATA       DATA-ERR
MEV        ARB-UNITS  ARB-UNITS
 11.040     3.5434    0.19200
 11.094     3.5915    0.17530
 11.151     3.4976    0.16695
 11.192     3.1371    0.17536
 11.244     2.8847    0.19200
 11.307     2.8740    0.18365
 11.354     2.8890    0.16695
 11.398     2.8457    0.17530
 11.445     2.7020    0.15026
 11.500     2.4579    0.20863
 11.551     2.1722    0.15861
 11.600     2.4459    0.21710
 11.649     2.3522    0.19200
 11.699     2.5507    0.20869
 11.751     2.6073    0.20041
 11.797     2.7058    0.18365
 11.849     2.9710    0.18371
 11.898     2.8690    0.18365
 11.948     2.7253    0.19200
 11.997     2.8654    0.18359
 12.042     2.9388    0.17530
 12.095     2.5362    0.19200
 12.142     2.7264    0.20035
 12.196     2.6493    0.17530
 12.245     2.7895    0.20041
 12.288     2.8880    0.18371
 12.338     2.7025    0.20041
 12.389     2.7007    0.20041
 12.444     2.6235    0.19200
 12.492     2.3379    0.19194
 12.594     2.0837    0.15861
 12.644     2.1987    0.15861
 12.695     2.2887    0.16695
 12.744     2.5207    0.20041
 12.796     2.7692    0.18365
 12.842     2.9011    0.20041
 12.894     2.8992    0.20035
 12.946     2.9056    0.20876
ENDDATA             40
ENDSUBENT           59
SUBENT        F0713005   20050516   20050831                  F022
BIB                  4         14
REACTION   (8-O-16(D,EL)8-O-16,,DA,,RTH)
SAMPLE     WO3 target was used except at angles forward of 40
           degrees where the large W(d,d) peak starts to obscure
           the 16O(d,d) peak. A SiO2 target enabled measurements
           to be taken in to 17.5 degrees.
ERR-ANALYS (ANG-ERR-D)  Digitizing error
           (DATA-ERR)   Error from the graphic bars
           The statistical errors were kept below 1%. This error
           together with the 0.2 degree uncertainty in the
           scattering angle and an extraction error at the very
           forward angles gave a total error of 5% at 17.5 degrees
           decreasing to less than 2% for angles grater than 80
           degrees.
STATUS     (CURVE)Fig.8
ENDBIB              14
COMMON               3          3
EN         ANG-ERR-D  ERR-DIG
MEV        ADEG       PER-CENT
 12.        0.2        0.1
ENDCOMMON            3
DATA                 3         28
ANG-CM     DATA-CM    DATA-ERR
ADEG       NO-DIM     NO-DIM
 19.155     1.0078    0.70585E-01
 22.211     1.1338    0.47805E-01
 27.719    0.89875
 33.463    0.33013
 39.327    0.13464
 44.656    0.40326
 50.395     1.1359
 55.817     1.7077
 61.011     1.9224
 66.912     1.6009
 72.042     1.0681
 77.477    0.53693
 83.276    0.35609
 87.812    0.36996
 92.727    0.45670
 98.270    0.75304
 102.90     1.0643
 108.23     1.1981
 112.88     1.4079
 117.52     1.8711
 122.30     2.3097
 127.23     2.4750
 135.76     2.8060
 140.84     2.6915
 144.71     2.9010
 149.77     3.2656
 153.89     3.7205
 159.08     4.3995
ENDDATA             30
ENDSUBENT           53
SUBENT        F0713006   20050516   20050831                  F022
BIB                  5          9
REACTION   (8-O-17(P,EL)8-O-17,,DA,,REL)
SAMPLE     WO3 target 50% enriched was used. The presence of small
           amounts of O18 in the targets led to an uncertainty.
CORRECTION At angles forward of 110 degrees the 16O(p,p) and
           17O(p,p)peaks overlapped and an extraction was
           necessary.
ERR-ANALYS (ANG-ERR-D)  Digitizing error
           A 5% error was placed separately on each point.
STATUS     (CURVE)Fig.10
ENDBIB               9
COMMON               3          3
EN         ANG-ERR-D  ERR-DIG
MEV        ADEG       PER-CENT
 11.        0.2        0.1
ENDCOMMON            3
DATA                 2         26
ANG-CM     DATA-CM
ADEG       ARB-UNITS
 31.811     11.967
 36.913     9.2909
 42.749     5.2542
 47.178     2.1424
 52.782    0.92833
 58.148    0.72053
 63.805    0.75280
 68.347     1.1708
 73.938     1.8078
 79.723     2.3315
 83.928     2.2788
 88.789     2.3828
 93.904     2.1466
 99.110     2.0320
 103.60     1.7431
 109.28     1.5989
 113.65     1.2813
 118.44     1.1195
 123.38    0.91912
 127.84    0.89254
 133.16    0.89879
 137.66    0.89467
 141.72    0.93049
 146.87    0.98481
 150.98     1.0564
 155.14     1.1616
ENDDATA             28
ENDSUBENT           46
SUBENT        F0713007   20050516   20050831                  F022
BIB                  5         11
REACTION   (8-O-16(D,P)8-O-17,PAR,DA)
SAMPLE     WO3 target was used.
CORRECTION A background correction was made.
ERR-ANALYS (ANG-ERR-D)  Digitizing error
           (DATA-ERR)   Error from the graphic bar
           Maximum statistical error was 10% decreasing to below
           2% beyond 60 degrees.
           The errors involved in the background and extraction
           were different for each point and generally larger than
           the statistical errors.
STATUS     (CURVE)Fig.12,14,16
ENDBIB              11
COMMON               3          3
EN         ANG-ERR-D  ERR-DIG
MEV        ADEG       PER-CENT
 12.        0.3        0.1
ENDCOMMON            3
DATA                 4         81
E-LVL      ANG-CM     DATA-CM    DATA-ERR
MEV        ADEG       MB/SR      MB/SR
 0.0000     12.291     12.214     1.2668
 0.0000     15.735     13.730    0.96368
 0.0000     21.285     14.780    0.79796
 0.0000     27.346     13.305    0.79551
 0.0000     32.340     10.653    0.60813
 0.0000     36.813     9.2423
 0.0000     43.127     7.3997
 0.0000     48.891     4.8041
 0.0000     52.835     4.0915
 0.0000     58.887     3.3784
 0.0000     64.426     3.2148
 0.0000     69.701     3.0972
 0.0000     74.977     2.9655
 0.0000     79.704     2.3310
 0.0000     85.498     2.0346
 0.0000     89.955     1.4944
 0.0000     95.218     1.2648
 0.0000     100.22     1.1528
 0.0000     106.04     1.2409
 0.0000     110.79     1.2560
 0.0000     115.82     1.4740
 0.0000     119.26     1.5675
 0.0000     125.08     1.6873
 0.0000     129.57     1.8504
 0.0000     134.33     1.9676
 0.0000     138.56     2.0163
 0.0000     143.84     2.0788
 0.0000     147.54     2.1567
 0.0000     152.56     2.1829
0.87000     12.215     30.368     2.5236
0.87000     15.393     13.519    0.68072
0.87000     20.819     4.0171    0.22826
0.87000     26.714     2.8046    0.14122
0.87000     29.528     5.1923    0.19487
0.87000     31.563     5.5957
0.87000     37.012     6.1163
0.87000     43.642     5.8799
0.87000     49.150     3.5634
0.87000     55.914     1.7644
0.87000     60.151    0.59977
0.87000     64.301    0.83761
0.87000     70.229     1.2528
0.87000     74.746     1.5764
0.87000     79.618     1.8093
0.87000     85.845     2.0029
0.87000     90.178     1.7864
0.87000     95.650     1.4629
0.87000     99.693     1.0266
0.87000     104.86    0.66962
0.87000     109.74    0.45311
0.87000     114.26    0.33204
0.87000     118.85    0.29801
0.87000     123.39    0.36815
0.87000     128.21    0.44381
0.87000     132.56    0.50612
0.87000     137.72    0.56688
0.87000     142.33    0.65455
0.87000     146.74    0.70199
 5.0800     15.893     19.659     1.8237
 5.0800     21.596     13.924     1.6304
 5.0800     27.270     9.4842    0.91347
 5.0800     34.215     6.1413
 5.0800     38.392     5.3058
 5.0800     42.944     3.2214
 5.0800     49.683     1.8460
 5.0800     55.016     1.6284
 5.0800     60.708     1.5049
 5.0800     66.074     1.4311
 5.0800     71.093     1.3109
 5.0800     76.494     1.3807
 5.0800     81.838     1.2110
 5.0800     86.846     1.0429
 5.0800     96.953     1.0901
 5.0800     101.66     1.0673
 5.0800     107.36    0.99181
 5.0800     112.02    0.77745
 5.0800     116.74    0.80263
 5.0800     121.85     1.0657
 5.0800     126.85    0.84973
 5.0800     131.25    0.97234
 5.0800     136.29    0.94799
ENDDATA             83
ENDSUBENT          103
ENDENTRY             7
