ENTRY            F0716   20051208   20060315                  F023
SUBENT        F0716001   20051208   20060315                  F023
BIB                 11         27
TITLE      Experimental-calculated research of gamma quanta
           registration absolute efficiency by coaxial HPGe
           detector GC 5019 at Egamma = 0.24 - 18.565 MeV.
AUTHOR     (L.N.Generalov,B.L.Lebedev,A.V.Livke,A.B.Modenov,
           V.A.Chirkin)
INSTITUTE  (4RUSEPA)
REFERENCE  (J,IZV,69,85,2005)
FACILITY   (VDG)
INC-SPECT  Proton current was 0.4 - 0.8 muA.
DETECTOR   (HPGE) HPGe-detector GC 5019 was placed at the angle
           of 90 degrees relative to proton beam direction. The
           distance from the source of gamma quantum was 127 mm.
           Beam of gamma quanta was attenuated by 1 mm steel, 5 mm
           lead and 1 mm aluminium.
           Current integrator ORTEC439 and a sensor of nuclear
           magnet resonance were used to measure the proton beam.
           (MAGSP) 16384-channel spectrometer MCB-931E (ORTEC)
METHOD     (BCINT)
           (GSPEC)
SAMPLE     Boron layers (11B - 93.7%,10B - 6.3%)were evaporated on
           300 mu-m tantalum backing.   The layer thickness was
           550 mu-g/cm2. The target was placed at 45 degrees to
           the proton beam.
ERR-ANALYS (DATA-ERR)  Error from the graphic bars
           Random error of proton beam was 0.3 keV and
           systematic error was 0.5 keV.
HISTORY    (20050627C)
ENDBIB              27
COMMON               2          3
ANG        ERR-SYS
ADEG       PER-CENT
 90.        3.3
ENDCOMMON            3
ENDSUBENT           34
SUBENT        F0716002   20051208   20060315                  F023
BIB                  2          2
REACTION   (5-B-11(P,G)6-C-12,PAR,DA)
STATUS     (CURVE,APRVD) Fig.7,8
ENDBIB               2
NOCOMMON             0          0
DATA                 4         36
E-LVL      EN         DATA       DATA-ERR
MEV        MEV        NB/SR      NB/SR
 0.0000     1.4130     2290.0     106.50
 0.0000     1.5160     2600.0     130.00
 0.0000     1.6190     1783.0     89.000
 0.0000     1.7220     1710.0     85.500
 0.0000     1.8250     1370.0     70.000
 0.0000     1.8610     1191.0     63.000
 0.0000     1.9270     1121.0     56.000
 0.0000     1.9940     1100.0     55.000
 0.0000     2.0000     1064.0     53.500
 0.0000     2.0300     1000.0     50.000
 0.0000     2.0910     924.00     46.000
 0.0000     2.2000     960.00     48.000
 0.0000     2.4280     860.00     41.500
 0.0000     2.4740     907.00     41.500
 0.0000     2.5760     836.00     42.000
 0.0000     2.5820     847.00     42.000
 0.0000     2.6460     1160.0     53.000
 0.0000     2.8420     1150.0     60.500
 4.4390     1.4130     734.00     36.500
 4.4390     1.5160     750.00     37.500
 4.4390     1.6190     700.00     34.500
 4.4390     1.7220     520.00     26.000
 4.4390     1.8250     468.00     23.500
 4.4390     1.8610     430.00     21.500
 4.4390     1.9270     426.00     21.500
 4.4390     1.9940     437.00     22.000
 4.4390     2.0000     417.00     21.000
 4.4390     2.0300     345.00     17.500
 4.4390     2.0910     315.00     16.500
 4.4390     2.2000     330.00     16.500
 4.4390     2.4280     430.00     20.500
 4.4390     2.4740     461.00     21.000
 4.4390     2.5760     446.00     24.000
 4.4390     2.5820     500.00     25.000
 4.4390     2.6460     605.00     27.500
 4.4390     2.8420     506.00     27.000
ENDDATA             38
ENDSUBENT           45
ENDENTRY             2
