ENTRY            F0728   20051222   20060315                  F023
SUBENT        F0728001   20051222   20060315                  F023
BIB                 10         25
TITLE      19F(D,A)17O angular distributions at Ed = 300-650 keV.
AUTHOR     (L.Mesko,B.Schlenk,G.Somogyi,A.Valek)
INSTITUTE  (3HUNDEB)
REFERENCE  (J,NP/A,130,449,1969)
FACILITY   (VDG)
DETECTOR   (SOLST) ORTEC SBCJ-25-300 semiconductor detector could
           be rotated from 0 to 155 degrees. Another detector was
           used as a monitor at angle of 90 degrees. A 3 mg/cm2 Al
           foil placed in front of the detectors absorbed the
           scattered deutrons.
           (TRD) Cellulose acetate and cellulose nitrate plastic
           track detectors were used.The detector plates were bent
           around the target.
           Rotary-type voltage was used to measure the high
           voltage of generator.
           Faraday cup.
SAMPLE     The CaF2 target was evaporated onto a Cu foil of about
           0.5 mg/cm2 thickness. The target thickness was 30-40
           keV at Ed=650 keV and 70-80 keV at 300 keV.
METHOD     (BCINT)
MONITOR    Voltmeter was calibrated with (p,g) resonance on 7Li,
           19F and 27Al.
           The target thickness was determined by measuring the
           broadening of the 340 keV 19F(p,g) resonance.
HISTORY    (20050905C)
ENDBIB              25
NOCOMMON             0          0
ENDSUBENT           28
SUBENT        F0728002   20051222   20060315                  F023
BIB                  4          8
REACTION   (9-F-19(D,A)8-O-17,PAR,DA)
FLAG       (1.) semiconductor data
           (2.) plastic track detector data
ERR-ANALYS (ANG-ERR-D)  Digitizing error
           (ERR-DIG)    Digitizing error
           (DATA-ERR)   Error from the graphic bar represents the
           statistical error
STATUS     (CURVE)Fig.3,4
ENDBIB               8
COMMON               2          3
ANG-ERR-D  ERR-DIG
ADEG       MU-B/SR
0.5        0.002
ENDCOMMON            3
DATA                 6        472
EN         E-LVL      ANG-CM     DATA-CM    DATA-ERR   FLAG
KEV        KEV        ADEG       MU-B/SR    MU-B/SR    NO-DIM
 303.00     0.0000     22.277    0.13714E-01            2.0000
 303.00     0.0000     31.109    0.11181E-01            2.0000
 303.00     0.0000     45.760    0.12412E-01            2.0000
 303.00     0.0000     62.167    0.13222E-01            2.0000
 303.00     0.0000     77.763    0.11243E-01            2.0000
 303.00     0.0000     92.072    0.10535E-010.16972E-02 2.0000
 303.00     0.0000     106.83    0.10857E-01            2.0000
 303.00     0.0000     122.35    0.95449E-02            2.0000
 303.00     0.0000     136.21    0.77454E-02            2.0000
 303.00     0.0000     152.12    0.80089E-02            2.0000
 303.00     0.0000     161.92    0.69312E-02            2.0000
 303.00     109.89     21.082    0.40997E-02            2.0000
 303.00     109.89     31.434    0.35783E-02            2.0000
 303.00     109.89     46.778    0.38490E-02            2.0000
 303.00     109.89     60.855    0.48396E-02            2.0000
 303.00     109.89     76.663    0.57132E-02            2.0000
 303.00     109.89     90.825    0.62224E-020.11432E-02 2.0000
 303.00     109.89     106.77    0.63137E-02            2.0000
 303.00     109.89     121.11    0.58001E-02            2.0000
 303.00     109.89     135.97    0.55884E-02            2.0000
 303.00     109.89     151.54    0.45956E-02            2.0000
 303.00     109.89     162.38    0.44965E-02            2.0000
 303.00     197.14     21.046    0.46808E-02            2.0000
 303.00     197.14     31.305    0.45201E-02            2.0000
 303.00     197.14     44.787    0.54496E-02            2.0000
 303.00     197.14     61.897    0.51216E-02            2.0000
 303.00     197.14     76.390    0.67758E-02            2.0000
 303.00     197.14     89.872    0.77053E-020.10858E-02 2.0000
 303.00     197.14     105.72    0.80975E-02            2.0000
 303.00     197.14     121.22    0.72243E-02            2.0000
 303.00     197.14     135.77    0.85775E-02            2.0000
 303.00     197.14     151.63    0.88492E-02            2.0000
 303.00     197.14     161.15    0.97108E-02            2.0000
 303.00     1345.7     20.555    0.71956E-02            2.0000
 303.00     1345.7     28.972    0.81784E-02            2.0000
 303.00     1345.7     45.493    0.88784E-02            2.0000
 303.00     1345.7     60.000    0.81882E-02            2.0000
 303.00     1345.7     76.409    0.94301E-02            2.0000
 303.00     1345.7     90.244    0.92203E-020.12056E-02 2.0000
 303.00     1345.7     105.52    0.75680E-02            2.0000
 303.00     1345.7     120.09    0.65768E-02            2.0000
 303.00     1345.7     135.00    0.67309E-02            2.0000
 303.00     1345.7     149.95    0.67044E-02            2.0000
 303.00     1345.7     160.54    0.54633E-02            2.0000
 355.00     0.0000     21.792    0.32268E-01            2.0000
 355.00     0.0000     32.050    0.31764E-01            2.0000
 355.00     0.0000     46.085    0.38276E-01            2.0000
 355.00     0.0000     62.412    0.44223E-01            2.0000
 355.00     0.0000     78.060    0.53950E-01            2.0000
 355.00     0.0000     92.240    0.55514E-010.37876E-02 2.0000
 355.00     0.0000     108.16    0.55928E-01            2.0000
 355.00     0.0000     123.19    0.47893E-01            2.0000
 355.00     0.0000     137.43    0.47421E-01            2.0000
 355.00     0.0000     151.75    0.44329E-01            2.0000
 355.00     0.0000     163.61    0.47331E-01            2.0000
 355.00     109.89     21.760    0.12320E-01            2.0000
 355.00     109.89     31.894    0.14915E-01            2.0000
 355.00     109.89     47.764    0.16762E-01            2.0000
 355.00     109.89     62.334    0.21918E-01            2.0000
 355.00     109.89     76.941    0.26294E-01            2.0000
 355.00     109.89     91.577    0.30085E-010.25390E-02 2.0000
 355.00     109.89     106.89    0.31733E-01            2.0000
 355.00     109.89     121.70    0.31818E-01            2.0000
 355.00     109.89     137.66    0.31909E-01            2.0000
 355.00     109.89     151.54    0.27891E-01            2.0000
 355.00     109.89     163.63    0.25424E-01            2.0000
 355.00     197.14     21.749    0.13238E-01            2.0000
 355.00     197.14     30.674    0.16575E-01            2.0000
 355.00     197.14     46.497    0.18408E-01            2.0000
 355.00     197.14     61.594    0.23328E-01            2.0000
 355.00     197.14     76.399    0.22835E-01            2.0000
 355.00     197.14     91.506    0.27562E-010.27046E-02 2.0000
 355.00     197.14     105.15    0.27449E-01            2.0000
 355.00     197.14     121.76    0.25034E-01            2.0000
 355.00     197.14     135.07    0.31683E-01            2.0000
 355.00     197.14     149.94    0.29838E-01            2.0000
 355.00     197.14     161.22    0.31643E-01            2.0000
 355.00     1345.7     20.393    0.38271E-01            2.0000
 355.00     1345.7     29.447    0.41588E-01            2.0000
 355.00     1345.7     46.740    0.40315E-01            2.0000
 355.00     1345.7     60.975    0.43395E-01            2.0000
 355.00     1345.7     77.008    0.44741E-01            2.0000
 355.00     1345.7     91.639    0.38467E-010.40986E-02 2.0000
 355.00     1345.7     105.42    0.38618E-01            2.0000
 355.00     1345.7     120.72    0.30305E-01            2.0000
 355.00     1345.7     135.66    0.30176E-01            2.0000
 355.00     1345.7     151.22    0.29177E-01            2.0000
 355.00     1345.7     161.04    0.27823E-01            2.0000
 407.00     0.0000     22.678    0.74642E-01            2.0000
 407.00     0.0000     31.251    0.70271E-01            2.0000
 407.00     0.0000     45.924    0.84829E-01            2.0000
 407.00     0.0000     61.735    0.99427E-01            2.0000
 407.00     0.0000     77.318    0.14091                2.0000
 407.00     0.0000     92.639    0.14614    0.93325E-02 2.0000
 407.00     0.0000     107.43    0.14667                2.0000
 407.00     0.0000     122.78    0.14839                2.0000
 407.00     0.0000     135.83    0.15353                2.0000
 407.00     0.0000     152.36    0.14944                2.0000
 407.00     0.0000     163.68    0.15686                2.0000
 407.00     109.89     20.614    0.34397E-01            2.0000
 407.00     109.89     30.199    0.40421E-01            2.0000
 407.00     109.89     45.379    0.52394E-01            2.0000
 407.00     109.89     61.680    0.65557E-01            2.0000
 407.00     109.89     76.260    0.79273E-01            2.0000
 407.00     109.89     91.328    0.97675E-010.75872E-02 2.0000
 407.00     109.89     107.25    0.99723E-01            2.0000
 407.00     109.89     120.95    0.98807E-01            2.0000
 407.00     109.89     136.94    0.97348E-01            2.0000
 407.00     109.89     150.62    0.97016E-01            2.0000
 407.00     109.89     166.61    0.95558E-01            2.0000
 407.00     197.14     21.578    0.44499E-01            2.0000
 407.00     197.14     31.182    0.47673E-01            2.0000
 407.00     197.14     45.878    0.52143E-01            2.0000
 407.00     197.14     61.587    0.63182E-01            2.0000
 407.00     197.14     76.205    0.71817E-01            2.0000
 407.00     197.14     90.811    0.81047E-010.77354E-02 2.0000
 407.00     197.14     105.47    0.87302E-01            2.0000
 407.00     197.14     120.49    0.74516E-01            2.0000
 407.00     197.14     135.63    0.85543E-01            2.0000
 407.00     197.14     150.36    0.88228E-01            2.0000
 407.00     197.14     165.80    0.83785E-01            2.0000
 407.00     1345.7     20.023    0.10556                2.0000
 407.00     1345.7     29.517    0.11684                2.0000
 407.00     1345.7     45.095    0.11432                2.0000
 407.00     1345.7     60.332    0.12575                2.0000
 407.00     1345.7     75.491    0.11683                2.0000
 407.00     1345.7     90.494    0.11429    0.10460E-01 2.0000
 407.00     1345.7     105.69    0.10362                2.0000
 407.00     1345.7     119.69    0.95250E-01            2.0000
 407.00     1345.7     135.73    0.97395E-01            2.0000
 407.00     1345.7     150.14    0.95428E-01            2.0000
 407.00     1345.7     159.46    0.90427E-01            2.0000
 459.00     0.0000    0.78301E-020.18493                1.0000
 459.00     0.0000     19.357    0.13390                2.0000
 459.00     0.0000     21.245    0.17836                1.0000
 459.00     0.0000     32.072    0.19395                1.0000
 459.00     0.0000     44.318    0.15303                2.0000
 459.00     0.0000     46.228    0.19272                1.0000
 459.00     0.0000     60.770    0.16577                2.0000
 459.00     0.0000     62.533    0.19913                1.0000
 459.00     0.0000     76.415    0.26958                1.0000
 459.00     0.0000     76.573    0.19838                2.0000
 459.00     0.0000     90.637    0.23887    0.17907E-01 2.0000
 459.00     0.0000     92.038    0.31181    0.16978E-01 1.0000
 459.00     0.0000     106.52    0.25159                2.0000
 459.00     0.0000     107.07    0.36721                1.0000
 459.00     0.0000     121.73    0.29014                2.0000
 459.00     0.0000     122.19    0.39810                1.0000
 459.00     0.0000     135.30    0.31070                2.0000
 459.00     0.0000     136.19    0.43837                1.0000
 459.00     0.0000     150.55    0.33931                2.0000
 459.00     0.0000     151.95    0.44475                1.0000
 459.00     0.0000     160.75    0.35175                2.0000
 459.00     109.89    0.71860    0.43393E-01            1.0000
 459.00     109.89     19.215    0.59898E-01            2.0000
 459.00     109.89     21.293    0.83968E-01            1.0000
 459.00     109.89     29.905    0.88119E-01            2.0000
 459.00     109.89     30.418    0.10134                1.0000
 459.00     109.89     44.673    0.98851E-01            2.0000
 459.00     109.89     46.493    0.13977                1.0000
 459.00     109.89     58.811    0.12137                2.0000
 459.00     109.89     62.021    0.18007                1.0000
 459.00     109.89     74.630    0.14989                2.0000
 459.00     109.89     74.780    0.23911                1.0000
 459.00     109.89     90.429    0.18236    0.15758E-01 2.0000
 459.00     109.89     90.889    0.26811    0.15115E-01 1.0000
 459.00     109.89     105.15    0.20294                2.0000
 459.00     109.89     106.54    0.27256                1.0000
 459.00     109.89     121.06    0.21177                2.0000
 459.00     109.89     122.09    0.30908                1.0000
 459.00     109.89     136.13    0.30969                1.0000
 459.00     109.89     136.96    0.22454                2.0000
 459.00     109.89     150.57    0.35182                1.0000
 459.00     109.89     151.17    0.23327                2.0000
 459.00     109.89     165.49    0.22033                2.0000
 459.00     197.14     19.273    0.11686                2.0000
 459.00     197.14     20.773    0.13361                1.0000
 459.00     197.14     28.846    0.12921                2.0000
 459.00     197.14     30.865    0.16494                1.0000
 459.00     197.14     44.691    0.13890                2.0000
 459.00     197.14     47.471    0.17808                1.0000
 459.00     197.14     60.909    0.17531                2.0000
 459.00     197.14     62.898    0.21943                1.0000
 459.00     197.14     74.286    0.21159                2.0000
 459.00     197.14     76.697    0.26498                1.0000
 459.00     197.14     89.410    0.24202    0.16313E-01 2.0000
 459.00     197.14     92.145    0.30069    0.16947E-01 1.0000
 459.00     197.14     104.34    0.22199                2.0000
 459.00     197.14     107.78    0.28697                1.0000
 459.00     197.14     119.31    0.19604                2.0000
 459.00     197.14     121.27    0.27037                1.0000
 459.00     197.14     134.64    0.19829                2.0000
 459.00     197.14     135.82    0.25944                1.0000
 459.00     197.14     149.40    0.20051                2.0000
 459.00     197.14     150.35    0.25134                1.0000
 459.00     197.14     165.51    0.17461                2.0000
 459.00     1345.7     19.854    0.18100                2.0000
 459.00     1345.7     21.363    0.18469                1.0000
 459.00     1345.7     29.476    0.19326                2.0000
 459.00     1345.7     29.951    0.18582                1.0000
 459.00     1345.7     45.948    0.20938                2.0000
 459.00     1345.7     45.997    0.19557                1.0000
 459.00     1345.7     59.887    0.19714                2.0000
 459.00     1345.7     61.058    0.19309                1.0000
 459.00     1345.7     74.720    0.20612                2.0000
 459.00     1345.7     76.575    0.20188                1.0000
 459.00     1345.7     90.914    0.19752    0.14140E-01 2.0000
 459.00     1345.7     92.173    0.19941    0.11242E-01 1.0000
 459.00     1345.7     104.97    0.17587                2.0000
 459.00     1345.7     106.28    0.18095                1.0000
 459.00     1345.7     119.97    0.17074                2.0000
 459.00     1345.7     122.25    0.20008                1.0000
 459.00     1345.7     135.23    0.19151                2.0000
 459.00     1345.7     135.45    0.15906                1.0000
 459.00     1345.7     148.96    0.19691                2.0000
 459.00     1345.7     149.88    0.16877                1.0000
 459.00     1345.7     163.74    0.21059                2.0000
 490.00     0.0000    0.70084E-010.30863                1.0000
 490.00     0.0000     20.206    0.30978                1.0000
 490.00     0.0000     29.535    0.27306                1.0000
 490.00     0.0000     45.838    0.28545                1.0000
 490.00     0.0000     60.526    0.28916                1.0000
 490.00     0.0000     74.517    0.36731                1.0000
 490.00     0.0000     90.643    0.46565    0.28648E-01 1.0000
 490.00     0.0000     106.39    0.48374                1.0000
 490.00     0.0000     120.35    0.57622                1.0000
 490.00     0.0000     135.46    0.64012                1.0000
 490.00     0.0000     149.50    0.69250                1.0000
 490.00     109.89    0.80924    0.11543                1.0000
 490.00     109.89     19.717    0.11945                1.0000
 490.00     109.89     29.893    0.16247                1.0000
 490.00     109.89     46.024    0.20018                1.0000
 490.00     109.89     61.105    0.22368                1.0000
 490.00     109.89     77.165    0.29533                1.0000
 490.00     109.89     89.935    0.38942    0.19799E-01 1.0000
 490.00     109.89     105.03    0.40443                1.0000
 490.00     109.89     120.00    0.48450                1.0000
 490.00     109.89     134.55    0.50232                1.0000
 490.00     109.89     150.13    0.54282                1.0000
 490.00     197.14    0.57737    0.15208                1.0000
 490.00     197.14     21.452    0.19519                1.0000
 490.00     197.14     31.496    0.28544                1.0000
 490.00     197.14     46.420    0.35070                1.0000
 490.00     197.14     62.833    0.48334                1.0000
 490.00     197.14     76.740    0.51768                1.0000
 490.00     197.14     92.299    0.52968    0.30877E-01 1.0000
 490.00     197.14     106.86    0.49955                1.0000
 490.00     197.14     121.43    0.46662                1.0000
 490.00     197.14     135.48    0.42244                1.0000
 490.00     197.14     150.08    0.36987                1.0000
 490.00     1345.7     19.529    0.28934                1.0000
 490.00     1345.7     29.198    0.28975                1.0000
 490.00     1345.7     44.563    0.35022                1.0000
 490.00     1345.7     57.674    0.28911                1.0000
 490.00     1345.7     74.664    0.34591                1.0000
 490.00     1345.7     90.335    0.32042    0.16818E-01 1.0000
 490.00     1345.7     104.99    0.27807                1.0000
 490.00     1345.7     120.60    0.26940                1.0000
 490.00     1345.7     134.57    0.27000                1.0000
 490.00     1345.7     147.98    0.27618                1.0000
 521.00     0.0000    0.74855E-010.52515                1.0000
 521.00     0.0000     20.640    0.50389                1.0000
 521.00     0.0000     30.026    0.41534                1.0000
 521.00     0.0000     46.310    0.44546                1.0000
 521.00     0.0000     60.375    0.50364                1.0000
 521.00     0.0000     76.136    0.51956                1.0000
 521.00     0.0000     89.593    0.62012    0.33071E-01 1.0000
 521.00     0.0000     106.84    0.73525                1.0000
 521.00     0.0000     120.93    0.77456                1.0000
 521.00     0.0000     134.42    0.85626                1.0000
 521.00     0.0000     150.07    0.94763                1.0000
 521.00     109.89    0.28543    0.16046                1.0000
 521.00     109.89     20.722    0.22873                1.0000
 521.00     109.89     30.967    0.24401                1.0000
 521.00     109.89     46.609    0.26459                1.0000
 521.00     109.89     61.109    0.32750                1.0000
 521.00     109.89     77.155    0.44246                1.0000
 521.00     109.89     91.020    0.57134    0.28297E-01 1.0000
 521.00     109.89     106.02    0.66260                1.0000
 521.00     109.89     121.05    0.73029                1.0000
 521.00     109.89     134.30    0.91098                1.0000
 521.00     109.89     149.38    0.94565                1.0000
 521.00     197.14    0.43824    0.21205                1.0000
 521.00     197.14     20.407    0.31698                1.0000
 521.00     197.14     30.551    0.37881                1.0000
 521.00     197.14     46.087    0.42229                1.0000
 521.00     197.14     61.914    0.70523                1.0000
 521.00     197.14     75.814    0.77206                1.0000
 521.00     197.14     91.896    0.80619    0.56335E-01 1.0000
 521.00     197.14     106.42    0.78855                1.0000
 521.00     197.14     119.48    0.62525                1.0000
 521.00     197.14     134.05    0.56537                1.0000
 521.00     197.14     148.63    0.49609                1.0000
 521.00     1345.7     19.682    0.46869                1.0000
 521.00     1345.7     29.266    0.51425                1.0000
 521.00     1345.7     44.718    0.58265                1.0000
 521.00     1345.7     60.828    0.58630                1.0000
 521.00     1345.7     74.906    0.52788                1.0000
 521.00     1345.7     90.106    0.44416    0.22532E-01 1.0000
 521.00     1345.7     104.63    0.43364                1.0000
 521.00     1345.7     119.67    0.43724                1.0000
 521.00     1345.7     133.60    0.45486                1.0000
 521.00     1345.7     148.11    0.45279                1.0000
 552.00     0.0000    0.24011     1.0611                1.0000
 552.00     0.0000     20.363     1.0792                1.0000
 552.00     0.0000     30.797    0.97791                1.0000
 552.00     0.0000     45.007    0.91402                1.0000
 552.00     0.0000     61.831    0.96839                1.0000
 552.00     0.0000     75.920     1.0370                1.0000
 552.00     0.0000     91.030     1.1795    0.73622E-01 1.0000
 552.00     0.0000     106.21     1.2409                1.0000
 552.00     0.0000     120.86     1.2949                1.0000
 552.00     0.0000     135.45     1.4078                1.0000
 552.00     0.0000     149.59     1.4249                1.0000
 552.00     109.89    0.99702    0.47022                1.0000
 552.00     109.89     20.001    0.56164                1.0000
 552.00     109.89     30.267    0.56268                1.0000
 552.00     109.89     45.896    0.61189                1.0000
 552.00     109.89     60.415    0.69670                1.0000
 552.00     109.89     76.005    0.79352                1.0000
 552.00     109.89     90.013    0.84256    0.53514E-01 1.0000
 552.00     109.89     105.53     1.0227                1.0000
 552.00     109.89     120.02     1.1432                1.0000
 552.00     109.89     133.44     1.2517                1.0000
 552.00     109.89     149.01     1.3724                1.0000
 552.00     197.14    0.51160    0.51759                1.0000
 552.00     197.14     21.388    0.63469                1.0000
 552.00     197.14     31.560    0.68939                1.0000
 552.00     197.14     45.848     1.0190                1.0000
 552.00     197.14     61.779     1.3032                1.0000
 552.00     197.14     77.227     1.5034                1.0000
 552.00     197.14     91.321     1.3147    0.61041E-01 1.0000
 552.00     197.14     107.55     1.1416                1.0000
 552.00     197.14     121.09    0.97568                1.0000
 552.00     197.14     136.77    0.83294                1.0000
 552.00     197.14     150.29    0.70517                1.0000
 552.00     1345.7     20.119    0.85302                1.0000
 552.00     1345.7     29.736    0.90437                1.0000
 552.00     1345.7     45.742     1.0129                1.0000
 552.00     1345.7     59.747    0.97731                1.0000
 552.00     1345.7     75.939    0.90456                1.0000
 552.00     1345.7     87.950    0.71872    0.37497E-01 1.0000
 552.00     1345.7     104.17    0.61473                1.0000
 552.00     1345.7     120.29    0.61698                1.0000
 552.00     1345.7     133.67    0.66260                1.0000
 552.00     1345.7     147.99    0.84586                1.0000
 583.00     0.0000    0.38465     2.8999                1.0000
 583.00     0.0000     20.740     2.4553                1.0000
 583.00     0.0000     31.251     2.1061                1.0000
 583.00     0.0000     45.897     2.2096                1.0000
 583.00     0.0000     62.244     2.1726                1.0000
 583.00     0.0000     76.325     2.3183                1.0000
 583.00     0.0000     90.406     2.4639    0.14083     1.0000
 583.00     0.0000     104.95     2.7789                1.0000
 583.00     0.0000     119.79     2.4735                1.0000
 583.00     0.0000     135.54     2.5491                1.0000
 583.00     0.0000     150.19     2.6527                1.0000
 583.00     109.89    0.57283E-010.93269                1.0000
 583.00     109.89     20.945     1.0506                1.0000
 583.00     109.89     31.239     1.0084                1.0000
 583.00     109.89     46.776     1.2260                1.0000
 583.00     109.89     61.780     1.4323                1.0000
 583.00     109.89     76.770     1.6609                1.0000
 583.00     109.89     90.721     1.8219    0.10096     1.0000
 583.00     109.89     106.78     2.0734                1.0000
 583.00     109.89     120.17     2.2680                1.0000
 583.00     109.89     134.67     2.4179                1.0000
 583.00     109.89     150.22     2.6130                1.0000
 583.00     197.14    0.72748E-010.92746                1.0000
 583.00     197.14     21.870     1.1292                1.0000
 583.00     197.14     32.042     1.2159                1.0000
 583.00     197.14     47.333     1.9045                1.0000
 583.00     197.14     62.771     2.2440                1.0000
 583.00     197.14     77.565     2.8348                1.0000
 583.00     197.14     92.778     2.4341    0.15344     1.0000
 583.00     197.14     107.41     2.1450                1.0000
 583.00     197.14     121.52     1.8000                1.0000
 583.00     197.14     138.31     1.4836                1.0000
 583.00     197.14     150.70     1.4173                1.0000
 583.00     1345.7     19.262     1.8901                1.0000
 583.00     1345.7     28.982     1.8170                1.0000
 583.00     1345.7     45.979     2.1022                1.0000
 583.00     1345.7     60.437     2.1710                1.0000
 583.00     1345.7     75.651     1.9207                1.0000
 583.00     1345.7     90.763     1.8205    0.93773E-01 1.0000
 583.00     1345.7     104.88     1.5981                1.0000
 583.00     1345.7     120.58     1.4230                1.0000
 583.00     1345.7     133.58     1.2755                1.0000
 583.00     1345.7     147.62     1.1751                1.0000
 614.00     0.0000    0.35338     4.7973                1.0000
 614.00     0.0000     19.833     4.6557                1.0000
 614.00     0.0000     30.966     3.9124                1.0000
 614.00     0.0000     45.203     3.6563                1.0000
 614.00     0.0000     61.035     3.5130                1.0000
 614.00     0.0000     75.704     3.5935                1.0000
 614.00     0.0000     90.317     3.8423    0.18688     1.0000
 614.00     0.0000     106.07     3.9232                1.0000
 614.00     0.0000     120.25     3.8540                1.0000
 614.00     0.0000     135.47     3.9161                1.0000
 614.00     0.0000     149.56     4.1085                1.0000
 614.00     109.89    0.71610     1.6126                1.0000
 614.00     109.89     21.406     1.6895                1.0000
 614.00     109.89     31.102     1.7627                1.0000
 614.00     109.89     47.155     2.1335                1.0000
 614.00     109.89     63.244     2.4199                1.0000
 614.00     109.89     77.250     2.5226                1.0000
 614.00     109.89     91.898     2.3860    0.12674     1.0000
 614.00     109.89     107.53     2.4750                1.0000
 614.00     109.89     121.07     2.3944                1.0000
 614.00     109.89     136.02     2.8213                1.0000
 614.00     109.89     151.66     2.9103                1.0000
 614.00     197.14    0.23730     1.8061                1.0000
 614.00     197.14     22.143     2.1694                1.0000
 614.00     197.14     32.231     2.5280                1.0000
 614.00     197.14     47.615     3.1126                1.0000
 614.00     197.14     63.075     3.4733                1.0000
 614.00     197.14     77.454     3.8522                1.0000
 614.00     197.14     92.678     3.3174    0.20518     1.0000
 614.00     197.14     107.85     2.9504                1.0000
 614.00     197.14     122.48     2.5833                1.0000
 614.00     197.14     135.44     2.3833                1.0000
 614.00     197.14     150.97     2.5389                1.0000
 614.00     1345.7     20.434     2.8991                1.0000
 614.00     1345.7     30.118     2.8667                1.0000
 614.00     1345.7     45.634     3.0231                1.0000
 614.00     1345.7     60.712     2.9377                1.0000
 614.00     1345.7     75.783     2.8708                1.0000
 614.00     1345.7     90.916     2.6553    0.18583     1.0000
 614.00     1345.7     106.03     2.4769                1.0000
 614.00     1345.7     120.66     2.1868                1.0000
 645.00     0.0000    0.30103     7.2888                1.0000
 645.00     0.0000     20.089     6.1077                1.0000
 645.00     0.0000     32.219     5.3763                1.0000
 645.00     0.0000     45.407     4.7875                1.0000
 645.00     0.0000     60.101     4.7960                1.0000
 645.00     0.0000     74.777     4.8898                1.0000
 645.00     0.0000     89.489     4.8131    0.31238     1.0000
 645.00     0.0000     104.81     4.4527                1.0000
 645.00     0.0000     120.00     4.6887                1.0000
 645.00     0.0000     134.10     4.8957                1.0000
 645.00     0.0000     149.31     5.0749                1.0000
 645.00     109.89    0.81719     1.7246                1.0000
 645.00     109.89     20.170     1.9138                1.0000
 645.00     109.89     29.811     2.0993                1.0000
 645.00     109.89     46.919     2.4979                1.0000
 645.00     109.89     62.477     2.7415                1.0000
 645.00     109.89     75.334     2.9843                1.0000
 645.00     109.89     90.586     2.7222    0.14025     1.0000
 645.00     109.89     106.87     2.5588                1.0000
 645.00     109.89     120.43     2.4507                1.0000
 645.00     109.89     136.06     2.5539                1.0000
 645.00     109.89     149.98     2.8251                1.0000
 645.00     197.14    0.45850E-01 2.8113                1.0000
 645.00     197.14     21.529     2.8378                1.0000
 645.00     197.14     31.698     2.9735                1.0000
 645.00     197.14     47.630     3.6206                1.0000
 645.00     197.14     63.107     3.9846                1.0000
 645.00     197.14     76.988     4.2914                1.0000
 645.00     197.14     91.639     3.7871    0.18884     1.0000
 645.00     197.14     106.29     3.2829                1.0000
 645.00     197.14     121.91     3.1375                1.0000
 645.00     197.14     136.43     3.0861                1.0000
 645.00     197.14     150.85     3.3930                1.0000
 645.00     1345.7     29.036     3.7022                1.0000
 645.00     1345.7     44.559     3.8785                1.0000
 645.00     1345.7     59.233     3.3550                1.0000
 645.00     1345.7     74.243     3.4555                1.0000
 645.00     1345.7     89.888     3.2538    0.20791     1.0000
 645.00     1345.7     104.46     3.0327                1.0000
 645.00     1345.7     117.92     2.9435                1.0000
 645.00     1345.7     132.08     2.3632                1.0000
 645.00     1345.7     146.62     2.2555                1.0000
ENDDATA            474
ENDSUBENT          491
SUBENT        F0728003   20051222   20060315                  F023
BIB                  3          7
REACTION   (9-F-19(D,A)8-O-17,PAR,SIG)
ERR-ANALYS (EN-ERR-DIG) Digitizing error
           (ERR-DIG)    Digitizing error
           (DATA-ERR)  Error from the graphic bar
           The errors are estimated to be 30% and 40% for the 459-
           645 keV and 303-459 keV data, respectively
STATUS     (CURVE)Fig.5
ENDBIB               7
COMMON               2          3
EN-ERR-DIG ERR-DIG
KEV        MICRO-B
 0.4        0.08
ENDCOMMON            3
DATA                 4         45
E-LVL      EN         DATA       DATA-ERR
KEV        KEV        MICRO-B    MICRO-B
 0.0000     299.71    0.12905    0.32456E-01
 0.0000     351.79    0.60598    0.32456E-01
 0.0000     403.74     1.6348    0.48685E-01
 0.0000     455.98     3.6002    0.64913
 0.0000     456.89     3.0049    0.64765E-01
 0.0000     487.02     5.5560    0.64913
 0.0000     519.10     8.1669    0.64913
 0.0000     550.41     14.670    0.64913
 0.0000     582.21     30.753    0.81141
 0.0000     613.95     47.972    0.97369
 0.0000     644.28     61.774    0.81435
 109.89     300.83     1.2187    0.64704
 109.89     351.58     6.5209    0.80880
 109.89     403.96     20.409    0.80880
 109.89     452.33     38.157    0.65007
 109.89     456.66     3.0674    0.48528
 109.89     457.41     42.879    0.97359
 109.89     488.33     4.0548    0.64401
 109.89     519.33     7.1421    0.80880
 109.89     550.18     12.494    0.64704
 109.89     581.25     23.187    0.80880
 109.89     611.99     30.319    0.64704
 109.89     643.57     32.762    0.80577
 197.14     299.83     1.5123    0.65879
 197.14     351.56     5.7332    0.65879
 197.14     404.98     18.200    0.65878
 197.14     456.69     3.1459    0.65879
 197.14     456.93     47.792     1.3176
 197.14     487.64     5.2826    0.49409
 197.14     519.62     8.0836    0.65879
 197.14     550.35     14.338    0.82348
 197.14     581.36     25.206    0.98818
 197.14     612.82     37.560     1.1529
 197.14     643.50     44.802     1.1556
 1345.7     300.46    0.20368    0.32832E-01
 1345.7     352.40    0.48842    0.41040E-01
 1345.7     404.74     1.3644    0.41040E-01
 1345.7     456.26     2.4947    0.57456E-01
 1345.7     457.37     2.2800    0.82080
 1345.7     488.01     3.4281    0.82080
 1345.7     518.59     5.8895    0.98782
 1345.7     550.69     9.8369    0.82080
 1345.7     581.82     21.497    0.82080
 1345.7     613.50     32.832    0.81794
 1345.7     643.33     38.902    0.49248
ENDDATA             47
ENDSUBENT           63
SUBENT        F0728004   20051222   20060315                  F023
BIB                  4         11
REACTION   (9-F-19(D,A)8-O-17,PAR,DA,,LEG/RS)
FLAG       (1.) Pirsen's criterion = 3.02
           (2.) Pirsen's criterion = 0.69
           (3.) Pirsen's criterion = 3.3
           (4.) Pirsen's criterion = 0.65
           (5.) Pirsen's criterion = 1.17
           (6.) Pirsen's criterion = 2.07
           (7.) Pirsen's criterion = 1.16
           (8.) Pirsen's criterion = 1.19
ERR-ANALYS (DATA-ERR)  Data error from a table
STATUS     (TABLE) Table 1
ENDBIB              11
NOCOMMON             0          0
DATA                 6         88
E-LVL      EN         NUMBER     DATA       DATA-ERR   FLAG
KEV        KEV        NO-DIM     NO-DIM     NO-DIM     NO-DIM
 0.0000     303.00     1.0000    0.26000    0.40000E-01
 0.0000     355.00     1.0000    -.14000    0.30000E-01
 0.0000     355.00     2.0000    -.27000    0.40000E-01
 0.0000     407.00     1.0000    -.35000    0.30000E-01
 0.0000     407.00     2.0000    -.17000    0.30000E-01
 0.0000     459.00     1.0000    -.49000    0.21000E-01 1.0000
 0.0000     459.00     1.0000    -.48000    0.32000E-01 2.0000
 0.0000     490.00     1.0000    -.53000    0.10000
 0.0000     490.00     2.0000    0.16000    0.30000E-01
 0.0000     521.00     1.0000    -.41000    0.30000E-01
 0.0000     521.00     2.0000    0.14000    0.40000E-01
 0.0000     552.00     1.0000    -.22000    0.20000E-01
 0.0000     552.00     2.0000    0.11000    0.30000E-01
 0.0000     583.00     1.0000    -.11000    0.30000E-01
 0.0000     583.00     2.0000    0.10000E-010.40000E-01
 0.0000     583.00     3.0000    0.90000E-010.50000E-01
 0.0000     583.00     4.0000    0.14000    0.50000E-01
 0.0000     614.00     1.0000    -.10000E-010.10000E-01
 0.0000     614.00     2.0000    0.11000    0.30000E-01
 0.0000     614.00     3.0000    0.13000    0.40000E-01
 0.0000     645.00     1.0000    0.60000E-010.50000E-01
 0.0000     645.00     2.0000    0.19000    0.60000E-01
 0.0000     645.00     3.0000    0.11000    0.70000E-01
 109.89     303.00     1.0000    -.14000    0.50000E-01
 109.89     303.00     2.0000    -.30000    0.50000E-01
 109.89     355.00     1.0000    -.31000    0.20000E-01
 109.89     355.00     2.0000    -.29000    0.30000E-01
 109.89     407.00     1.0000    -.42000    0.20000E-01
 109.89     407.00     2.0000    -.25000    0.20000E-01
 109.89     459.00     1.0000    -.53000    0.20000E-01 3.0000
 109.89     459.00     1.0000    -.56000    0.30000E-01 4.0000
 109.89     459.00     2.0000    -.15000    0.30000E-01 3.0000
 109.89     459.00     2.0000    -.18000    0.30000E-01 4.0000
 109.89     490.00     1.0000    -.67000    0.20000E-01
 109.89     521.00     1.0000    -.71000    0.20000E-01
 109.89     552.00     1.0000    -.65000    0.20000E-01
 109.89     552.00     2.0000    0.10000    0.30000E-01
 109.89     583.00     1.0000    -.48000    0.20000E-01
 109.89     614.00     1.0000    -.20000    0.20000E-01
 109.89     614.00     2.0000    -.10000E-010.30000E-01
 109.89     614.00     3.0000    -.15000    0.30000E-01
 109.89     645.00     1.0000    -.70000E-010.20000E-01
 109.89     645.00     2.0000    -.11000    0.20000E-01
 109.89     645.00     3.0000    -.20000    0.30000E-01
 197.14     303.00     1.0000    -.35000    0.40000E-01
 197.14     355.00     1.0000    -.35000    0.50000E-01
 197.14     407.00     1.0000    -.30000    0.30000E-01
 197.14     407.00     2.0000    -.14000    0.40000E-01
 197.14     459.00     1.0000    -.19000    0.30000E-01 5.0000
 197.14     459.00     1.0000    -.22000    0.30000E-01 6.0000
 197.14     459.00     2.0000    -.30000    0.30000E-01 5.0000
 197.14     459.00     2.0000    -.31000    0.40000E-01 6.0000
 197.14     490.00     1.0000    -.14000    0.30000E-01
 197.14     490.00     2.0000    -.48000    0.40000E-01
 197.14     521.00     1.0000    -.90000E-010.70000E-01
 197.14     521.00     2.0000    -.53000    0.10000
 197.14     552.00     1.0000    0.20000E-010.20000E-01
 197.14     552.00     2.0000    -.50000    0.30000E-01
 197.14     552.00     3.0000    -.14000    0.30000E-01
 197.14     583.00     1.0000    0.70000E-010.30000E-01
 197.14     583.00     2.0000    -.50000    0.50000E-01
 197.14     583.00     3.0000    -.20000    0.60000E-01
 197.14     614.00     1.0000    0.90000E-010.20000E-01
 197.14     614.00     2.0000    -.27000    0.20000E-01
 197.14     614.00     3.0000    -.24000    0.30000E-01
 197.14     645.00     1.0000    0.50000E-010.30000E-01
 197.14     645.00     2.0000    -.16000    0.40000E-01
 197.14     645.00     3.0000    -.18000    0.50000E-01
 1345.7     303.00     1.0000    0.13000    0.50000E-01
 1345.7     303.00     2.0000    -.18000    0.70000E-01
 1345.7     355.00     1.0000    0.18000    0.30000E-01
 1345.7     355.00     2.0000    -.14000    0.40000E-01
 1345.7     407.00     1.0000    0.12000    0.20000E-01
 1345.7     407.00     2.0000    -.90000E-010.30000E-01
 1345.7     459.00     1.0000    -.20000E-010.40000E-01 7.0000
 1345.7     459.00     1.0000    0.40000E-010.40000E-01 8.0000
 1345.7     490.00     1.0000    0.88000    0.48000
 1345.7     490.00     2.0000    0.75000    0.65000
 1345.7     521.00     1.0000    0.12000    0.30000E-01
 1345.7     521.00     2.0000    -.20000    0.50000E-01
 1345.7     521.00     3.0000    -.20000    0.40000E-01
 1345.7     552.00     1.0000    0.19000    0.20000E-01
 1345.7     552.00     2.0000    -.35000    0.30000E-01
 1345.7     552.00     3.0000    -.35000    0.30000E-01
 1345.7     583.00     1.0000    0.28000    0.30000E-01
 1345.7     583.00     2.0000    -.18000    0.40000E-01
 1345.7     614.00     1.0000    0.18000    0.40000E-01
 1345.7     645.00     1.0000    0.26000    0.30000E-01
ENDDATA             90
ENDSUBENT          106
ENDENTRY             4
