ENTRY            F0722   20050603   20050831                  F022
SUBENT        F0722001   20050603   20050831                  F022
BIB                 12         37
TITLE      Elastic and inelastic scattering of 17.5 and 40.0 MeV
           3He particles from 11B.
AUTHOR     (M.A.M.Shahabuddin,C.J.Webb,V.R.W.Edwards)
INSTITUTE  (2UK KCL)
REFERENCE  (J,NP/A,284,83,1977)
FACILITY   (CYCLO,2UK HAR)Variable Energy Cyclotron was used for
           40.0 MeV measurements.
           (VDGT,2UK OXF) Tandem Van de Graaff Generator was used
           for 17.5 MeV measurements.
INC-SOURCE 3He beam.
INC-SPECT  In the 40 MeV measurements the beam was up to 10 mu-A.
SAMPLE     360 mu-g/cm2 self-supporting 11B foil target was placed
           at the centre of a 66 cm diameter scattering chamber in
           the 40.0 MeV measurements.
           In the 17.5 MeV measurements the target was a 92
           mu-g/cm2 thick, self-supporting foil.
DETECTOR   (TELES) Two Delta-E - E telescopes was placed about 20
           cm from the target in the 40 MeV measurements.
           (MAGSP) 24-channel Browne-Buechner type multigap
           spectrgraph was used for the 17.5 MeV measurements.
           (PLATE) Nuclear emulsion plates were used for the
           17.5 MeV measurements.
METHOD     (EDE)
ERR-ANALYS (ANG-ERR-D)  Digitizing error
           (ERR-DIG)    Digitizing error
           (DATA-ERR)   Error from the graphic bars
           Energy FWHM resolution was between 120 and 160 keV in
           the 40 MeV measurement and about 54 keV in the 17.5 MeV
           measurement.
           In the 40 MeV measurements the overall error for the
           elastic and forward angle inelastic data were about 5%.
           At backward angles the total uncertainty never exceeded
           10%. In the 17.5 MeV measurements the overall error
           varied from about 6% for the elastic and forward angle
           inelastic measurements and approximately 10 % for the
           backward angle inelastic cross sections.
HISTORY    (20050527C)
ENDBIB              37
NOCOMMON             0          0
ENDSUBENT           40
SUBENT        F0722002   20050603   20050831                  F022
BIB                  2          2
REACTION   (5-B-11(HE3,EL)5-B-11,,DA)
STATUS     (CURVE)Fig.3
ENDBIB               2
COMMON               2          3
ANG-ERR-D  ERR-DIG
ADEG       PER-CENT
 0.2        0.1
ENDCOMMON            3
DATA                 4         79
EN         ANG-CM     DATA-CM    DATA-ERR
MEV        ADEG       MB/SR      MB/SR
 17.500     18.414     896.79     53.142
 17.500     24.049     324.79     25.912
 17.500     28.785     75.716     5.2601
 17.500     33.343     13.236     1.0560
 17.500     38.171     9.8608    0.58434
 17.500     44.391     18.083     1.4427
 17.500     48.271     15.729     1.0927
 17.500     52.135     9.4982    0.66262
 17.500     55.189     3.0465    0.21075
 17.500     60.812     1.0824    0.64140E-01
 17.500     65.495     1.7555    0.12247
 17.500     65.786     2.0074    0.11837
 17.500     69.611     3.1366    0.21790
 17.500     73.675     3.6732    0.23954
 17.500     78.258     3.6164    0.25123
 17.500     83.300     2.7194    0.13364
 17.500     86.663     2.0104    0.13966
 17.500     90.376     1.3366    0.92468E-01
 17.500     94.835     1.0758    0.75051E-01
 17.500     98.601     1.0913    0.64668E-01
 17.500     102.41     1.1839    0.82590E-01
 17.500     106.23     1.3218    0.64960E-01
 17.500     109.69     1.1285    0.66871E-01
 17.500     113.38     1.0202    0.50137E-01
 17.500     116.92     1.0058    0.56267E-01
 17.500     120.67    0.99130    0.68577E-01
 17.500     124.82    0.95794    0.62470E-01
 17.500     127.81     1.0605    0.62844E-01
 17.500     130.65    0.92367    0.54735E-01
 17.500     133.86     1.0522    0.58861E-01
 17.500     136.85     1.1874    0.70705E-01
 17.500     139.78     1.1943    0.70424E-01
 40.000     16.414     328.23     23.498
 40.000     19.383     60.489     3.7086
 40.000     24.373     28.828     2.0724
 40.000     26.707     62.328     3.6169
 40.000     28.892     73.569     4.2499
 40.000     31.695     60.098     2.4320
 40.000     34.144     38.324     2.3497
 40.000     37.019     17.429    0.88097
 40.000     37.869     12.547    0.63786
 40.000     40.366     4.2812    0.44635
 40.000     40.851     3.3716    0.20572
 40.000     41.810     2.0500    0.12508
 40.000     41.951     2.6009    0.13222
 40.000     43.339     1.6122    0.98846E-01
 40.000     44.046     1.8508    0.15282
 40.000     46.337     2.6116    0.13276
 40.000     48.957     3.1739    0.16135
 40.000     51.436     3.0403    0.15456
 40.000     54.031     2.4843    0.12629
 40.000     56.132     1.7854    0.90244E-01
 40.000     57.476     1.4614    0.73436E-01
 40.000     58.478     1.3614    0.83471E-01
 40.000     59.932     1.3454    0.82487E-01
 40.000     61.213     1.4114    0.86535E-01
 40.000     63.236     1.8041    0.91713E-01
 40.000     66.094     2.3033    0.13306
 40.000     68.100     2.8577    0.14528
 40.000     70.435     3.0538    0.12358
 40.000     74.827     3.0969    0.18987
 40.000     79.149     2.7882    0.20044
 40.000     88.151     2.0455    0.11870
 40.000     92.235     1.7529    0.10172
 40.000     96.505     1.4434    0.72958E-01
 40.000     101.17     1.1531    0.58619E-01
 40.000     105.00    0.90407    0.55695E-01
 40.000     109.01    0.68785    0.27835E-01
 40.000     113.23    0.51804    0.31761E-01
 40.000     116.82    0.39047    0.19850E-01
 40.000     120.23    0.31245    0.12644E-01
 40.000     124.09    0.25999    0.18690E-01
 40.000     127.51    0.20804    0.12018E-01
 40.000     131.13    0.16478    0.79718E-02
 40.000     134.44    0.11030    0.67300E-02
 40.000     138.05    0.85650E-010.52512E-02
 40.000     146.94    0.73660E-010.29808E-02
 40.000     150.12    0.80202E-010.38800E-02
 40.000     154.08    0.78992E-010.56786E-02
ENDDATA             81
ENDSUBENT           92
SUBENT        F0722003   20050603   20050831                  F022
BIB                  2          2
REACTION   (5-B-11(HE3,EL)5-B-11,PAR,DA)
STATUS     (CURVE)Fig.4,6
ENDBIB               2
COMMON               2          3
ANG-ERR-D  ERR-DIG
ADEG       PER-CENT
 0.3        0.12
ENDCOMMON            3
DATA                 5        356
EN         E-LVL      ANG-CM     DATA-CM    DATA-ERR
MEV        MEV        ADEG       MB/SR      MB/SR
 17.500     0.0000     19.963     860.87     54.821
 17.500     0.0000     25.440     320.32     23.786
 17.500     0.0000     30.067     74.259     5.9051
 17.500     0.0000     34.673     13.385    0.78153
 17.500     0.0000     39.282     10.038    0.58610
 17.500     0.0000     45.585     18.092     1.1521
 17.500     0.0000     49.280     15.916     1.0135
 17.500     0.0000     53.409     9.7973    0.46821
 17.500     0.0000     56.094     3.1446    0.21689
 17.500     0.0000     62.264     1.1373    0.60378E-01
 17.500     0.0000     66.242     1.8450    0.12726
 17.500     0.0000     70.230     3.3600    0.21397
 17.500     0.0000     75.103     3.7548    0.25897
 17.500     0.0000     79.621     3.8084    0.20226
 17.500     0.0000     84.115     2.8706    0.13718
 17.500     0.0000     87.565     2.1544    0.12579
 17.500     0.0000     91.699     1.3994    0.74294E-01
 17.500     0.0000     96.082     1.1243    0.53728E-01
 17.500     0.0000     100.02     1.1235    0.53691E-01
 17.500     0.0000     103.74     1.2691    0.67375E-01
 17.500     0.0000     107.56     1.3586    0.64953E-01
 17.500     0.0000     111.03     1.1707    0.68377E-01
 17.500     0.0000     115.07     1.0632    0.62074E-01
 17.500     0.0000     118.08     1.0626    0.62042E-01
 17.500     0.0000     121.79     1.0514    0.72516E-01
 17.500     0.0000     126.42     1.0056    0.48055E-01
 17.500     0.0000     128.97     1.0895    0.69379E-01
 17.500     0.0000     132.32    0.98462    0.67931E-01
 17.500     0.0000     135.46     1.0882    0.69301E-01
 17.500     0.0000     138.02     1.2615    0.66972E-01
 17.500     0.0000     141.49     1.2750    0.81192E-01
 17.500     2.1240     20.598    0.63554    0.39985E-01
 17.500     2.1240     25.143    0.86529    0.49932E-01
 17.500     2.1240     30.593    0.93553    0.58860E-01
 17.500     2.1240     34.532    0.94472    0.59438E-01
 17.500     2.1240     39.140    0.72196    0.41646E-01
 17.500     2.1240     44.324    0.52672    0.35904E-01
 17.500     2.1240     48.819    0.41310    0.23829E-01
 17.500     2.1240     53.424    0.30440    0.17559E-01
 17.500     2.1240     58.314    0.40380    0.23293E-01
 17.500     2.1240     62.705    0.36306    0.17141E-01
 17.500     2.1240     66.507    0.28956    0.15194E-01
 17.500     2.1240     71.154    0.34054    0.19652E-01
 17.500     2.1240     76.138    0.35482    0.20468E-01
 17.500     2.1240     79.396    0.41948    0.24198E-01
 17.500     2.1240     84.255    0.39547    0.20743E-01
 17.500     2.1240     88.562    0.50589    0.29171E-01
 17.500     2.1240     92.732    0.50550    0.29171E-01
 17.500     2.1240     96.769    0.42255    0.24375E-01
 17.500     2.1240     100.71    0.44529    0.30344E-01
 17.500     2.1240     104.40    0.36811    0.21235E-01
 17.500     2.1240     107.91    0.51478    0.29695E-01
 17.500     2.1240     112.07    0.48538    0.25459E-01
 17.500     2.1240     115.32    0.51124    0.26815E-01
 17.500     2.1240     119.25    0.47466    0.24896E-01
 17.500     2.1240     122.97    0.53537    0.30883E-01
 17.500     4.4440     21.183    0.21072    0.26674E-01
 17.500     4.4440     25.841    0.27601    0.31588E-01
 17.500     4.4440     30.234    0.25287    0.35113E-01
 17.500     4.4440     35.554    0.23414    0.26796E-01
 17.500     4.4440     40.135    0.13461    0.18691E-01
 17.500     4.4440     45.208    0.10595    0.10852E-01
 17.500     4.4440     49.587    0.83399E-010.10557E-01
 17.500     4.4440     54.439    0.73157E-010.74938E-02
 17.500     4.4440     59.094    0.92763E-010.11742E-01
 17.500     4.4440     63.969    0.10440    0.13216E-01
 17.500     4.4440     68.348    0.82183E-010.84183E-02
 17.500     4.4440     72.749    0.82109E-010.93969E-02
 17.500     4.4440     77.368    0.71253E-010.81545E-02
 17.500     4.4440     82.484    0.87450E-010.89624E-02
 17.500     4.4440     86.194    0.91254E-010.93475E-02
 17.500     4.4440     90.365    0.93173E-010.15263E-01
 17.500     4.4440     94.310    0.10043    0.12713E-01
 17.500     4.4440     98.490    0.11305    0.14317E-01
 17.500     4.4440     101.48    0.89987E-010.12496E-01
 17.500     5.0190     25.806    0.59409E-010.29117E-02
 17.500     5.0190     30.686    0.71063E-010.38689E-02
 17.500     5.0190     35.789    0.77459E-010.42172E-02
 17.500     5.0190     40.863    0.59886E-010.29324E-02
 17.500     5.0190     45.361    0.48675E-010.29133E-02
 17.500     5.0190     49.982    0.42427E-010.23089E-02
 17.500     5.0190     54.823    0.32448E-010.15896E-02
 17.500     5.0190     60.156    0.34426E-010.18735E-02
 17.500     5.0190     63.647    0.41618E-010.20388E-02
 17.500     5.0190     68.975    0.41575E-010.20367E-02
 17.500     5.0190     73.158    0.48946E-010.29295E-02
 17.500     5.0190     77.534    0.36629E-010.19934E-02
 17.500     5.0190     85.871    0.35763E-010.15576E-02
 17.500     5.0190     89.463    0.36358E-010.21769E-02
 17.500     6.7430     20.818    0.89341E-010.53176E-02
 17.500     6.7430     25.365    0.11882    0.51438E-02
 17.500     6.7430     30.006    0.12876    0.62702E-02
 17.500     6.7430     35.544    0.10528    0.56952E-02
 17.500     6.7430     41.197    0.85063E-010.32249E-02
 17.500     6.7430     45.236    0.73900E-010.43966E-02
 17.500     6.7430     51.597    0.68365E-010.33309E-02
 17.500     6.7430     56.338    0.63665E-010.34440E-02
 17.500     6.7430     60.978    0.68257E-010.40608E-02
 17.500     6.7430     65.836    0.63891E-010.38011E-02
 17.500     6.7430     70.436    0.46889E-010.30425E-02
 17.500     6.7430     74.967    0.53650E-010.37718E-02
 17.500     6.7430     79.221    0.39981E-010.23786E-02
 17.500     6.7430     83.982    0.45058E-010.36529E-02
 17.500     6.7430     88.269    0.45929E-010.27325E-02
 17.500     6.7430     93.161    0.59193E-010.38409E-02
 17.500     6.7430     96.652    0.69228E-010.48651E-02
 17.500     6.7430     101.04    0.61701E-010.40036E-02
 17.500     6.7430     104.97    0.57145E-010.37080E-02
 17.500     6.7430     108.46    0.69039E-010.48519E-02
 17.500     6.7430     112.61    0.52880E-010.34312E-02
 40.000     0.0000     17.662     326.55     33.254
 40.000     0.0000     19.693     59.516     4.5539
 40.000     0.0000     24.695     28.858     2.0247
 40.000     0.0000     32.365     57.804     4.4229
 40.000     0.0000     34.630     37.669     3.1215
 40.000     0.0000     37.091     17.131     1.0930
 40.000     0.0000     38.213     12.368    0.86779
 40.000     0.0000     39.553     7.8516    0.50095
 40.000     0.0000     39.992     6.1639    0.47123
 40.000     0.0000     40.769     4.5039    0.31586
 40.000     0.0000     40.862     3.5541    0.22676
 40.000     0.0000     41.644     2.7356    0.19203
 40.000     0.0000     41.967     2.1457    0.15055
 40.000     0.0000     43.217     1.7726    0.14694
 40.000     0.0000     44.498     2.0635    0.14478
 40.000     0.0000     46.946     2.7831    0.17766
 40.000     0.0000     49.150     3.2645    0.22904
 40.000     0.0000     51.452     3.1612    0.24189
 40.000     0.0000     53.740     2.6574    0.18644
 40.000     0.0000     55.788     2.0050    0.14067
 40.000     0.0000     57.381     1.6224    0.10351
 40.000     0.0000     58.757     1.5010    0.76649E-01
 40.000     0.0000     59.675     1.4354    0.82446E-01
 40.000     0.0000     60.950     1.5692    0.90180E-01
 40.000     0.0000     63.159     1.9370    0.12358
 40.000     0.0000     65.947     2.4506    0.14076
 40.000     0.0000     68.042     3.0850    0.21645
 40.000     0.0000     70.697     3.2200    0.16454
 40.000     0.0000     74.731     3.2796    0.18837
 40.000     0.0000     80.137     2.9587    0.20769
 40.000     0.0000     88.291     2.2002    0.15437
 40.000     0.0000     92.888     1.9452    0.12411
 40.000     0.0000     96.670     1.5544    0.10901
 40.000     0.0000     100.80     1.2818    0.89975E-01
 40.000     0.0000     105.15    0.99668    0.50930E-01
 40.000     0.0000     108.70    0.77169    0.49235E-01
 40.000     0.0000     110.53    0.66966    0.34197E-01
 40.000     0.0000     112.60    0.58591    0.41109E-01
 40.000     0.0000     116.72    0.44224    0.36646E-01
 40.000     0.0000     120.39    0.36189    0.23089E-01
 40.000     0.0000     124.17    0.30048    0.21092E-01
 40.000     0.0000     127.73    0.25101    0.17611E-01
 40.000     0.0000     134.81    0.13055    0.91597E-02
 40.000     0.0000     138.24    0.99139E-010.75857E-02
 40.000     0.0000     141.22    0.83198E-010.37183E-02
 40.000     0.0000     144.55    0.72824E-010.55746E-02
 40.000     0.0000     147.91    0.85991E-010.76710E-02
 40.000     0.0000     150.45    0.96213E-010.61385E-02
 40.000     0.0000     154.14    0.94327E-010.66181E-02
 40.000     0.0000     156.76    0.73670E-010.75069E-02
 40.000     2.1240     17.079     2.2370    0.21337
 40.000     2.1240     19.364     1.8461    0.17609
 40.000     2.1240     22.314     1.1708    0.89434E-01
 40.000     2.1240     24.561    0.66681    0.42473E-01
 40.000     2.1240     27.532    0.51970    0.36403E-01
 40.000     2.1240     29.473    0.43742    0.33430E-01
 40.000     2.1240     31.693    0.58965    0.41302E-01
 40.000     2.1240     34.256    0.77943    0.44693E-01
 40.000     2.1240     37.499    0.91294    0.46543E-01
 40.000     2.1240     40.382    0.93637    0.59677E-01
 40.000     2.1240     41.186    0.91189    0.46489E-01
 40.000     2.1240     41.989    0.87743    0.44701E-01
 40.000     2.1240     43.711    0.82778    0.36934E-01
 40.000     2.1240     44.855    0.76243    0.48564E-01
 40.000     2.1240     47.148    0.67924    0.43265E-01
 40.000     2.1240     49.205    0.57900    0.40556E-01
 40.000     2.1240     52.179    0.46568    0.32619E-01
 40.000     2.1240     54.008    0.40448    0.28332E-01
 40.000     2.1240     56.303    0.36716    0.23386E-01
 40.000     2.1240     58.143    0.35291    0.17992E-01
 40.000     2.1240     60.209    0.32723    0.24997E-01
 40.000     2.1240     61.825    0.33750    0.23641E-01
 40.000     2.1240     64.139    0.36846    0.21128E-01
 40.000     2.1240     66.216    0.38030    0.24224E-01
 40.000     2.1240     68.754    0.38982    0.24830E-01
 40.000     2.1240     71.057    0.38495    0.29406E-01
 40.000     2.1240     75.663    0.37216    0.26068E-01
 40.000     2.1240     80.488    0.32326    0.26742E-01
 40.000     2.1240     84.858    0.29874    0.20925E-01
 40.000     2.1240     89.462    0.28375    0.23474E-01
 40.000     2.1240     93.481    0.24605    0.17226E-01
 40.000     2.1240     97.503    0.22190    0.15543E-01
 40.000     2.1240     101.87    0.19525    0.16152E-01
 40.000     2.1240     106.00    0.16088    0.11269E-01
 40.000     2.1240     109.67    0.14175    0.13520E-01
 40.000     2.1240     113.58    0.13087    0.91666E-02
 40.000     2.1240     117.49    0.11733    0.89628E-02
 40.000     2.1240     121.63    0.10780    0.75512E-02
 40.000     2.1240     124.49    0.94730E-010.54285E-02
 40.000     2.1240     128.51    0.81806E-010.62492E-02
 40.000     2.1240     132.19    0.77578E-010.49414E-02
 40.000     2.1240     135.52    0.67351E-010.42876E-02
 40.000     2.1240     138.74    0.63994E-010.48907E-02
 40.000     2.1240     142.07    0.55178E-010.38650E-02
 40.000     2.1240     145.06    0.52385E-010.36693E-02
 40.000     2.1240     148.31    0.63368E-010.44386E-02
 40.000     2.1240     151.32    0.74366E-010.66229E-02
 40.000     2.1240     154.55    0.77565E-010.54331E-02
 40.000     2.1240     157.66    0.75611E-010.62579E-02
 40.000     4.4440     17.312     7.7781    0.67285
 40.000     4.4440     19.469     5.6830    0.52946
 40.000     4.4440     22.201     4.0620    0.32463
 40.000     4.4440     24.681     2.3823    0.22195
 40.000     4.4440     27.606     1.1816    0.11790
 40.000     4.4440     30.008    0.99030    0.72610E-01
 40.000     4.4440     32.238     1.4785    0.12796
 40.000     4.4440     34.921     2.0498    0.19089
 40.000     4.4440     36.662     2.3217    0.17014
 40.000     4.4440     38.052     2.4807    0.18179
 40.000     4.4440     39.434     2.4672    0.22986
 40.000     4.4440     40.696     2.3329    0.15556
 40.000     4.4440     41.609     2.1359    0.99631E-01
 40.000     4.4440     42.871     2.0255    0.12152
 40.000     4.4440     43.778     1.7645    0.16439
 40.000     4.4440     45.157     1.6925    0.13526
 40.000     4.4440     47.094     1.3677    0.12737
 40.000     4.4440     49.731     1.1943    0.95449E-01
 40.000     4.4440     51.911     1.0927    0.65515E-01
 40.000     4.4440     54.326     1.0435    0.83391E-01
 40.000     4.4440     57.330     1.1293    0.90252E-01
 40.000     4.4440     58.599     1.1453    0.10675
 40.000     4.4440     60.787     1.1269    0.75097E-01
 40.000     4.4440     62.054     1.1264    0.75020E-01
 40.000     4.4440     64.364     1.1884    0.94927E-01
 40.000     4.4440     66.672     1.2284    0.10627
 40.000     4.4440     69.317     1.1707    0.93557E-01
 40.000     4.4440     71.618     1.1308    0.82866E-01
 40.000     4.4440     76.450     1.0420    0.76363E-01
 40.000     4.4440     80.703    0.94096    0.62743E-01
 40.000     4.4440     85.419    0.86798    0.69367E-01
 40.000     4.4440     89.564    0.84393    0.67444E-01
 40.000     4.4440     93.936    0.79243    0.47541E-01
 40.000     4.4440     98.073    0.71117    0.42666E-01
 40.000     4.4440     102.44    0.64734    0.47439E-01
 40.000     4.4440     106.33    0.48197    0.35320E-01
 40.000     4.4440     110.57    0.39359    0.23629E-01
 40.000     4.4440     114.36    0.34255    0.31914E-01
 40.000     4.4440     118.27    0.31314    0.22948E-01
 40.000     4.4440     121.72    0.29865    0.23867E-01
 40.000     4.4440     125.63    0.26288    0.22751E-01
 40.000     4.4440     128.84    0.22400    0.22350E-01
 40.000     4.4440     132.51    0.19037    0.16476E-01
 40.000     4.4440     136.05    0.13988    0.12100E-01
 40.000     4.4440     139.37    0.11818    0.94447E-02
 40.000     4.4440     142.13    0.11125    0.96280E-02
 40.000     4.4440     145.34    0.95369E-010.88851E-02
 40.000     4.4440     148.23    0.10461    0.97499E-02
 40.000     4.4440     151.13    0.11943    0.11127E-01
 40.000     4.4440     154.35    0.11309    0.10536E-01
 40.000     5.0190     16.729     1.6379    0.16842
 40.000     5.0190     19.895    0.98355    0.10741
 40.000     5.0190     22.496    0.64803    0.45924E-01
 40.000     5.0190     24.766    0.48856    0.47138E-01
 40.000     5.0190     27.277    0.39662    0.33193E-01
 40.000     5.0190     29.922    0.37854    0.29238E-01
 40.000     5.0190     32.493    0.51540    0.39809E-01
 40.000     5.0190     35.053    0.63294    0.48888E-01
 40.000     5.0190     37.615    0.79289    0.66322E-01
 40.000     5.0190     38.780    0.88312    0.56877E-01
 40.000     5.0190     40.743    0.91729    0.59118E-01
 40.000     5.0190     42.469    0.89818    0.40522E-01
 40.000     5.0190     43.611    0.82083    0.47591E-01
 40.000     5.0190     45.106    0.79947    0.46319E-01
 40.000     5.0190     47.273    0.66740    0.47269E-01
 40.000     5.0190     49.439    0.54627    0.42170E-01
 40.000     5.0190     51.947    0.43829    0.33872E-01
 40.000     5.0190     54.471    0.39817    0.38417E-01
 40.000     5.0190     57.000    0.37960    0.29303E-01
 40.000     5.0190     59.306    0.38419    0.29658E-01
 40.000     5.0190     60.575    0.38631    0.27361E-01
 40.000     5.0190     62.192    0.39935    0.35961E-01
 40.000     5.0190     64.368    0.36035    0.37038E-01
 40.000     5.0190     66.544    0.32020    0.28833E-01
 40.000     5.0190     68.837    0.29026    0.24279E-01
 40.000     5.0190     71.132    0.26814    0.18991E-01
 40.000     5.0190     75.960    0.24336    0.21914E-01
 40.000     5.0190     79.876    0.24019    0.24698E-01
 40.000     5.0190     85.053    0.22423    0.17310E-01
 40.000     5.0190     88.968    0.21951    0.15556E-01
 40.000     5.0190     93.219    0.19810    0.19105E-01
 40.000     5.0190     97.359    0.18413    0.16581E-01
 40.000     5.0190     101.86    0.19269    0.21050E-01
 40.000     5.0190     106.11    0.17761    0.14856E-01
 40.000     5.0190     110.02    0.16574    0.19154E-01
 40.000     5.0190     113.71    0.16069    0.12412E-01
 40.000     5.0190     118.30    0.13853    0.13360E-01
 40.000     5.0190     121.86    0.13388    0.12050E-01
 40.000     5.0190     125.53    0.11062    0.64092E-02
 40.000     5.0190     129.20    0.97965E-010.88257E-02
 40.000     5.0190     132.31    0.95612E-010.11050E-01
 40.000     5.0190     136.32    0.79875E-010.56605E-02
 40.000     5.0190     138.96    0.74446E-010.67037E-02
 40.000     5.0190     142.30    0.69303E-010.66866E-02
 40.000     5.0190     144.93    0.61213E-010.55121E-02
 40.000     5.0190     147.92    0.58007E-010.44804E-02
 40.000     5.0190     151.40    0.66764E-010.51568E-02
 40.000     5.0190     154.39    0.68842E-010.48758E-02
 40.000     5.0190     157.37    0.55998E-010.46840E-02
 40.000     6.7430     19.805     4.3078    0.31659
 40.000     6.7430     22.988     2.9945    0.18017
 40.000     6.7430     25.449     1.6378    0.98540E-01
 40.000     6.7430     27.697     1.0325    0.82751E-01
 40.000     6.7430     29.965    0.76287    0.56065E-01
 40.000     6.7430     32.654     1.0433    0.69773E-01
 40.000     6.7430     35.466     1.5364    0.10261
 40.000     6.7430     37.792     1.8252    0.97725E-01
 40.000     6.7430     39.066     1.9262    0.12873
 40.000     6.7430     40.560     1.8608    0.11205
 40.000     6.7430     41.832     1.9361    0.11649
 40.000     6.7430     43.444     1.9227    0.12850
 40.000     6.7430     44.352     1.7145    0.10316
 40.000     6.7430     45.740     1.7825    0.83453E-01
 40.000     6.7430     48.031     1.6025    0.11777
 40.000     6.7430     50.320     1.4092    0.94178E-01
 40.000     6.7430     53.073     1.2726    0.76566E-01
 40.000     6.7430     55.481     1.1576    0.69703E-01
 40.000     6.7430     57.430     1.0599    0.56697E-01
 40.000     6.7430     59.153     1.0174    0.54475E-01
 40.000     6.7430     61.340    0.99669    0.59967E-01
 40.000     6.7430     65.031     1.0287    0.55028E-01
 40.000     6.7430     67.096    0.95451    0.44688E-01
 40.000     6.7430     69.508    0.89247    0.53738E-01
 40.000     6.7430     72.154    0.86794    0.52221E-01
 40.000     6.7430     75.820    0.72366    0.48364E-01
 40.000     6.7430     81.674    0.60231    0.36267E-01
 40.000     6.7430     85.918    0.51569    0.34464E-01
 40.000     6.7430     90.519    0.48307    0.51536E-01
 40.000     6.7430     94.668    0.48324    0.22625E-01
 40.000     6.7430     99.030    0.42194    0.19754E-01
 40.000     6.7430     103.40    0.37868    0.22784E-01
 40.000     6.7430     107.30    0.33755    0.22559E-01
 40.000     6.7430     110.98    0.31276    0.14643E-01
 40.000     6.7430     115.58    0.28648    0.19146E-01
 40.000     6.7430     119.02    0.25361    0.16949E-01
 40.000     6.7430     122.48    0.25484    0.15333E-01
 40.000     6.7430     126.14    0.20801    0.97388E-02
 40.000     6.7430     129.93    0.18541    0.99099E-02
 40.000     6.7430     133.94    0.16410    0.87783E-02
 40.000     6.7430     136.44    0.12134    0.73006E-02
 40.000     6.7430     139.88    0.10182    0.61258E-02
 40.000     6.7430     142.99    0.10161    0.47621E-02
 40.000     6.7430     145.54    0.11939    0.87797E-02
 40.000     6.7430     149.27    0.15889    0.10611E-01
 40.000     6.7430     152.04    0.17306    0.10404E-01
 40.000     6.7430     154.80    0.16830    0.10134E-01
 40.000     6.7430     158.70    0.13944    0.10241E-01
ENDDATA            358
ENDSUBENT          369
ENDENTRY             3
