ENTRY            F0744   20080910   20090323   20090318       F034
SUBENT        F0744001   20080910   20090323   20090318       F034
BIB                  9         17
TITLE      Study of the levels of 77,79,81,83Br with the
           76,78,80,82Se(3He,d) reaction.
AUTHOR     (J.D.Zumbro,R.W.Tarara,C.P.Browne)
INSTITUTE  (1USANOT)
REFERENCE  (J,NP/A,393,15,1983)
FACILITY   (VDGT)
DETECTOR   (MAGSP)Reaction products were analysed with the 100 cm
           magnetic spectrograph.
SAMPLE     The targets were prepared by vacuum evaporation of 75
           to 100 mu-g/cm2 of Se metal onto a 10 mu-g/cm2 carbon
           foil. The targets were covered with approximately 50
           mu-g/cm2 of gold. This left the Se sandwiched between
           layers of gold and carbon.
ERR-ANALYS (ANG-ERR-D) Angle digitizing error
           (ERR-DIG)   Data digitizing error
           (DATA-ERR)  Error from the graphic bars
HISTORY    (20080907C)
ENDBIB              17
COMMON               2          3
EN         ERR-DIG
MEV        PER-CENT
  24.       0.01
ENDCOMMON            3
ENDSUBENT           24
SUBENT        F0744002   20080910   20090323   20090318       F034
BIB                  5          9
REACTION   (34-SE-80(HE3,EL)34-SE-80,,DA,,RTH)
DETECTOR   (SIBAR) At each spectrograph angle 3He's were recorded
           with a silicon surface barrier detector fixed at angle
           equal 60 degr. in the scattering chamber.
MONITOR    The yield of the 3He's to the first excited state in
           the Se target isotope was used to normalize the
           angular distribution from angle to angle.
SAMPLE     A target isotopically enriched to 99.45%  was used.
STATUS     (CURVE) Fig.2
ENDBIB               9
COMMON               1          3
ANG-ERR-D
ADEG
 0.082
ENDCOMMON            3
DATA                 3         27
ANG-CM     DATA-CM    DATA-ERR
ADEG       NO-DIM     NO-DIM
      16.18     1.1079 7.8022E-02
     18.815     1.0588    0.10057
     21.452     0.8633 7.1340E-02
     23.923    0.72005 5.0710E-02
     26.559    0.67272 4.7377E-02
     29.196    0.53621 3.7763E-02
     31.667    0.53019 3.0938E-02
     34.303    0.44727 3.1499E-02
     36.775    0.39037 2.7492E-02
      39.41    0.36059 2.1042E-02
     41.882    0.29737 1.7352E-02
     44.518    0.25661 1.8072E-02
      46.99    0.21648 1.2632E-02
     49.461    0.19109 1.1151E-02
     52.097    0.17652 1.0300E-02
     54.569    0.15233 1.0728E-02
     57.205    0.12142 1.0033E-02
     59.676    0.11473 8.0798E-03
     62.312    0.10719 4.9751E-03
     64.784 8.2577E-02 3.8329E-03
     67.255 8.2581E-02
     67.256 7.2072E-02
     69.892 6.5824E-02 3.8410E-03
     72.363 5.3065E-02
     72.363 5.6803E-02
     74.835 4.8465E-02 4.2042E-03
     77.306 4.5278E-02 2.6421E-03
ENDDATA             29
ENDSUBENT           47
SUBENT        F0744003   20080910   20090323   20090318       F034
BIB                  5          9
REACTION   (34-SE-78(HE3,EL)34-SE-78,,DA,,RTH)
DETECTOR   (SIBAR) At each spectrograph angle 3He's were recorded
           with a silicon surface barrier detector fixed at angle
           equal 60 degr. in the scattering chamber.
MONITOR    The yield of the 3He's to the first excited state in
           the Se target isotope was used to normalize the
           angular distribution from angle to angle.
SAMPLE     A target isotopically enriched to 98.58% was used.
STATUS     (CURVE) Fig.2
ENDBIB               9
COMMON               1          3
ANG-ERR-D
ADEG
 0.148
ENDCOMMON            3
DATA                 3         43
ANG-CM     DATA-CM    DATA-ERR
ADEG       NO-DIM     NO-DIM
     16.331    0.94452 5.5882E-02
     18.966    0.98903 7.0627E-02
     21.437    0.91261 4.2945E-02
     24.074      0.777 4.5970E-02
      26.71    0.71697 4.2419E-02
     29.346    0.58299 4.1631E-02
     31.982    0.54417
     31.982    0.56977
     32.971    0.48508 2.8699E-02
     34.454      0.458 2.7097E-02
     36.926    0.38108 2.2546E-02
     39.562    0.33972 2.0099E-02
     42.033    0.30284 1.7917E-02
     43.187    0.28924 1.3611E-02
     44.834    0.27309 2.9769E-02
     47.306    0.22463 1.3290E-02
     49.942     0.1957 1.1578E-02
     52.414    0.16283 7.6622E-03
     53.567    0.15024 8.8889E-03
      55.05    0.15914 7.4885E-03
     57.686    0.13705 8.1087E-03
     60.157    0.12793 6.0199E-03
     62.629    0.10644 5.0088E-03
     65.265 8.7551E-02 4.1199E-03
     67.572 7.2013E-02 4.2606E-03
     70.209 6.0611E-02 4.3282E-03
      72.68 5.7890E-02 3.4250E-03
     75.152 4.8167E-02 4.0363E-03
     77.623 4.2448E-02 3.5571E-03
      80.26 3.5727E-02 2.1137E-03
     82.731 3.4123E-02 1.6058E-03
     85.203 2.6500E-02 1.2470E-03
     87.674 2.4735E-02 1.7663E-03
     90.146 1.8772E-02 1.1106E-03
     92.617 1.8137E-02 1.0730E-03
     97.559 1.6169E-02 7.6088E-04
      102.5 1.2132E-02 7.1777E-04
     108.43 8.5943E-03 5.0847E-04
     112.39 7.8399E-03 5.5985E-04
     118.15 5.8152E-03 3.4405E-04
     122.11 4.2152E-03 2.4939E-04
     128.04 3.7580E-03 2.2234E-04
     131.83 2.8195E-03 2.0134E-04
ENDDATA             45
ENDSUBENT           63
SUBENT        F0744004   20080910   20090323   20090318       F034
BIB                  5          9
REACTION   (34-SE-76(HE3,EL)34-SE-76,,DA,,RTH)
DETECTOR   (SIBAR) At each spectrograph angle 3He's were recorded
           with a silicon surface barrier detector fixed at angle
           equal 60 degr. in the scattering chamber.
MONITOR    The yield of the 3He's to the first excited state in
           the Se target isotope was used to normalize the
           angular distribution from angle to angle.
SAMPLE     A target isotopically enriched to 96.88% was used.
STATUS     (CURVE) Fig.2
ENDBIB               9
COMMON               1          3
ANG-ERR-D
ADEG
 0.195
ENDCOMMON            3
DATA                 3         24
ANG-CM     DATA-CM    DATA-ERR
ADEG       NO-DIM     NO-DIM
     14.001     1.1103
     16.472     1.0602
     19.108    0.98909
     21.744    0.88102 4.1764E-02
     27.017    0.64459 3.8419E-02
     32.124    0.57421
     37.234    0.36141 3.0512E-02
      42.34     0.3372 1.5985E-02
     47.449    0.25543 1.5224E-02
     52.558    0.14655
     55.359    0.14656 6.9475E-03
       57.5    0.14488 5.1211E-03
     62.773      0.106 5.0250E-03
      65.41 8.5076E-02
     67.718 6.7494E-02 4.0228E-03
     72.991 4.7696E-02 3.4314E-03
     77.769 4.3989E-02 3.1647E-03
     83.042 3.1814E-02
     87.985 2.4951E-02
     92.929 1.8255E-02
     98.201 1.4996E-02
     102.98 1.0235E-02
     107.92 8.0271E-03 3.8052E-04
     112.87 5.3534E-03 2.5377E-04
ENDDATA             26
ENDSUBENT           44
SUBENT        F0744005   20080910   20090323   20090318       F034
BIB                  5         21
REACTION   (34-SE-76(HE3,D)35-BR-77,PAR,DA)
DETECTOR   (PS,PROPC)  Deuterons were detected with position
           sensitive gas proportional counters (PC) mounted on
           the spectrograph focal surface.
           (PLATE) The nuclear track plates used for the
           excitation energy measurements were also used for the
           angular distributions. The track-plate data in general
           had slightly better resolution (18-25 keV FWHM) than
           the PC data which had 25-30kev FWHM resolution.
MONITOR    Absolute differential cross sections for the
           76Se(3He,d)77Br reactions were measured at
           a laboratory scattering angle of 30 degr. by
           simultaneously recording events from the (3He,d)
           reaction and from elastic scattering. After correcting
           the reaction yield and elastic yield for differences in
           the spectrograph solid angle, the absolute reaction
           cross sections were determined from the elastic
           scattering cross sections and the ratio of the reaction
           yield to the elastic yield.
SAMPLE     A target isotopically enriched to 96.88% was used.
STATUS     (CURVE) Fig.3,4,8
ENDBIB              21
COMMON               1          3
ANG-ERR-D
ADEG
 0.453
ENDCOMMON            3
DATA                 4        303
E-LVL      ANG-CM     DATA-CM    DATA-ERR
KEV        ADEG       MB/SR      MB/SR
         0.     7.2682     1.9935    0.14618
         0.     10.074     2.2545    0.20852
         0.      20.16    0.46558 3.4140E-02
         0.     25.275    0.72352 5.3056E-02
         0.     30.328    0.38896 2.8522E-02
         0.     35.893    0.22047 1.6167E-02
         0.     40.988    0.24481 1.7952E-02
         0.     46.044    0.13878 1.0177E-02
         0.      51.36 8.7481E-02 6.4149E-03
       106.     8.1763 7.5965E-02 5.5800E-02
       106.     10.586    0.13453 7.9977E-02
       106.      16.22    0.39198 4.5810E-02
       106.     21.331    0.73397 7.0814E-02
       106.     26.463    0.79083 6.0473E-02
       106.     31.617    0.49944 3.8191E-02
       106.     36.774    0.28241 5.0925E-02
       106.     42.184    0.24849 2.9039E-02
       106.     47.325    0.21464 2.5084E-02
       106.     52.207    0.14063 1.6435E-02
       130.      8.034    0.67587    0.15454
       130.     10.716     1.1857    0.11634
       130.     15.849     1.2553 9.7603E-02
       130.     21.017    0.51156 6.0809E-02
       130.     26.165    0.36555 4.3453E-02
       130.     31.556    0.53205 5.2204E-02
       130.     36.446    0.27142 4.9807E-02
       130.     41.592    0.19762 2.3491E-02
       130.     46.739    0.14388 2.0145E-02
       130.     51.888 9.7200E-02 1.1554E-02
       165.     7.6648      3.322    0.24312
       165.     10.311     3.8802    0.28397
       165.     15.596     1.5709    0.11497
       165.     20.682     1.4431    0.12765
       165.     25.769     1.5485 9.0019E-02
       165.     30.852    0.78594 5.7519E-02
       165.     36.141    0.67274 5.9506E-02
       165.     41.227    0.56778 5.0222E-02
       165.     46.311    0.35119 3.1063E-02
       165.     51.599    0.23643 1.7303E-02
       228.     6.9236    0.26913 4.0969E-02
       228.     9.7754    0.76473 8.5745E-02
       228.     15.057    0.22499 2.0834E-02
       228.     20.125     0.1469 1.6471E-02
       228.      25.24    0.24522 2.2707E-02
       228.     30.283 9.9243E-02 1.1128E-02
       228.     35.626 9.9113E-02 1.1113E-02
       228.     40.974    0.10625 2.0589E-02
       228.     45.747 3.1823E-02 4.2006E-03
       228.     51.079 2.5245E-02 4.8919E-03
       277.     15.736 3.1122E-02 7.7682E-03
       277.     20.897 1.4820E-02 4.9702E-03
       277.     31.155 2.0737E-02 3.5144E-03
       277.     41.507 2.0391E-03 1.3699E-03
       277.     46.617 4.2103E-03 1.7531E-03
       277.     51.981 1.3576E-02 4.2115E-03
       337.     6.9798     3.7416    0.20876
       337.     9.7834     4.1682    0.23257
       337.     15.076     1.2609 9.4666E-02
       337.     20.152    0.92597 6.9519E-02
       337.     25.257     1.3526    0.10155
       337.     30.319    0.71714 5.3841E-02
       337.     35.897    0.44742 3.3591E-02
       337.     40.991    0.50729 3.8086E-02
       337.     45.804     0.3053 2.2921E-02
       337.     51.114    0.14004 1.0514E-02
       426.     7.8478 6.8963E-02 9.4920E-03
       426.     10.273 8.4487E-02 1.1629E-02
       426.     15.643    0.23725 2.2891E-02
       426.     20.788    0.18012 2.1051E-02
       426.     25.937     0.1202 1.4048E-02
       426.     31.088 7.5899E-02 1.0447E-02
       426.      36.22 8.3291E-02 8.0365E-03
       426.     41.366 6.0946E-02 7.1230E-03
       426.      46.52 3.5098E-02 4.1020E-03
       426.     51.656 3.3856E-02 4.6600E-03
       473.     7.0341    0.14392 1.0725E-02
       473.     9.8267    0.12019 1.3682E-02
       473.     15.133 4.1592E-02 6.4302E-03
       473.     20.207 2.6998E-02 4.1739E-03
       473.     25.308 3.8638E-02 5.1791E-03
       473.      30.38 2.3341E-02 5.6169E-03
       473.     35.729 2.7412E-02 4.8119E-03
       473.     40.801 1.7165E-02 3.0131E-03
       473.      45.86 7.2389E-03 1.5821E-03
       579.     7.3998 3.0528E-02 4.1660E-03
       579.     15.228 3.9483E-02 7.0584E-03
       579.      20.37 3.2918E-02 5.1821E-03
       579.     25.516 2.4595E-02 3.8718E-03
       579.     30.656 2.2061E-02 4.9118E-03
       579.      36.06 2.2904E-02 4.0945E-03
       579.     41.211 1.5058E-02 2.3704E-03
       579.     46.352 1.2786E-02 2.2857E-03
       579.     51.483 1.4543E-02 1.9847E-03
       647.     7.7694     0.4741 8.7069E-02
       647.     10.186    0.72976    0.11799
       647.     15.341    0.42425 6.8594E-02
       647.     20.506    0.18276 4.7333E-02
       647.     25.644    0.16972 3.8838E-02
       647.     30.754    0.33973 6.9997E-02
       647.     36.191    0.14098 3.0473E-02
       647.     41.325    0.14649 2.3685E-02
       647.      46.46    0.14662 2.5048E-02
       647.     51.602    0.12398 1.9236E-02
       775.     7.7985    0.31309 2.4093E-02
       775.     10.557    0.13361 1.5716E-02
       775.     15.615    0.27579 2.6779E-02
       775.     20.736    0.25186 2.9625E-02
       775.     25.909    0.12023 1.1674E-02
       775.     31.266    0.16818 1.6330E-02
       775.     36.431 8.8080E-02 1.0360E-02
       775.     41.591 4.9679E-02 5.8434E-03
       775.     46.705 4.9774E-02 4.8331E-03
       775.     51.838 3.9191E-02 3.8054E-03
       835.     7.1153    0.73707 5.0881E-02
       835.     9.9173    0.82023 6.0821E-02
       835.     14.977    0.29052 2.7173E-02
       835.     20.053    0.18237 2.0656E-02
       835.      25.41    0.29534 2.1899E-02
       835.     30.482    0.16358 1.2129E-02
       835.      35.81 9.3894E-02 8.7821E-03
       835.       40.9 9.7244E-02 7.2108E-03
       835.     44.959 6.3274E-02 4.6918E-03
       835.     51.048 3.3809E-02 4.5085E-03
       890.     7.5556    0.54184 4.0424E-02
       890.     10.359    0.63681 4.7509E-02
       890.     15.423    0.26835 2.0020E-02
       890.     20.757    0.18712 1.7610E-02
       890.     25.595    0.21208 1.5823E-02
       890.     36.254 8.0163E-02 9.1362E-03
       890.     41.345 8.7643E-02 6.5387E-03
       890.     46.423 5.8956E-02 4.3984E-03
       890.     51.494 3.1389E-02 2.9541E-03
       972.     7.6735 2.0639E-02 4.9047E-03
       972.     10.319 2.2158E-02 5.6580E-03
       972.     15.408 3.2983E-02 5.5818E-03
       972.     20.697 2.7805E-02 5.6431E-03
       972.     25.783 2.5528E-02 4.3202E-03
       972.     30.866 1.7143E-02 3.7744E-03
       972.     36.159 2.4108E-02 4.0799E-03
       972.     41.034 8.0683E-03 1.6374E-03
 1.0280E+03     7.8072    0.20061 1.9685E-02
 1.0280E+03     10.464    0.31472 3.0881E-02
 1.0280E+03     15.849     0.3095 3.0370E-02
 1.0280E+03     20.761    0.13106 1.2860E-02
 1.0280E+03     26.154    0.11519 8.9569E-03
 1.0280E+03     31.259    0.13157 1.2910E-02
 1.0280E+03     36.409 8.2552E-02 8.1003E-03
 1.0280E+03     41.564 4.8967E-02 5.8210E-03
 1.0280E+03     46.693 4.0685E-02 5.6967E-03
 1.0280E+03     51.858 2.1169E-02 3.4201E-03
 1.1230E+03     7.8314 9.3367E-02 1.2942E-02
 1.1230E+03     10.482    0.16301 1.5838E-02
 1.1230E+03     15.669 6.1115E-02 9.7739E-03
 1.1230E+03     20.774 6.9712E-02 8.2046E-03
 1.1230E+03     25.896 6.2483E-02 8.6612E-03
 1.1230E+03     31.274 6.7422E-02 7.9352E-03
 1.1230E+03     36.405 5.4068E-02 7.4945E-03
 1.1230E+03     41.294 2.9919E-02 4.1473E-03
 1.1230E+03     46.444 1.8507E-02 2.9598E-03
 1.1230E+03     51.573 1.5402E-02 2.1350E-03
 1.2400E+03     7.8841 8.9710E-03 3.8317E-03
 1.2400E+03     10.232 2.4024E-02 5.9965E-03
 1.2400E+03     15.627 2.0748E-02 4.7018E-03
 1.2400E+03     20.687 4.2094E-02 5.8431E-03
 1.2400E+03     26.058 4.9848E-02 6.9195E-03
 1.2400E+03     31.221 2.6562E-02 4.2541E-03
 1.2400E+03     36.372 1.6421E-02 4.0987E-03
 1.2400E+03     41.479 1.8052E-02 2.5058E-03
 1.2400E+03     46.626 1.1799E-02 2.3568E-03
 1.2400E+03     51.723 1.4771E-02 2.2733E-03
 1.2760E+03     7.5809 2.8486E-02 5.6000E-03
 1.2760E+03     10.173 9.6790E-02 1.1194E-02
 1.2760E+03     15.294 8.8523E-02 1.0238E-02
 1.2760E+03     20.658    0.11244 1.3004E-02
 1.2760E+03     25.822 6.1707E-02 7.1368E-03
 1.2760E+03     30.983 3.5123E-02 5.5182E-03
 1.2760E+03     36.067 5.0684E-02 6.9028E-03
 1.2760E+03     41.206 3.7928E-02 4.3866E-03
 1.2760E+03     46.387 1.6723E-02 2.2776E-03
 1.2760E+03     51.478 2.2433E-02 3.0553E-03
 1.3630E+03     7.7166 6.0172E-02 6.9593E-03
 1.3630E+03     10.356    0.11615 1.3433E-02
 1.3630E+03     15.518 6.3739E-02 8.6808E-03
 1.3630E+03      20.65 5.1305E-02 5.9337E-03
 1.3630E+03     26.034 5.1406E-02 4.9088E-03
 1.3630E+03     30.958 1.9232E-02 3.7807E-03
 1.3630E+03      41.44 2.3595E-02 2.7290E-03
 1.3930E+03     7.8996 6.4971E-02 9.1765E-03
 1.3930E+03     10.277    0.11896 1.4264E-02
 1.3930E+03     15.489 3.2407E-02 6.0000E-03
 1.3930E+03     20.669 1.3373E-02 3.3991E-03
 1.3930E+03     26.008 2.4511E-02 6.0435E-03
 1.3930E+03     31.142 1.8855E-02 4.3505E-03
 1.3930E+03     41.394 1.3731E-02 1.9394E-03
 1.3930E+03     51.619 1.4586E-02 2.0601E-03
 1.4620E+03     8.1431    0.10034 9.8447E-03
 1.4620E+03     15.763 2.8725E-02 6.2044E-03
 1.4620E+03     21.116 3.1618E-02 4.4265E-03
 1.4620E+03     26.001 1.6456E-02 5.1389E-03
 1.4620E+03     31.449 6.3499E-03 3.8122E-03
 1.4620E+03     41.553 1.5960E-02 2.2344E-03
 1.4840E+03      7.804 5.6451E-03 4.2247E-03
 1.4840E+03     15.704 3.2078E-02 8.0444E-03
 1.4840E+03     20.835 2.0546E-02 3.3054E-03
 1.4840E+03     26.115 5.5317E-02 8.8994E-03
 1.4840E+03     31.262 2.8860E-02 5.2736E-03
 1.4840E+03     41.209 2.0713E-02 2.4520E-03
 1.5770E+03     8.0447 8.6168E-02 1.0078E-02
 1.5770E+03     10.406    0.16442 1.5875E-02
 1.5770E+03     15.781    0.13957 1.6323E-02
 1.5770E+03     20.895    0.10803 1.2634E-02
 1.5770E+03     26.008 8.5172E-02 1.1731E-02
 1.5770E+03     31.402 5.6891E-02 7.8360E-03
 1.5770E+03     36.492 6.0242E-02 8.2976E-03
 1.5770E+03     41.625 3.6693E-02 4.2914E-03
 1.5770E+03     46.728 3.2914E-02 9.6914E-03
 1.5770E+03     51.829 3.0074E-02 8.1440E-03
 1.6520E+03     8.0724 2.7619E-02 6.2781E-03
 1.6520E+03     10.153 6.3319E-02 8.7140E-03
 1.6520E+03     15.263 5.1801E-02 7.1290E-03
 1.6520E+03      21.21 2.7245E-02 3.7330E-03
 1.6520E+03     26.101 1.1697E-02 3.3007E-03
 1.6520E+03     31.426 1.8919E-02 4.0287E-03
 1.6520E+03     36.264 1.6057E-02 3.1843E-03
 1.6520E+03     41.351 1.7639E-02 2.6946E-03
 1.6520E+03     46.223 9.6214E-03 1.7647E-03
 1.6520E+03     51.318 9.4633E-03 1.5920E-03
 1.7460E+03     7.8804 5.6740E-02 1.1743E-02
 1.7460E+03     10.547 6.8554E-02 1.1133E-02
 1.7460E+03     15.829    0.18971 1.8709E-02
 1.7460E+03     20.883    0.31587 3.1152E-02
 1.7460E+03     25.965    0.36789 2.8750E-02
 1.7460E+03     31.106     0.2019 2.4124E-02
 1.7460E+03     36.503    0.12882 1.2704E-02
 1.7460E+03     41.608    0.11104 8.6773E-03
 1.7460E+03     46.719 8.8773E-02 8.7549E-03
 1.7460E+03      51.85 5.5577E-02 5.4810E-03
 1.7740E+03      8.293    0.10531 1.2431E-02
 1.7740E+03     10.885    0.22602 2.2023E-02
 1.7740E+03      15.97    0.18812 2.2206E-02
 1.7740E+03     21.109 8.9629E-02 1.6329E-02
 1.7740E+03     26.207 6.5495E-02 9.1054E-03
 1.7740E+03     31.495    0.10452 1.4531E-02
 1.7740E+03     36.403 3.4972E-02 1.0409E-02
 1.7740E+03     41.758 2.8049E-02 3.8994E-03
 1.7740E+03     46.803 3.5147E-02 5.6375E-03
 1.7740E+03     51.977 1.1761E-02 3.8022E-03
 1.8550E+03     8.2883    0.54838 3.1807E-02
 1.8550E+03     10.496    0.25885 2.0209E-02
 1.8550E+03     15.781    0.42306 3.3030E-02
 1.8550E+03     21.133    0.35149 3.4632E-02
 1.8550E+03     26.013    0.15702 1.2259E-02
 1.8550E+03     31.307    0.23361 2.4913E-02
 1.8550E+03     36.422    0.14367 1.4155E-02
 1.8550E+03     41.302 6.4181E-02 6.3236E-03
 1.8550E+03     46.379 5.7479E-02 5.6633E-03
 1.8550E+03      51.45 5.5496E-02 5.4679E-03
 1.9080E+03     15.402 1.9755E-02 5.3842E-03
 1.9080E+03     20.936 4.1097E-02 6.3716E-03
 1.9080E+03     25.999 4.2762E-02 5.2514E-03
 1.9080E+03     31.084 3.4884E-02 6.4914E-03
 1.9080E+03     36.021 7.8203E-03 6.1971E-03
 1.9080E+03     41.286 1.6574E-02 2.8294E-03
 1.9080E+03     46.387 1.1425E-02 2.1259E-03
 1.9080E+03      51.45 1.1887E-02 2.3915E-03
 1.9990E+03     7.5689 5.3003E-02 1.0650E-02
 1.9990E+03     10.357    0.27494 2.1345E-02
 1.9990E+03     15.292 5.9492E-02 1.2834E-02
 1.9990E+03     20.593 8.6660E-02 1.3978E-02
 1.9990E+03     25.684 6.5615E-02 1.2021E-02
 1.9990E+03     30.583 2.1420E-02 1.5298E-02
 1.9990E+03     35.885 3.0625E-02 1.2815E-02
 1.9990E+03     41.217 3.1274E-02 4.3719E-03
 1.9990E+03     46.073 1.6599E-02 4.0586E-03
 1.9990E+03     51.171 1.1662E-02 2.8516E-03
 2.0190E+03      7.757    0.16135 1.5539E-02
 2.0190E+03     10.137     0.2014 1.5373E-02
 2.0190E+03     15.487    0.16796 1.9592E-02
 2.0190E+03     20.658 5.3827E-02 9.8576E-03
 2.0190E+03     25.694 7.5113E-02 9.0724E-03
 2.0190E+03     30.768 6.9940E-02 1.3849E-02
 2.0190E+03     35.957 1.8310E-02 1.2561E-02
 2.0190E+03     41.267 2.3741E-02 4.3478E-03
 2.0190E+03     46.313 2.9668E-02 4.9834E-03
 2.0190E+03     51.385 2.8137E-02 3.8493E-03
 2.2240E+03     7.7591    0.25999 1.9090E-02
 2.2240E+03     10.304    0.25989 1.9082E-02
 2.2240E+03     15.356 8.6586E-02 1.4965E-02
 2.2240E+03     20.686 5.9637E-02 6.9547E-03
 2.2240E+03     25.788 8.6438E-02 9.6930E-03
 2.2240E+03       31.1 3.3775E-02 7.4182E-03
 2.2240E+03      41.02 3.0862E-02 4.6985E-03
 2.2240E+03      46.37 3.7468E-02 4.9463E-03
 2.2240E+03     51.449 2.7703E-02 3.6571E-03
 2.2480E+03      7.689 9.5574E-02 1.7579E-02
 2.2480E+03     10.312    0.15584 1.8567E-02
 2.2480E+03     15.394    0.13193 1.8514E-02
 2.2480E+03     20.543 5.2735E-02 9.6997E-03
 2.2480E+03     25.865 6.0279E-02 8.4591E-03
 2.2480E+03     30.908 7.8562E-02 1.4450E-02
 2.2480E+03     41.141 2.6090E-02 4.2247E-03
 2.2480E+03     46.459 3.0963E-02 5.0137E-03
 2.2480E+03     51.574 1.8011E-02 4.1281E-03
ENDDATA            305
ENDSUBENT          335
SUBENT        F0744006   20080910   20090323   20090318       F034
BIB                  5         21
REACTION   (34-SE-78(HE3,D)35-BR-79,PAR,DA)
DETECTOR   (PS,PROPC) Deuterons were detected with position
           sensitive gas proportional counters (PC) mounted on
           the spectrograph focal surface.
           (PLATE) The nuclear track plates used for the
           excitation energy measurements were also used for the
           angular distributions. The track-plate data in general
           had slightly better resolution (18-25 keV FWHM) than
           the PC data which had 25-30kev FWHM resolution.
MONITOR    Absolute differential cross sections for the
           78Se(3He,d)79Br reactions were measured at
           a laboratory scattering angle of 30 degr. by
           simultaneously recording events from the (3He,d)
           reaction and from elastic scattering. After correcting
           the reaction yield and elastic yield for differences in
           the spectrograph solid angle, the absolute reaction
           cross sections were determined from the elastic
           scattering cross sections and the ratio of the reaction
           yield to the elastic yield.
SAMPLE     A target isotopically enriched to 98.58% was used.
STATUS     (CURVE) Fig.3,5,8
ENDBIB              21
COMMON               1          3
ANG-ERR-D
ADEG
 0.699
ENDCOMMON            3
DATA                 4        207
E-LVL      ANG-CM     DATA-CM    DATA-ERR
KEV        ADEG       MB/SR      MB/SR
         0.     5.3991     3.9457    0.21704
         0.     9.4862     4.3088    0.23701
         0.     14.768     1.2332 9.1269E-02
         0.      19.85    0.89303 6.6088E-02
         0.     25.241     1.5505    0.11475
         0.     30.294    0.69342 5.1316E-02
         0.     37.678    0.54862 4.0600E-02
         0.     44.771    0.24087 1.7826E-02
       210.     6.2652    0.21751 1.2644E-02
       210.     10.332    0.36688 2.6850E-02
       210.     15.617    0.86858 5.0492E-02
       210.     20.703     1.1202 6.5119E-02
       210.     25.789     1.2368 7.1896E-02
       210.     31.081    0.67381 4.9313E-02
       210.     38.204    0.53759 3.1251E-02
       210.     45.531    0.30558 2.2364E-02
       308.     6.1085     3.2875    0.17844
       308.     10.193     3.4001    0.18456
       308.     15.453      1.006 7.3462E-02
       308.     20.781     0.7058 5.1538E-02
       308.     25.926     1.1951 6.4869E-02
       308.     30.959    0.50303 3.6732E-02
       308.     38.356    0.50161 3.6628E-02
       308.     45.692    0.23038 1.6823E-02
       525.     6.5976 1.5503E-02 2.5213E-03
       525.     10.595 1.6235E-02 3.5132E-03
       525.     15.801 3.2024E-02 2.5060E-03
       525.     21.053 3.1111E-02 2.9439E-03
       525.     26.073 2.2698E-02 2.5250E-03
       525.     31.364 1.1889E-02 1.7267E-03
       525.      38.61 1.2649E-02 1.6205E-03
       525.     45.646 7.2547E-03 9.2943E-04
       609.     6.3798    0.54703 4.0853E-02
       609.     10.463    0.55609 4.1529E-02
       609.     15.731    0.17848 1.3329E-02
       609.     20.799    0.11562 8.6347E-03
       609.     25.948    0.20904 1.5611E-02
       609.     30.979 8.4796E-02 7.9883E-03
       609.      38.37 7.7271E-02 5.7707E-03
       609.     45.704 3.4267E-02 2.5590E-03
       765.     6.5453 2.3701E-02 3.5025E-03
       765.      10.54 2.6307E-02 3.8876E-03
       765.     15.792 2.5448E-02 2.7714E-03
       765.     21.038 2.7299E-02 2.9729E-03
       765.     26.033 2.9790E-02 3.8183E-03
       765.     31.306 1.9058E-02 2.4428E-03
       765.     38.569 1.4744E-02 1.8898E-03
       765.     45.577 1.2431E-02 1.3538E-03
       796.     6.4738 1.9857E-02 4.1134E-03
       796.     10.705 2.9463E-02 7.3418E-03
       796.      15.72 2.1308E-02 2.3043E-03
       796.     20.982 1.6502E-02 1.7847E-03
       796.      26.22 2.1357E-02 3.1338E-03
       796.     31.235 1.5445E-02 1.9658E-03
       796.     38.486 1.5208E-02 2.2315E-03
       796.     45.738 1.4470E-02 1.5648E-03
       835.     6.4469    0.57377 4.2471E-02
       835.     10.537     0.6376 3.5079E-02
       835.     15.808    0.22191 1.6426E-02
       835.     20.864    0.12733 9.4250E-03
       835.     26.019    0.24163 1.3294E-02
       835.     31.313     0.1119 8.2828E-03
       835.     38.419 7.1407E-02 5.2856E-03
       835.     45.541 5.5456E-02 5.1777E-03
       911.       15.8 1.8138E-02 2.7389E-03
       911.     21.054 1.6632E-02 2.1779E-03
       911.     26.291 2.2060E-02 3.3313E-03
       911.     31.329 9.6667E-03 1.6571E-03
       911.     38.599 6.3500E-03 1.4913E-03
       955.     6.7517 1.4470E-02 2.7725E-03
       955.     10.947 4.9408E-02 5.4800E-03
       955.     15.943 5.3993E-02 4.9461E-03
       955.     20.969 3.0309E-02 2.7766E-03
       955.     26.218 3.0880E-02 3.4250E-03
       955.     31.469 2.9851E-02 3.3108E-03
       955.     38.495 1.6764E-02 2.1887E-03
 1.0390E+03     6.6047    0.23064 1.6639E-02
 1.0390E+03      10.44 2.9057E-02 3.7670E-03
 1.0390E+03     15.888    0.10192 7.3530E-03
 1.0390E+03     20.916 5.1730E-02 3.7319E-03
 1.0390E+03     25.944 2.6255E-02 2.8918E-03
 1.0390E+03     31.179 3.7233E-02 2.6861E-03
 1.0390E+03     38.495 7.5119E-03 1.5861E-03
 1.0390E+03      45.49 8.4977E-03 1.1017E-03
 1.0800E+03     6.2867 2.1324E-02 4.0975E-03
 1.0800E+03     10.498 4.8759E-02 5.4230E-03
 1.0800E+03     15.723 8.2714E-02 4.4785E-03
 1.0800E+03     20.728 7.4521E-02 5.4279E-03
 1.0800E+03     25.998 4.8933E-02 4.4950E-03
 1.0800E+03     31.016 3.2699E-02 2.3817E-03
 1.0800E+03     38.268 3.1622E-02 2.3032E-03
 1.0800E+03     45.547 1.6823E-02 1.8711E-03
 1.1160E+03     6.1823    0.19879 1.8573E-02
 1.1160E+03     10.261    0.19149    0.14644
 1.1160E+03     15.293 8.2530E-02 1.2679E-02
 1.1160E+03     20.575 3.3709E-02 4.4901E-03
 1.1160E+03     25.746 7.6509E-02 7.1483E-03
 1.1160E+03     30.776 3.2390E-02 4.9760E-03
 1.1160E+03      38.14 2.1412E-02 3.7347E-03
 1.1320E+03      6.535 6.0413E-02 1.0270E-02
 1.1320E+03     10.788 7.4576E-02    0.15317
 1.1320E+03     15.839 4.4257E-02 1.1265E-02
 1.1320E+03     21.107 4.5902E-02 5.0647E-03
 1.1320E+03     26.127 4.5177E-02 6.7656E-03
 1.1320E+03      31.46 1.6452E-02 5.2433E-03
 1.1320E+03     38.714 2.3783E-02 3.8069E-03
 1.1320E+03     45.997 2.1845E-02 2.4102E-03
 1.2220E+03     10.757 2.5432E-02 3.7581E-03
 1.2220E+03     15.766 2.9742E-02 2.6755E-03
 1.2220E+03     26.282 4.3584E-02 3.9207E-03
 1.2220E+03     31.351 1.9761E-02 1.7776E-03
 1.2220E+03     38.637 1.6959E-02 2.1834E-03
 1.2220E+03     45.946 1.0312E-02 1.3217E-03
 1.2560E+03     15.748 4.1708E-02 3.8312E-03
 1.2560E+03     21.027 3.5659E-02 2.5972E-03
 1.2560E+03     26.055 3.0485E-02 3.3905E-03
 1.2560E+03     31.368 1.4593E-02 1.3405E-03
 1.2560E+03     38.629 1.9371E-02 2.5362E-03
 1.2560E+03     45.714 7.0032E-03 1.0573E-03
 1.3290E+03     6.4062 2.0240E-02 3.4341E-03
 1.3290E+03     15.722 1.1622E-02 1.7373E-03
 1.3290E+03     20.789 4.9581E-03 1.0044E-03
 1.3290E+03     26.226 2.2200E-02 2.4449E-03
 1.3290E+03     31.112 2.6563E-03 1.0808E-03
 1.3290E+03     38.599 5.5307E-03 1.4171E-03
 1.3950E+03     10.459 1.3101E-02 2.4966E-03
 1.3950E+03     15.691 2.6821E-02 3.4833E-03
 1.3950E+03     20.683 4.3768E-02 4.8290E-03
 1.3950E+03     26.179 7.0196E-02 5.0727E-03
 1.3950E+03      31.24 3.1507E-02 2.2768E-03
 1.3950E+03     38.536 2.2269E-02 2.0294E-03
 1.5170E+03     6.3658    0.28083 2.0230E-02
 1.5170E+03     10.505 2.8309E-02 3.1135E-03
 1.5170E+03     11.267 2.4212E-02 1.2967E-03
 1.5170E+03     15.709    0.11395 8.2087E-03
 1.5170E+03     21.004 7.9190E-02 5.7047E-03
 1.5170E+03     26.073 3.4410E-02 3.1260E-03
 1.5170E+03     31.326 5.3220E-02 2.8503E-03
 1.5170E+03     38.671 1.7518E-02 1.9267E-03
 1.5170E+03     45.729 1.1166E-02 1.4454E-03
 1.5780E+03     6.3685    0.17539 9.4591E-03
 1.5780E+03     10.621    0.25361 1.8399E-02
 1.5780E+03     15.644    0.26298 1.4183E-02
 1.5780E+03     20.974 9.3726E-02 5.0548E-03
 1.5780E+03     26.248 9.8913E-02 5.3345E-03
 1.5780E+03     31.274 9.7320E-02 5.2487E-03
 1.5780E+03      38.61 3.7220E-02 3.4053E-03
 1.5780E+03     45.656 3.0754E-02 2.8138E-03
 1.6170E+03     20.704 1.1156E-02 1.2305E-03
 1.6170E+03     25.972 1.3297E-02 1.9906E-03
 1.6170E+03     31.236 1.7293E-02 1.9074E-03
 1.6170E+03     45.583 1.0283E-02 1.5394E-03
 1.6930E+03     5.9362 5.8471E-02 6.6146E-03
 1.6930E+03     10.293 7.3619E-02 5.4523E-03
 1.6930E+03     15.573 3.0070E-02 3.4017E-03
 1.6930E+03     20.643 2.0621E-02 1.9263E-03
 1.6930E+03      25.78 3.1030E-02 3.5103E-03
 1.6930E+03     30.813 1.3860E-02 1.5679E-03
 1.6930E+03     38.221 1.5657E-02 1.7712E-03
 1.6930E+03     45.329 1.0351E-02 9.6696E-04
 1.7950E+03     6.1961 2.5058E-02 3.7207E-03
 1.7950E+03       10.2 3.4846E-02 3.8126E-03
 1.7950E+03     15.471 3.9382E-02 4.3088E-03
 1.7950E+03     20.776 2.1893E-02 3.6382E-03
 1.7950E+03     25.799 2.2690E-02 2.4826E-03
 1.7950E+03     30.837 1.7523E-02 1.5837E-03
 1.7950E+03     38.372 1.8489E-02 1.6710E-03
 1.9080E+03     6.1899 1.9526E-02 2.9422E-03
 1.9080E+03     10.422 5.0401E-02 3.6642E-03
 1.9080E+03     15.677 8.3922E-02 4.5355E-03
 1.9080E+03     20.681     0.1373 9.9817E-03
 1.9080E+03     25.942    0.19868 1.0737E-02
 1.9080E+03     30.999 9.3529E-02 6.7996E-03
 1.9080E+03     38.288 8.7319E-02 4.7191E-03
 1.9460E+03     6.4392 5.7557E-02 7.4155E-03
 1.9460E+03     10.668 9.3562E-02 8.4600E-03
 1.9460E+03     15.668    0.10575 7.5831E-03
 1.9460E+03     20.961 5.3909E-02 2.8739E-03
 1.9460E+03      25.98 4.2360E-02 4.6368E-03
 1.9460E+03     31.239 4.0271E-02 2.8876E-03
 1.9460E+03     38.307 1.3555E-02 6.1600E-03
 1.9740E+03     6.1604    0.21371 1.9792E-02
 1.9740E+03      10.25    0.23311 1.7116E-02
 1.9740E+03     15.522 8.7792E-02 8.1305E-03
 1.9740E+03     20.574 4.9698E-02 3.6492E-03
 1.9740E+03      25.72 8.1436E-02 7.5419E-03
 1.9740E+03     30.993 3.1218E-02 3.5008E-03
 1.9740E+03     38.162 4.2062E-02 6.4037E-03
 2.0160E+03      6.374    0.11075 8.0461E-03
 2.0160E+03     10.625    0.12103 1.3426E-02
 2.0160E+03     15.881     0.1212 8.8050E-03
 2.0160E+03     20.932 5.2308E-02 3.8002E-03
 2.0160E+03     26.195 4.6330E-02 4.2449E-03
 2.0160E+03     31.201 4.6390E-02 3.3702E-03
 2.0160E+03     38.474 3.5729E-02 2.5957E-03
 2.0400E+03     10.679 3.0336E-02 1.4224E-02
 2.0400E+03     15.949 2.2528E-02 3.6311E-03
 2.0400E+03      20.94 3.1496E-02 2.8932E-03
 2.0400E+03     26.186 3.9629E-02 4.4075E-03
 2.0400E+03     31.221 2.1446E-02 2.8078E-03
 2.0750E+03     6.3249    0.43604 3.1388E-02
 2.0750E+03     10.408 6.6802E-02 4.8087E-03
 2.0750E+03     15.625    0.17092 1.2303E-02
 2.0750E+03     20.893    0.13184 7.0555E-03
 2.0750E+03     25.935 5.5351E-02 5.0245E-03
 2.0750E+03     31.176 7.9813E-02 5.7453E-03
 2.0750E+03       38.2 5.5488E-02 3.9942E-03
ENDDATA            209
ENDSUBENT          239
SUBENT        F0744007   20080910   20090323   20090318       F034
BIB                  5         21
REACTION   (34-SE-80(HE3,D)35-BR-81,PAR,DA)
DETECTOR   (PS,PROPC) Deuterons were detected with position
           sensitive gas proportional counters (PC) mounted on
           the spectrograph focal surface.
           (PLATE) The nuclear track plates used for the
           excitation energy measurements were also used for the
           angular distributions. The track-plate data in general
           had slightly better resolution (18-25 keV FWHM) than
           the PC data which had 25-30kev FWHM resolution.
MONITOR    Absolute differential cross sections for the
           80Se(3He,d)81Br reactions were measured at
           a laboratory scattering angle of 30 degr. by
           simultaneously recording events from the (3He,d)
           reaction and from elastic scattering. After correcting
           the reaction yield and elastic yield for differences in
           the spectrograph solid angle, the absolute reaction
           cross sections were determined from the elastic
           scattering cross sections and the ratio of the reaction
           yield to the elastic yield.
SAMPLE     A target isotopically enriched to 99.45% was used.
STATUS     (CURVE) Fig.3,6,9
ENDBIB              21
COMMON               1          3
ANG-ERR-D
ADEG
 0.151
ENDCOMMON            3
DATA                 4        186
E-LVL      ANG-CM     DATA-CM    DATA-ERR
KEV        ADEG       MB/SR      MB/SR
         0.     6.0748    0.48343 2.7023E-02
         0.     8.1386    0.61159 4.6002E-02
         0.     10.188    0.58949 4.4340E-02
         0.     15.238    0.13555 1.0195E-02
         0.     20.618    0.12362 9.2986E-03
         0.     25.771     0.1978 1.4878E-02
         0.      30.83 5.3544E-02 4.0275E-03
         0.     41.094 6.1734E-02 4.6435E-03
         0.     51.551 2.1123E-02 1.5887E-03
       277.     5.7674    0.13589 1.3203E-02
       277.     7.7786    0.18497 2.1132E-02
       277.     10.019     0.2805 2.2534E-02
       277.     14.936    0.59702 3.8071E-02
       277.     20.231    0.57766 3.6836E-02
       277.     25.275    0.37984 3.0514E-02
       277.     30.531     0.2207 1.7730E-02
       277.     40.881    0.16137 1.0290E-02
       277.     51.212 9.2140E-02 4.3725E-03
       539.     6.6555     4.9529    0.22874
       539.     8.8131      5.036    0.31247
       539.     10.968      5.198    0.32253
       539.     15.901     1.5648 9.7092E-02
       539.     21.048     1.9984 9.2291E-02
       539.       26.4      2.752    0.17075
       539.     31.501     1.1366 7.0521E-02
       539.     41.673    0.99998 4.6181E-02
       539.     51.789    0.30218 1.3956E-02
       652.     6.1978     0.3609 2.6184E-02
       652.     7.9936    0.36711 4.0667E-02
       652.     10.304    0.38668 2.0855E-02
       652.     15.362    0.10756 9.8415E-03
       652.     20.474 7.9766E-02 4.3019E-03
       652.      25.62     0.1111 1.0165E-02
       652.     30.964 5.3179E-02 4.8656E-03
       652.     41.217 4.9451E-02 3.5877E-03
       652.     51.386 1.0201E-02 9.3334E-04
       771.     5.9857    0.42244 4.7588E-02
       771.     7.9128     0.2093    0.17912
       771.     9.9086    0.23269 4.7577E-02
       771.     15.187    0.18472 2.3688E-02
       771.      20.26    0.17609 1.1076E-02
       771.     25.527    0.12186 1.7927E-02
       771.     30.836    0.13737 1.5475E-02
       771.      41.12 4.7042E-02 3.7271E-03
       771.     51.229 2.7472E-02 2.6323E-03
       793.     5.9569    0.58297 4.6503E-02
       793.      7.927    0.46989    0.38171
       793.     9.9624    0.88102 7.0279E-02
       793.     15.051     1.0252 8.1783E-02
       793.      20.49    0.36027 2.8739E-02
       793.     25.555    0.30842 2.9754E-02
       793.     30.843    0.27224 2.1717E-02
       793.     41.176    0.15606 1.2449E-02
       793.     51.484 6.4809E-02 5.1698E-03
       832.     6.2105    0.22066 2.4608E-02
       832.      8.065    0.68127 6.2751E-02
       832.     10.125    0.79795 7.3497E-02
       832.     15.434     0.1912 1.7611E-02
       832.      20.56    0.18435 1.0008E-02
       832.       25.7    0.22746 1.6612E-02
       832.     31.039 9.7495E-02 8.9800E-03
       832.     41.298    0.10073 7.3566E-03
       832.     51.746 2.9783E-02 2.7433E-03
 1.1080E+03     6.1236    0.56303 4.2075E-02
 1.1080E+03     8.1822    0.64999 4.8573E-02
 1.1080E+03     10.239    0.72383 4.0201E-02
 1.1080E+03     15.558    0.19755 1.4762E-02
 1.1080E+03     20.701    0.26322 1.9670E-02
 1.1080E+03     25.829    0.26288 1.9645E-02
 1.1080E+03     31.169    0.10858 8.1142E-03
 1.1080E+03     41.416 9.0448E-02 6.7590E-03
 1.1080E+03     51.611 2.6498E-02 1.9801E-03
 1.1900E+03     6.2478 6.8916E-02 9.9806E-03
 1.1900E+03     8.2288 6.3882E-02 9.2516E-03
 1.1900E+03     10.228 7.5312E-02 8.3541E-03
 1.1900E+03     15.334    0.10946 8.5415E-03
 1.1900E+03     20.427    0.13485 1.0523E-02
 1.1900E+03     25.705     0.1027 8.0137E-03
 1.1900E+03     30.968 6.5304E-02 5.0960E-03
 1.1900E+03     41.327 5.2720E-02 3.2663E-03
 1.1900E+03     51.432 2.7118E-02 2.5587E-03
 1.3260E+03     6.0202 2.6711E-02 6.3102E-03
 1.3260E+03     8.1848 1.5471E-02 3.6547E-03
 1.3260E+03     10.251 4.2654E-02 4.7714E-03
 1.3260E+03     15.136 6.1245E-02 6.8510E-03
 1.3260E+03     21.329 7.1099E-02 4.4413E-03
 1.3260E+03     26.164 5.4034E-02 6.0444E-03
 1.3260E+03     31.174 2.2744E-02 2.1640E-03
 1.3260E+03      41.31 1.8053E-02 1.4205E-03
 1.3260E+03     51.199 1.0115E-02 9.6241E-04
 1.3760E+03     8.3226 2.9412E-03 1.4967E-03
 1.3760E+03     10.413 1.1279E-02 2.9996E-03
 1.3760E+03     15.492 1.1433E-02 1.9357E-03
 1.3760E+03     20.817 1.6281E-02 1.6698E-03
 1.3760E+03     25.881 1.3709E-02 2.3211E-03
 1.3760E+03     31.119 6.3162E-03 1.3072E-03
 1.3760E+03     41.281 6.9035E-03 8.9664E-04
 1.3760E+03     51.569 2.2247E-03 5.1413E-04
 1.5450E+03     6.5087    0.29717 2.2080E-02
 1.5450E+03     8.5628    0.31342 2.3287E-02
 1.5450E+03     10.617    0.33055 1.8254E-02
 1.5450E+03     15.695    0.12772 7.0530E-03
 1.5450E+03     20.813    0.10473 5.7837E-03
 1.5450E+03     25.956    0.13932 1.0351E-02
 1.5450E+03     31.045 6.5557E-02 6.1442E-03
 1.5450E+03     41.294 5.6652E-02 3.1285E-03
 1.5450E+03     51.729 1.3001E-02 1.2185E-03
 1.5880E+03      6.201    0.89556    0.11701
 1.5880E+03     8.0543    0.24647 7.8432E-02
 1.5880E+03     15.509    0.26524 3.0086E-02
 1.5880E+03     20.741    0.20073 1.9365E-02
 1.5880E+03     25.761    0.16405 2.7215E-02
 1.5880E+03     30.961 8.7224E-02 2.4281E-02
 1.5880E+03     41.202 4.7714E-02 8.7761E-03
 1.5880E+03     51.451 2.8619E-02 6.3202E-03
 1.9500E+03     8.2317 5.8759E-02 9.6674E-03
 1.9500E+03     10.224 7.3778E-02 9.5606E-03
 1.9500E+03     15.545    0.15061 1.4412E-02
 1.9500E+03     20.637    0.27638 1.7362E-02
 1.9500E+03     30.902    0.19384 1.5338E-02
 1.9500E+03      41.17     0.1423 8.9395E-03
 1.9500E+03     51.374 5.0289E-02 3.9794E-03
 1.9850E+03     8.1338    0.13538 1.5333E-02
 1.9850E+03     10.338    0.15765 1.5186E-02
 1.9850E+03     15.589    0.14568 1.4821E-02
 1.9850E+03     20.548 6.0676E-02 4.8328E-03
 1.9850E+03     31.035 4.4449E-02 6.5745E-03
 1.9850E+03     41.275 2.3967E-02 2.3086E-03
 1.9850E+03     51.509 1.2155E-02 1.1708E-03
 2.1230E+03     8.2235    0.24214 2.2880E-02
 2.1230E+03     10.444    0.33181 2.5929E-02
 2.1230E+03     15.484    0.33608 2.6263E-02
 2.1230E+03     20.861    0.11693 5.3996E-03
 2.1230E+03      30.92 9.7171E-02 6.0287E-03
 2.1230E+03     41.155 5.0644E-02 3.9576E-03
 2.1230E+03     51.384 2.4853E-02 1.9421E-03
 2.1640E+03     8.4394    0.62925 4.6435E-02
 2.1640E+03     10.479    0.50795 3.7484E-02
 2.1640E+03      15.79    0.13588 1.2647E-02
 2.1640E+03     20.921    0.14313 7.8509E-03
 2.1640E+03     31.149 8.6716E-02 4.7563E-03
 2.1640E+03     41.409 9.1220E-02 5.0034E-03
 2.1640E+03     51.587 2.2295E-02 1.6452E-03
 2.2880E+03     7.9484     0.2617 2.5263E-02
 2.2880E+03     10.255 8.5188E-02 9.6695E-03
 2.2880E+03     15.384    0.22714 1.8131E-02
 2.2880E+03     20.623    0.18559 8.7515E-03
 2.2880E+03     30.874    0.11475 7.2707E-03
 2.2880E+03     41.044 2.9110E-02 2.3236E-03
 2.2880E+03     51.321 2.3730E-02 1.8942E-03
 2.4770E+03     9.9126    0.14353 1.0992E-02
 2.4770E+03     15.175 8.4677E-02 4.8372E-03
 2.4770E+03     20.184 6.4192E-02 4.9159E-03
 2.4770E+03      30.61 4.3406E-02 4.0189E-03
 2.4770E+03      40.81 3.1593E-02 2.4195E-03
 2.4770E+03     51.138 9.6269E-03 7.3725E-04
 2.5310E+03     9.6123    0.29909 2.3351E-02
 2.5310E+03     14.865    0.19124 1.4931E-02
 2.5310E+03     19.869    0.15091 9.3539E-03
 2.5310E+03     30.308 9.5419E-02 7.4495E-03
 2.5310E+03     40.551 5.2690E-02 3.2659E-03
 2.5310E+03     50.824 2.3929E-02 1.8682E-03
 2.6570E+03     10.474    0.21238 1.7066E-02
 2.6570E+03     15.537    0.27556 2.2143E-02
 2.6570E+03     20.713    0.11566 7.3776E-03
 2.6570E+03     30.991 9.5619E-02 1.2587E-02
 2.6570E+03     40.999 4.6022E-02 2.9355E-03
 2.6570E+03     51.658 2.0497E-02 1.9920E-03
 2.7040E+03     10.567    0.22134 2.0499E-02
 2.7040E+03     15.907    0.10137 1.3383E-02
 2.7040E+03     20.993 4.8965E-02 4.5347E-03
 2.7040E+03      31.24 4.1632E-02 8.0683E-03
 2.7040E+03     41.483 3.2397E-02 2.3788E-03
 2.7040E+03     51.933 1.0964E-02 1.2295E-03
 2.7320E+03     9.6325 7.5715E-02 1.0981E-02
 2.7320E+03     14.781 9.5261E-02 1.0582E-02
 2.7320E+03     20.049 5.5637E-02 4.3474E-03
 2.7320E+03      30.36 8.0467E-02 8.9382E-03
 2.7320E+03     40.692 2.5455E-02 1.9890E-03
 2.7320E+03     50.987 1.0244E-02 1.1379E-03
 2.7980E+03     9.8505 7.2384E-02 6.8398E-03
 2.7980E+03     15.053 6.4428E-02 7.1571E-03
 2.7980E+03     20.023 6.3706E-02 4.9783E-03
 2.7980E+03     30.402 5.9556E-02 5.6276E-03
 2.7980E+03     40.619 3.9381E-02 3.0775E-03
 2.7980E+03     51.137 1.5151E-02 1.4317E-03
ENDDATA            188
ENDSUBENT          218
SUBENT        F0744008   20080910   20090323   20090318       F034
BIB                  5         16
REACTION   (34-SE-82(HE3,D)35-BR-83,PAR,DA)
DETECTOR   (PS,PROPC) Deuterons were detected with position
           sensitive gas proportional counters (PC) mounted on
           the spectrograph focal surface.
           (PLATE) The nuclear track plates used for the
           excitation energy measurements were also used for the
           angular distributions. The track-plate data in general
           had slightly better resolution (18-25 keV FWHM) than
           the PC data which had 25-30kev FWHM resolution.
MONITOR    The 82Se(3He,d)83Br absolute cross sections were
           determined using the 79,81Br isotopic contaminant
           groups in the 83Br deuteron spectra and the relative
           abundances of the 78,80,82Se isotopes in the 82Se
           target.
SAMPLE     A target isotopically enriched to 87.8% was used.
STATUS     (CURVE) Fig.3,7,9
ENDBIB              16
COMMON               1          3
ANG-ERR-D
ADEG
 0.175
ENDCOMMON            3
DATA                 4        188
E-LVL      ANG-CM     DATA-CM    DATA-ERR
KEV        ADEG       MB/SR      MB/SR
         0.     5.9195     4.6634    0.26069
         0.     10.007     4.7444    0.26521
         0.     15.306      1.111 8.3569E-02
         0.     20.423     1.3303 7.4365E-02
         0.     25.528     1.2358 6.9083E-02
         0.     30.588    0.42353 3.1857E-02
         0.     40.813    0.49745 3.7417E-02
         0.     50.998    0.24471 1.8407E-02
         0.     61.184    0.12258 6.8523E-03
       358.     6.1118    0.15791 1.9141E-02
       358.     10.175    0.20416 2.4748E-02
       358.     15.261    0.36152 3.2393E-02
       358.     20.335    0.39933 1.7505E-02
       358.     25.394    0.25251 2.2625E-02
       358.     30.656    0.16197 1.2007E-02
       358.     40.985 8.8713E-02 7.9485E-03
       358.     51.121 7.0475E-02 3.0896E-03
       358.     61.247 3.8600E-02 2.8614E-03
       803.     6.2159 7.7416E-02 1.3067E-02
       803.     10.287    0.13644 1.4237E-02
       803.     15.376    0.28502 2.0940E-02
       803.     20.644    0.22383 9.7265E-03
       803.     25.701    0.12867 9.4535E-03
       803.     30.768    0.10695 9.4967E-03
       803.     41.093 4.8970E-02 4.6270E-03
       803.     51.231 4.2444E-02 2.3403E-03
       803.     61.559 2.1160E-02 1.5546E-03
       873.     10.377 2.6683E-02 6.1808E-03
       873.     15.192 1.1674E-02 4.0158E-03
       873.     20.311 1.4653E-02 1.9217E-03
       873.     25.424 1.5980E-02 2.5744E-03
       873.       30.5 7.7681E-03 2.3013E-03
       873.      40.72 8.3152E-03 1.8129E-03
       873.     50.883 2.5572E-03 5.9235E-04
       873.     61.119 3.8896E-03 5.6879E-04
       992.      5.932     2.0893    0.15534
       992.     10.019     2.0874     0.1552
       992.     15.311    0.43036 3.1999E-02
       992.     20.419    0.42223 2.3333E-02
       992.     25.547    0.64853 4.8221E-02
       992.     30.609    0.23312 1.7334E-02
       992.     40.804    0.14592 1.3686E-02
       992.      50.99 7.3660E-02 4.0707E-03
       992.     61.189 4.9537E-02 2.7375E-03
 1.0310E+03     10.078    0.15851 4.9148E-02
 1.0310E+03     15.171    0.10849 2.7155E-02
 1.0310E+03     20.511 6.2016E-02 5.3390E-03
 1.0310E+03     25.604 4.3217E-02 1.5664E-02
 1.0310E+03       30.7 3.1788E-02 1.9979E-02
 1.0310E+03     40.919 3.3481E-02 6.9870E-03
 1.0310E+03     51.075 7.7715E-03 7.9578E-04
 1.0310E+03     61.248 2.7293E-03 8.5929E-04
 1.0570E+03     6.1113     4.5648
 1.0570E+03     10.198     4.5612    0.33768
 1.0570E+03     15.251     1.1319 8.3797E-02
 1.0570E+03     20.095    0.91272
 1.0570E+03     25.479     1.4765 8.1247E-02
 1.0570E+03     30.547    0.54271 4.0178E-02
 1.0570E+03     41.007    0.39981 2.2000E-02
 1.0570E+03     51.183    0.14165 7.3882E-03
 1.0570E+03     61.139    0.12477 6.8655E-03
 1.0950E+03     6.5594    0.12812 2.4068E-02
 1.0950E+03     10.437    0.29426 3.5786E-02
 1.0950E+03     15.526    0.55278 4.1108E-02
 1.0950E+03     20.818     1.0534 6.2217E-02
 1.0950E+03     25.898     1.4227 8.4029E-02
 1.0950E+03     30.951    0.76718 5.7052E-02
 1.0950E+03     41.278    0.40169 2.3725E-02
 1.0950E+03     51.606    0.22274 1.3156E-02
 1.0950E+03     61.742    0.18195 1.3531E-02
 1.1140E+03     20.931 3.8794E-02 4.0848E-03
 1.1140E+03     25.968 1.1999E-02 9.7474E-03
 1.1140E+03     31.047 1.5960E-02 6.8232E-03
 1.1140E+03     41.408 2.8238E-02 5.7757E-03
 1.1140E+03     51.533 1.5687E-02 2.8465E-03
 1.1140E+03      61.46 1.0200E-02 4.1045E-03
 1.3560E+03     5.9717    0.35403 3.1517E-02
 1.3560E+03     10.059     1.1677 8.6004E-02
 1.3560E+03     15.125    0.95639 7.0441E-02
 1.3560E+03     20.367    0.27753 5.1613E-02
 1.3560E+03      25.44    0.30205 2.2247E-02
 1.3560E+03     30.513    0.32873 2.4212E-02
 1.3560E+03     40.828    0.10091 8.9831E-03
 1.3560E+03     51.152 4.5466E-02 2.6598E-03
 1.3560E+03     61.093 4.9451E-02 3.6422E-03
 1.4240E+03     6.9844 3.4095E-02 8.0650E-03
 1.4240E+03     16.182 4.5691E-02 7.5242E-03
 1.4240E+03     21.356 4.2577E-02 3.6633E-03
 1.4240E+03     26.541 3.7365E-02 4.7171E-03
 1.4240E+03     42.001 1.2668E-02 2.2437E-03
 1.4240E+03     52.282 4.7496E-03 8.9935E-04
 1.4240E+03     62.342 6.2749E-03 7.0932E-04
 1.6630E+03     5.9841    0.67548 6.3110E-02
 1.6630E+03     10.077    0.79269 5.8714E-02
 1.6630E+03     15.134    0.20741 1.9378E-02
 1.6630E+03     20.486    0.15023 8.2704E-03
 1.6630E+03     25.362    0.27063 2.0045E-02
 1.6630E+03     30.691    0.10871 1.0157E-02
 1.6630E+03     41.146 6.9418E-02 6.4856E-03
 1.6630E+03     51.331 3.0463E-02 2.2563E-03
 1.7040E+03     6.8539 5.5896E-02 1.2076E-02
 1.7040E+03     11.092 8.0499E-02 1.3071E-02
 1.7040E+03     15.994     0.1044 1.5139E-02
 1.7040E+03     21.381 9.8752E-02 6.1258E-03
 1.7040E+03     26.353 8.5315E-02 8.0602E-03
 1.7040E+03     31.582 5.7947E-02 5.4747E-03
 1.7040E+03     41.805 3.0147E-02 4.3717E-03
 1.7040E+03     51.965 2.2505E-02 1.7584E-03
 1.8090E+03     10.434 2.6247E-02 5.1570E-03
 1.8090E+03      15.62 2.2694E-02 4.8679E-03
 1.8090E+03     20.791 2.1464E-02 2.3677E-03
 1.8090E+03     25.996 1.6467E-02 2.9430E-03
 1.8090E+03     30.995 1.1898E-02 2.1264E-03
 1.8090E+03     41.149 9.0273E-03 1.7737E-03
 1.8090E+03     51.349 5.1558E-03 8.3131E-04
 2.0500E+03     5.6931 5.5470E-02 1.0823E-02
 2.0500E+03     9.8039 4.7970E-02 7.6814E-03
 2.0500E+03        15. 3.9124E-02 2.7325E-02
 2.0500E+03     20.266 2.1053E-02 2.6563E-03
 2.0500E+03     25.214 2.0824E-02 3.3346E-03
 2.0500E+03     30.378 2.0602E-02 2.9466E-03
 2.0500E+03     51.286 4.3380E-03 4.7531E-04
 2.0500E+03     61.149 5.2254E-03 6.5930E-04
 2.4010E+03     5.7465    0.24792 1.9373E-02
 2.4010E+03     9.8073    0.28914 1.7938E-02
 2.4010E+03     14.807    0.21166 1.6540E-02
 2.4010E+03     20.762    0.31456 1.9515E-02
 2.4010E+03     25.661    0.42037 3.2848E-02
 2.4010E+03     30.685    0.26473 1.6424E-02
 2.4010E+03     40.653    0.16993 1.3279E-02
 2.4010E+03     50.907 7.1586E-02 4.4412E-03
 2.4010E+03     60.784 7.8988E-02 4.9004E-03
 2.7300E+03     6.1441    0.24799 2.3201E-02
 2.7300E+03     10.233    0.26146 1.9392E-02
 2.7300E+03     15.304 9.7667E-02 1.1065E-02
 2.7300E+03     20.641 4.8569E-02 4.5438E-03
 2.7300E+03     25.772 8.6004E-02 6.3788E-03
 2.7300E+03     30.855 4.5129E-02 5.1126E-03
 2.7300E+03     51.479 8.0730E-03 1.0768E-03
 2.7300E+03     61.706 1.0350E-02 9.6832E-04
 2.7610E+03     5.8648    0.33957 3.0350E-02
 2.7610E+03      9.937    0.38591 2.8536E-02
 2.7610E+03     15.004     0.1686 1.5068E-02
 2.7610E+03     21.068 3.1287E-02 3.7829E-03
 2.7610E+03     25.985    0.13594 1.0052E-02
 2.7610E+03     31.052 5.9388E-02 8.1372E-03
 2.7610E+03     51.347 6.8710E-03 8.3077E-04
 2.7610E+03     61.722 6.5752E-03 9.0090E-04
 2.8130E+03     6.3475    0.15277 1.4147E-02
 2.8130E+03     10.437    0.16098 1.1819E-02
 2.8130E+03      15.49 4.3361E-02 6.6007E-03
 2.8130E+03     20.815 1.7244E-02 2.6250E-03
 2.8130E+03     25.721 6.0584E-02 5.6100E-03
 2.8130E+03     31.049 2.5408E-02 6.0171E-03
 2.8130E+03      51.42 5.7153E-03 8.7001E-04
 2.8130E+03     61.642 6.4564E-03 8.5222E-04
 2.9540E+03      6.519    0.24479 2.5621E-02
 2.9540E+03     10.598     0.3857 2.8422E-02
 2.9540E+03     15.686    0.42585 3.1380E-02
 2.9540E+03     21.152    0.11341 8.3574E-03
 2.9540E+03     26.041    0.15065 1.3418E-02
 2.9540E+03     31.332    0.15713 1.1579E-02
 2.9540E+03     52.049 2.8869E-02 2.1274E-03
 2.9540E+03     62.214 1.9644E-02 1.4476E-03
 2.9950E+03       6.94    0.11047 1.0023E-02
 2.9950E+03     11.015    0.13919 1.2628E-02
 2.9950E+03     16.093 9.8277E-02 1.0479E-02
 2.9950E+03     21.352 2.9971E-02 3.6793E-03
 2.9950E+03     26.459 6.5443E-02 6.9781E-03
 2.9950E+03     31.746 5.8247E-02 6.2109E-03
 2.9950E+03     52.238 6.2527E-03 8.6996E-04
 2.9950E+03     62.411 6.2445E-03 7.6660E-04
 3.0350E+03     6.6979 5.9629E-02 1.1191E-02
 3.0350E+03     10.998    0.13297 1.1941E-02
 3.0350E+03     16.294    0.16006 1.1892E-02
 3.0350E+03     21.131 4.0979E-02 4.3250E-03
 3.0350E+03      26.22 4.3987E-02 5.3444E-03
 3.0350E+03     31.525 6.8535E-02 6.1549E-03
 3.0350E+03     51.601 9.7244E-03 1.0263E-03
 3.0350E+03     61.768 8.1738E-03 8.6267E-04
 3.1310E+03      6.393    0.44031 4.5765E-02
 3.1310E+03     10.417    0.10417 1.4122E-02
 3.1310E+03     15.519    0.16826 1.7489E-02
 3.1310E+03     20.797    0.11645 1.0300E-02
 3.1310E+03     25.874 8.6489E-02 7.6502E-03
 3.1310E+03     30.963 9.2747E-02 9.6400E-03
 3.1310E+03     51.466 2.0979E-02 1.8557E-03
 3.1310E+03     61.622 1.2420E-02 1.2909E-03
ENDDATA            190
ENDSUBENT          215
SUBENT        F0744009   20080910   20090323   20090318       F034
BIB                  5         21
REACTION   (34-SE-76(HE3,D)35-BR-77,PAR,DA)
DETECTOR   (PS,PROPC)  Deuterons were detected with position
           sensitive gas proportional counters (PC) mounted on
           the spectrograph focal surface.
           (PLATE) The nuclear track plates used for the
           excitation energy measurements were also used for the
           angular distributions. The track-plate data in general
           had slightly better resolution (18-25 keV FWHM) than
           the PC data which had 25-30kev FWHM resolution.
MONITOR    Absolute differential cross sections for the
           76Se(3He,d)77Br reactions were measured at
           a laboratory scattering angle of 30 degr. by
           simultaneously recording events from the (3He,d)
           reaction and from elastic scattering. After correcting
           the reaction yield and elastic yield for differences in
           the spectrograph solid angle, the absolute reaction
           cross sections were determined from the elastic
           scattering cross sections and the ratio of the reaction
           yield to the elastic yield.
SAMPLE     A target isotopically enriched to 96.88% was used.
STATUS     (CURVE) Fig.8
ENDBIB              21
COMMON               1          3
ANG-ERR-D
ADEG
 0.083
ENDCOMMON            3
DATA                 5         20
E-LVL-MIN  E-LVL-MAX  ANG-CM     DATA-CM    DATA-ERR
KEV        KEV        ADEG       MB/SR      MB/SR
 2.1320E+03 2.1720E+03     7.8521    0.26188 2.7096E-02
 2.1320E+03 2.1720E+03     9.8882    0.31885 2.8076E-02
 2.1320E+03 2.1720E+03     15.373    0.10347 1.3963E-02
 2.1320E+03 2.1720E+03     20.459    0.10201 1.3766E-02
 2.1320E+03 2.1720E+03      25.75    0.12074 1.2492E-02
 2.1320E+03 2.1720E+03     30.828 3.9736E-02 7.3060E-03
 2.1320E+03 2.1720E+03     35.913 3.2172E-02 7.0019E-03
 2.1320E+03 2.1720E+03     41.205 4.4451E-02 8.1729E-03
 2.1320E+03 2.1720E+03     46.292 4.5711E-02 6.9034E-03
 2.1320E+03 2.1720E+03     51.374 2.7934E-02 6.5614E-03
 2.2750E+03 2.2970E+03     7.6047     0.8159 5.7169E-02
 2.2750E+03 2.2970E+03     10.251    0.98616 8.3489E-02
 2.2750E+03 2.2970E+03     15.337    0.87281 6.1157E-02
 2.2750E+03 2.2970E+03     20.419    0.51455 4.3562E-02
 2.2750E+03 2.2970E+03     25.706    0.37167 2.6043E-02
 2.2750E+03 2.2970E+03     30.791    0.33799 2.8614E-02
 2.2750E+03 2.2970E+03     36.079    0.24747 2.0951E-02
 2.2750E+03 2.2970E+03     41.161    0.14788 1.2520E-02
 2.2750E+03 2.2970E+03     46.247    0.14196 1.2019E-02
 2.2750E+03 2.2970E+03     51.532 8.8351E-02 7.4798E-03
ENDDATA             22
ENDSUBENT           52
SUBENT        F0744010   20080910   20090323   20090318       F034
BIB                  5         21
REACTION   (34-SE-78(HE3,D)35-BR-79,PAR,DA)
DETECTOR   (PS,PROPC)  Deuterons were detected with position
           sensitive gas proportional counters (PC) mounted on
           the spectrograph focal surface.
           (PLATE) The nuclear track plates used for the
           excitation energy measurements were also used for the
           angular distributions. The track-plate data in general
           had slightly better resolution (18-25 keV FWHM) than
           the PC data which had 25-30kev FWHM resolution.
MONITOR    Absolute differential cross sections for the
           78Se(3He,d)79Br reactions were measured at
           a laboratory scattering angle of 30 degr. by
           simultaneously recording events from the (3He,d)
           reaction and from elastic scattering. After correcting
           the reaction yield and elastic yield for differences in
           the spectrograph solid angle, the absolute reaction
           cross sections were determined from the elastic
           scattering cross sections and the ratio of the reaction
           yield to the elastic yield.
SAMPLE     A target isotopically enriched to 98.58% was used.
STATUS     (CURVE) Fig.8
ENDBIB              21
COMMON               1          3
ANG-ERR-D
ADEG
 0.148
ENDCOMMON            3
DATA                 5         16
E-LVL      E-LVL      ANG-CM     DATA-CM    DATA-ERR
KEV        KEV        ADEG       MB/SR      MB/SR
       384.       403.     6.1559    0.97212 5.6511E-02
       384.       403.     10.225     1.4643 8.5121E-02
       384.       403.     15.515     1.3264 7.7105E-02
       384.       403.     20.601     0.4663 3.4127E-02
       384.       403.     25.891    0.53704 3.1219E-02
       384.       403.     30.977    0.47291 2.7491E-02
       384.       403.     38.301    0.23008 1.3375E-02
       384.       403.     45.422    0.19148 1.1131E-02
 1.1830E+03 1.1920E+03     6.0639 3.5446E-02 3.7080E-03
 1.1830E+03 1.1920E+03     10.327 6.8177E-02 6.0693E-03
 1.1830E+03 1.1920E+03      15.41 8.8084E-02 6.4877E-03
 1.1830E+03 1.1920E+03     20.503 5.5124E-02 4.9073E-03
 1.1830E+03 1.1920E+03     25.589 5.7545E-02 4.2384E-03
 1.1830E+03 1.1920E+03     30.683 3.2602E-02 2.4013E-03
 1.1830E+03 1.1920E+03     38.014 2.0698E-02 2.1653E-03
 1.1830E+03 1.1920E+03      45.14 1.4934E-02 1.5622E-03
ENDDATA             18
ENDSUBENT           48
SUBENT        F0744011   20080910   20090323   20090318       F034
BIB                  5         21
REACTION   (34-SE-80(HE3,D)35-BR-81,PAR,DA)
DETECTOR   (PS,PROPC)  Deuterons were detected with position
           sensitive gas proportional counters (PC) mounted on
           the spectrograph focal surface.
           (PLATE) The nuclear track plates used for the
           excitation energy measurements were also used for the
           angular distributions. The track-plate data in general
           had slightly better resolution (18-25 keV FWHM) than
           the PC data which had 25-30kev FWHM resolution.
MONITOR    Absolute differential cross sections for the
           80Se(3He,d)81Br reactions were measured at
           a laboratory scattering angle of 30 degr. by
           simultaneously recording events from the (3He,d)
           reaction and from elastic scattering. After correcting
           the reaction yield and elastic yield for differences in
           the spectrograph solid angle, the absolute reaction
           cross sections were determined from the elastic
           scattering cross sections and the ratio of the reaction
           yield to the elastic yield.
SAMPLE     A target isotopically enriched to 99.45% was used.
STATUS     (CURVE) Fig.9
ENDBIB              21
COMMON               3          3
E-LVL      E-LVL      ANG-ERR-D
KEV        KEV        ADEG
 2.0560E+03 2.0850E+03 0.181
ENDCOMMON            3
DATA                 3          8
ANG-CM     DATA-CM    DATA-ERR
ADEG       MB/SR      MB/SR
      7.972 9.6137E-02 1.0606E-02
      10.13 9.7729E-02 9.1715E-03
     20.466 2.6802E-02 2.0802E-03
     21.061 3.8965E-02 2.4012E-03
     31.071 2.3248E-02 3.3481E-03
     41.001 2.4116E-02 1.8718E-03
     41.256 1.8429E-02 1.7295E-03
      51.12 6.7125E-03 8.5280E-04
ENDDATA             10
ENDSUBENT           40
ENDENTRY            11
