ENTRY            F0776   20081126   20090209   20090209       F033
SUBENT        F0776001   20081126   20090209   20090209       F033
BIB                 11         37
TITLE      Emission of protons, deuterons, and tritons from 14N+Ag
           at 52 MeV/nucleon.
AUTHOR     (V.Yu.Alexakhin,M.I.Gostkin,K.K.Gudima,M.P.Ivanov,
           A.Kugler,I.V.Kuznetsov,S.I.Merzlyakov,C.L.Morris,
           E.A.Pasyuk,Yu.E.Penionzhkevich,S.Yu.Porokhovoy,
           Yu.G.Sobolev,V.D.Toneev)
INSTITUTE  (4ZZZDUB,3CZRUJF,1USALAS)Institute of Appllied Physics,
           Kishinev,Moldova.
REFERENCE  (J,YF,63,1763,2000)
           (J,PAN,63,1673,2000)
FACILITY   (CYCLO,4ZZZDUB)
DETECTOR   (SPEC,SCIN,BGO)A 4Pi spectrometer, LAMPF BGO-ball,
           consisting of 30 phoswich detectors were used. Each
           detector had a solid angle of about(1/32)*4Pi/sr,
           0.05-mm-thick nickel entrance window and consists of
           a 3-mm-thick NE102 plastic scintillator optically
           coupled to the front of a 5.6-cm-thick bismuth
           germanate (BGO) crystal with a 7.62-cm-diameter
           photomultiplier tube on the back. The crystal was thick
           enough to stop the protons of energy up to 185 MeV.
           The energy calibration of the BGO crystals was obtained
           by using the elastic peak from the Pi+ and 12C
           scattering.
METHOD     (EDE)
SAMPLE     A 0.1-mm-thick Ag target was placed inside the
           avacuated beam pipe with the 0.4-mm-thick stainless
           steel walls at the center of the BGO-ball.
CORRECTION Data were corrected for the energy losses in target and
           other materials between the target and the detectors,
           efficiency loss due to particle interaction in
           scintillator and dead time. The tipical dead time was
           less than 20%.
ERR-ANALYS (EN-ERR-DIG) Digitizing error
           (ERR-DIG)    Digitizing error
           (DATA-ERR)   Error from the graphic bars
HISTORY    (20051124C)
           (20081126A) DETECTOR code was corrected.
ENDBIB              37
COMMON               1          3
EN
MEV/A
 52.
ENDCOMMON            3
ENDSUBENT           44
SUBENT        F0776002   20060419   20060814   20060808       F024
BIB                  2          2
REACTION   (47-AG-108(7-N-14,X)1-H-1,,DA/DE)
STATUS     (CURVE)FIG.2
ENDBIB               2
COMMON               2          3
EN-ERR-DIG ERR-DIG
MEV        PER-CENT
 0.14       0.002
ENDCOMMON            3
DATA                 4        174
ANG        E          DATA       DATA-ERR
ADEG       MEV        MUB/SR/MEV MUB/SR/MEV
 63.000     31.371     3244.6
 63.000     35.861     2987.1
 63.000     39.331     2795.8
 63.000     43.617     2616.9
 63.000     47.699     2254.7
 63.000     51.781     2008.0
 63.000     56.067     1788.4
 63.000     59.741     1540.9
 63.000     63.823     1372.3
 63.000     68.314     1162.9
 63.000     72.192     1018.7
 63.000     76.274     877.72
 63.000     80.357     731.59
 63.000     84.031     619.96
 63.000     87.909     508.26
 63.000     91.787     437.91
 63.000     95.870     365.00
 63.000     100.36     294.32
 63.000     104.44     245.32
 63.000     108.12     204.47
 63.000     112.20     167.63
 63.000     116.49     135.17
 63.000     119.96     108.99
 63.000     124.24     86.443
 63.000     127.71     69.702
 63.000     131.80     55.281
 63.000     135.67     45.320
 63.000     139.55     32.008
 63.000     143.64     23.758
 63.000     147.92     16.233
 63.000     151.80     12.455
 63.000     155.68     7.2106     1.4412
 63.000     160.17     3.9069    0.85921
 63.000     163.44     3.5967    0.86427
 63.000     167.73     2.2250    0.58074
 63.000     171.81     1.3538    0.38178
 63.000     175.49    0.86565    0.26272
 63.000     179.57    0.41082    0.16903
 79.000     32.228     2420.3
 79.000     35.881     2258.6
 79.000     40.549     2036.0
 79.000     43.999     1654.3
 79.000     48.058     1391.5
 79.000     52.320     1190.8
 79.000     55.974     984.45
 79.000     60.033     842.51
 79.000     64.295     696.50
 79.000     68.557     585.86
 79.000     72.616     476.01
 79.000     76.270     386.76
 79.000     80.329     325.31
 79.000     83.983     255.32
 79.000     87.839     207.45
 79.000     92.101     168.55
 79.000     95.957     136.95
 79.000     100.02     109.36
 79.000     103.87     88.857
 79.000     107.73     68.543
 79.000     111.79     52.873
 79.000     115.85     40.085
 79.000     119.10     30.920
 79.000     123.56     24.692
 79.000     127.62     19.047
 79.000     131.28     12.572     2.9031
 79.000     135.33     9.8675     2.0700
 79.000     138.99     6.5133     1.3664
 79.000     143.05     5.4786     1.0355
 79.000     147.51     3.6795    0.77189
 79.000     150.97     1.8411    0.46471
 79.000     155.02     1.9734    0.45567
 79.000     158.88    0.93746    0.29921
 79.000     162.94    0.74862    0.20533
 79.000     166.60    0.49415    0.18068
 79.000     170.86    0.14209    0.87257E-01
 79.000     178.78    0.67507E-010.50899E-01
 102.00     31.690     1399.0
 102.00     35.805     1211.5
 102.00     40.126     1049.1
 102.00     44.035     825.36
 102.00     47.945     649.35
 102.00     52.266     527.47
 102.00     56.175     428.47
 102.00     59.879     348.05
 102.00     63.994     278.24
 102.00     68.521     215.43
 102.00     72.224     177.81
 102.00     76.134     137.67
 102.00     80.043     103.24
 102.00     84.158     81.223
 102.00     88.068     67.042
 102.00     92.183     52.744
 102.00     95.681     40.838
 102.00     100.21     31.619
 102.00     103.71     22.242
 102.00     108.03     16.948
 102.00     111.94     13.122
 102.00     116.26     11.732
 102.00     119.75     6.9218
 102.00     123.46     5.8989
 102.00     128.19     4.4948
 102.00     132.31     3.1618    0.66881
 102.00     136.63     1.8067    0.48972
 102.00     139.92     2.0206    0.46688
 102.00     144.45    0.70331    0.22415
 102.00     148.36     1.0659    0.31075
 102.00     152.06    0.64927    0.23050
 102.00     156.38    0.15645    0.93564E-01
 102.00     160.29    0.87976E-010.68406E-01
 102.00     164.20    0.11362    0.77693E-01
 102.00     168.31    0.11732    0.79012E-01
 102.00     172.43    0.20531    0.10848
 102.00     176.54    0.10489    0.75706E-01
 116.00     31.573     859.15
 116.00     36.046     726.18
 116.00     39.705     573.89
 116.00     43.568     476.98
 116.00     47.430     346.57
 116.00     51.700     269.32
 116.00     55.562     209.29
 116.00     59.628     159.93
 116.00     63.491     124.28
 116.00     67.760     98.218
 116.00     71.623     67.854
 116.00     75.689     59.313
 116.00     79.348     41.672
 116.00     83.211     32.932
 116.00     87.277     23.529
 116.00     91.546     19.230
 116.00     95.206     14.695
 116.00     99.271     10.499
 116.00     103.34     7.5013     1.6763
 116.00     107.20     5.5427     1.2386
 116.00     111.27     3.8941    0.87018
 116.00     115.33     2.6013    0.58130
 116.00     118.99     1.8901    0.42236
 116.00     123.26     1.3966    0.37049
 116.00     127.12     1.0672    0.30600
 116.00     130.78    0.54481    0.19287
 116.00     134.85    0.65540    0.18710
 116.00     138.91    0.25569    0.12069
 116.00     142.98    0.13499    0.87377E-01
 116.00     146.84    0.10849    0.78246E-01
 116.00     150.91    0.98077E-010.74965E-01
 116.00     154.77    0.13725    0.87184E-01
 142.00     31.722     392.77
 142.00     35.389     308.12
 142.00     39.463     233.48
 142.00     43.130     186.36
 142.00     47.001     127.26
 142.00     51.075     98.117
 142.00     54.946     70.578
 142.00     59.224     50.768
 142.00     63.298     35.891
 142.00     67.169     24.508
 142.00     71.447     18.571
 142.00     75.318     13.830
 142.00     79.189     10.663
 142.00     83.264     6.6764     1.4034
 142.00     87.134     5.2376    0.88487
 142.00     91.209     3.8334    0.80582
 142.00     95.079     2.9556    0.74755
 142.00     99.357     2.3592    0.54588
 142.00     103.23     1.2858    0.38207
 142.00     107.10     1.0443    0.31031
 142.00     111.18    0.27950    0.12719
 142.00     115.05    0.31561    0.13126
 142.00     119.12    0.19761    0.10549
 142.00     122.99    0.24762    0.11268
 142.00     127.07    0.23819E-010.21990E-01
 142.00     131.14    0.16911    0.96820E-01
 142.00     143.16    0.15445E-010.13551E-01
 142.00     147.03    0.50241E-010.48443E-01
 142.00     159.05    0.21859E-010.20029E-01
 142.00     163.12    0.46893E-010.45094E-01
ENDDATA            176
ENDSUBENT          187
SUBENT        F0776003   20060419   20060814   20060808       F024
BIB                  2          2
REACTION   (47-AG-108(7-N-14,X)1-H-2,,DA/DE)
STATUS     (CURVE)FIG.2
ENDBIB               2
COMMON               2          3
EN-ERR-DIG ERR-DIG
MEV        PER-CENT
 0.12       0.001
ENDCOMMON            3
DATA                 4        162
ANG        E          DATA       DATA-ERR
ADEG       MEV        MUB/SR/MEV MUB/SR/MEV
 63.000     39.503     1125.5
 63.000     43.568     1144.7
 63.000     47.430     951.54
 63.000     51.292     860.31
 63.000     55.357     831.93
 63.000     59.423     680.02
 63.000     63.488     625.25
 63.000     67.350     555.89
 63.000     71.619     485.98
 63.000     75.278     424.86
 63.000     79.140     377.73
 63.000     83.612     319.32
 63.000     87.474     269.93
 63.000     91.742     232.05
 63.000     95.198     196.16
 63.000     99.873     157.67
 63.000     102.92     140.18
 63.000     107.60     118.50
 63.000     115.73     76.560
 63.000     119.18     64.719
 63.000     122.84     51.153
 63.000     126.91     40.430
 63.000     130.77     33.048
 63.000     134.63     28.892
 63.000     138.70     18.665
 63.000     143.17     15.515
 63.000     146.42     13.564
 63.000     151.10     9.2158     1.6867
 63.000     154.56     6.5852     1.6081
 63.000     158.62     4.2542    0.95066
 63.000     162.69     3.0914    0.69082
 63.000     166.55     1.7755    0.47101
 63.000     170.82     1.1862    0.36599
 63.000     174.07     1.1279    0.32342
 63.000     178.34    0.31979    0.15376
 63.000     182.21    0.72871E-010.67014E-01
 79.000     39.939     583.50
 79.000     44.004     507.77
 79.000     47.459     449.61
 79.000     51.931     384.51
 79.000     55.792     323.18
 79.000     59.654     276.39
 79.000     61.890     266.94
 79.000     63.922     232.30
 79.000     67.784     198.66
 79.000     71.646     169.90
 79.000     75.508     135.54
 79.000     79.776     106.27
 79.000     83.638     90.886
 79.000     87.296     73.779
 79.000     91.361     63.097
 79.000     95.020     49.471
 79.000     99.288     42.308
 79.000     103.76     34.345
 79.000     107.01     26.464
 79.000     111.28     21.859
 79.000     115.14     15.442
 79.000     119.00     13.206
 79.000     121.44     12.107
 79.000     123.48     11.099
 79.000     126.93     8.1179
 79.000     131.00     6.7054
 79.000     133.84     4.7368    0.95784
 79.000     138.72     3.7139    0.78233
 79.000     142.99     3.1214    0.79118
 79.000     146.85     2.4902    0.53778
 79.000     150.51     1.6990    0.39396
 79.000     154.78     1.0088    0.30041
 79.000     158.64    0.83324    0.28638
 79.000     162.30    0.38788    0.17083
 79.000     166.36    0.29372    0.11933
 79.000     170.22    0.22243    0.10751
 79.000     174.29    0.44188E-010.42318E-01
 102.00     39.431     205.48
 102.00     43.501     172.66
 102.00     47.979     136.17
 102.00     51.642     118.10
 102.00     55.712     91.683
 102.00     59.782     74.636
 102.00     63.242     54.387
 102.00     67.719     47.168
 102.00     71.178     37.795
 102.00     75.452     28.880
 102.00     79.319     22.420
 102.00     83.185     17.683
 102.00     87.255     15.095
 102.00     91.326     12.288
 102.00     94.989     8.9545     1.5354
 102.00     99.059     6.2226     1.1832
 102.00     102.93     5.0656    0.96322
 102.00     107.40     4.1895    0.79663
 102.00     111.07     3.9953    0.61156
 102.00     114.93     3.0050    0.62845
 102.00     118.80     2.1897    0.45795
 102.00     122.67     1.2387    0.33188
 102.00     126.74     1.4059    0.37668
 102.00     130.40     1.2193    0.35134
 102.00     134.67    0.90269    0.26011
 102.00     138.95    0.43591    0.16043
 102.00     142.41    0.36052    0.14325
 102.00     146.68    0.47182    0.15915
 102.00     150.34    0.25655E-010.18422E-01
 102.00     154.62    0.22426    0.11249
 102.00     158.48    0.11815E-010.90156E-02
 102.00     162.55    0.64242E-010.59053E-01
 102.00     166.42    0.49872E-010.45513E-01
 102.00     170.29    0.16473E-010.31088E-01
 102.00     174.56    0.48320E-010.46344E-01
 116.00     39.155     93.608
 116.00     43.839     90.526
 116.00     46.896     62.550
 116.00     51.174     46.227
 116.00     55.044     40.416
 116.00     59.323     27.462
 116.00     62.990     22.448
 116.00     66.657     15.774
 116.00     71.343     11.464
 116.00     75.010     9.5297
 116.00     79.085     6.5849
 116.00     83.159     5.1181
 116.00     87.030     3.7825
 116.00     91.308     2.8910
 116.00     95.586     2.1727
 116.00     99.456     2.3241
 116.00     99.457     1.8680
 116.00     103.12     1.1283    0.26605
 116.00     107.00    0.83387    0.24798
 116.00     110.87    0.83397    0.21771
 116.00     115.14    0.57626    0.18476
 116.00     118.81    0.50382    0.17836
 116.00     122.69    0.16618    0.10024
 116.00     126.76    0.26164    0.12806
 116.00     130.83    0.15282    0.96129E-01
 116.00     134.71    0.64859E-010.61071E-01
 116.00     138.77    0.19019    0.10530
 116.00     142.65    0.67092E-010.61128E-01
 116.00     146.72    0.64883E-010.60897E-01
 116.00     150.20    0.20693E-020.11298E-01
 116.00     154.66    0.12712    0.85893E-01
 116.00     158.54    0.57701E-020.19131E-01
 116.00     162.61    0.59681E-010.57841E-01
 142.00     43.467     18.341
 142.00     47.131     15.417
 142.00     51.203     8.8416     2.0501
 142.00     55.273     7.8298     1.6493
 142.00     59.141     6.1395     1.2415
 142.00     63.213     3.2846    0.61826
 142.00     67.488     2.1648    0.50195
 142.00     71.152     1.8840    0.39686
 142.00     75.020     1.2202    0.33610
 142.00     79.296    0.67592    0.21475
 142.00     83.163    0.65290    0.19168
 142.00     86.827    0.50313    0.17729
 142.00     90.898    0.38105    0.13852
 142.00     94.768    0.12316    0.82659E-01
 142.00     98.641    0.23227E-010.18531E-01
 142.00     102.91    0.21482    0.10762
 142.00     106.58    0.24475E-010.18273E-01
 142.00     110.84    0.18059    0.10352
 142.00     114.71    0.12759    0.84895E-01
 142.00     118.78    0.12112    0.81290E-01
 142.00     142.59    0.61540E-010.57589E-01
ENDDATA            164
ENDSUBENT          175
SUBENT        F0776004   20060419   20060814   20060808       F024
BIB                  2          2
REACTION   (47-AG-108(7-N-14,X)1-H-3,,DA/DE)
STATUS     (CURVE)FIG.2
ENDBIB               2
COMMON               2          3
EN-ERR-DIG ERR-DIG
MEV        PER-CENT
 0.08       0.006
ENDCOMMON            3
DATA                 4        137
ANG        E          DATA       DATA-ERR
ADEG       MEV        MUB/SR/MEV MUB/SR/MEV
 63.000     49.741     301.62
 63.000     52.397     291.74
 63.000     55.463     272.91
 63.000     59.141     263.98
 63.000     63.637     216.04
 63.000     67.316     189.03
 63.000     71.608     171.02
 63.000     75.491     157.34
 63.000     79.782     142.35
 63.000     83.257     120.46
 63.000     87.140     107.17
 63.000     91.227     95.356
 63.000     95.110     83.435
 63.000     99.198     71.794
 63.000     103.49     63.879
 63.000     107.99     60.766
 63.000     112.07     54.066
 63.000     115.14     48.913
 63.000     119.43     45.758
 63.000     123.31     36.217
 63.000     127.40     32.767
 63.000     131.49     28.670
 63.000     134.96     22.315
 63.000     138.85     18.884
 63.000     143.34     15.980
 63.000     147.64     11.634
 63.000     151.72     9.5212
 63.000     155.20     5.5777     1.2389
 63.000     159.09     3.6123    0.95244
 63.000     162.97     2.5012    0.60709
 63.000     167.26     1.6749    0.47730
 63.000     170.94     1.4412    0.44192
 63.000     174.83    0.69086    0.24351
 63.000     178.92    0.46263    0.18244
 63.000     182.60    0.33122    0.14976
 63.000     186.50    0.32990E-010.30018E-01
 79.000     43.701     182.55
 79.000     47.383     145.78
 79.000     51.269     126.95
 79.000     55.360     108.65
 79.000     59.247     82.373
 79.000     63.747     69.290
 79.000     67.428     59.302
 79.000     71.110     52.541
 79.000     75.406     42.692
 79.000     79.088     33.508
 79.000     83.179     28.186
 79.000     86.657     22.122
 79.000     90.747     19.942
 79.000     95.042     17.366
 79.000     99.133     14.863
 79.000     103.02     12.077
 79.000     107.11     9.9840
 79.000     111.20     7.9732
 79.000     114.07     7.1873
 79.000     118.57     6.1514
 79.000     122.86     4.9983
 79.000     127.57     3.9917
 79.000     131.66     3.7252
 79.000     136.16     2.2946
 79.000     138.81     2.7286
 79.000     143.11     2.1049
 79.000     147.00     1.8329
 79.000     151.29     1.3658    0.34474
 79.000     154.98    0.85596    0.27320
 79.000     159.89    0.60557    0.19891
 79.000     162.95    0.66040    0.23201
 79.000     166.84    0.20707    0.10525
 79.000     170.94    0.12109    0.81790E-01
 79.000     174.84    0.10916E-010.88801E-02
 79.000     182.60    0.58548E-010.55354E-01
 102.00     43.482     53.452     10.221
 102.00     47.375     37.671     8.6541
 102.00     51.677     28.747     6.6040
 102.00     55.364     24.913     5.2399
 102.00     59.462     17.839     3.7521
 102.00     63.355     12.572     2.6443
 102.00     67.452     9.7479     1.8640
 102.00     71.549     8.0544     1.5402
 102.00     75.851     7.6796     1.4685
 102.00     79.539     5.1600    0.98671
 102.00     83.431     4.4014    0.84164
 102.00     87.323     3.3057    0.69526
 102.00     91.420     2.6883    0.56541
 102.00     95.518     1.8353    0.49457
 102.00     99.410     1.7222    0.42961
 102.00     103.30     1.1389    0.25593
 102.00     107.19     1.2531    0.33768
 102.00     111.29    0.75322    0.26580
 102.00     115.19    0.49811    0.17392
 102.00     119.28    0.28547    0.12950
 102.00     123.38    0.41160    0.17247
 102.00     127.27    0.38016    0.15526
 102.00     131.37    0.41825    0.15456
 102.00     135.26    0.68218E-010.61314E-01
 102.00     139.15    0.90840E-010.70475E-01
 102.00     143.25    0.63010E-010.59115E-01
 102.00     147.35    0.86617E-010.68966E-01
 102.00     151.24    0.61044E-010.58385E-01
 102.00     154.93    0.60083E-010.57424E-01
 116.00     47.593     14.232     3.1803
 116.00     51.676     10.516     2.1356
 116.00     55.351     6.2458     1.5252
 116.00     59.230     4.4627    0.93569
 116.00     63.722     4.2433    0.86169
 116.00     67.192     2.3170    0.56581
 116.00     71.480     2.2404    0.40920
 116.00     75.563     1.1247    0.27466
 116.00     79.442     1.2441    0.35672
 116.00     83.321    0.70253    0.16565
 116.00     87.200    0.57421    0.18410
 116.00     91.079    0.39672    0.15305
 116.00     95.162    0.41028    0.14967
 116.00     99.246    0.26062    0.12068
 116.00     103.12    0.16279    0.94858E-01
 116.00     107.21    0.29315    0.12761
 116.00     111.29    0.84517E-010.69800E-01
 116.00     115.17    0.18937    0.10485
 116.00     118.84    0.56462E-020.48010E-02
 116.00     134.97    0.19916E-010.18846E-01
 116.00     138.85    0.41721E-010.37549E-01
 142.00     51.616     3.3319    0.70479
 142.00     55.497     1.5465    0.46253
 142.00     59.377     1.2765    0.35310
 142.00     63.258    0.74330    0.25659
 142.00     67.342    0.53361    0.18420
 142.00     71.223    0.27501    0.12824
 142.00     75.103    0.13218    0.85767E-01
 142.00     78.984    0.21921    0.11199
 142.00     82.864    0.27025E-020.12495E-01
 142.00     87.154    0.23098    0.11194
 142.00     95.119    0.30534E-010.27084E-01
 142.00     99.000    0.27983E-010.27550E-01
 142.00     106.97    0.58220E-010.56103E-01
 142.00     131.07    0.26096E-010.17844E-01
 142.00     135.15    0.62425E-010.57619E-01
 142.00     139.03    0.28975E-010.27428E-01
ENDDATA            139
ENDSUBENT          150
ENDENTRY             4
