ENTRY            F0772   20060704   20060823   20060818       F025
SUBENT        F0772001   20060704   20060823   20060818       F025
BIB                 11         24
TITLE      Scattering of 40- and 50-MeV alpha particles from 11B
           nuclei.
AUTHOR     (N.Burtebaev,M.K.Baktybaev,B.A.Duisebaev,R.J.Peterson,
           S.B.Sakuta)
REFERENCE  (J,YF,68,1356,2005)
INSTITUTE  (4KASKAZ,1USACLU,4RUSKUR)
FACILITY   (ISOCY,4KASKAZ)
DETECTOR   (TELES,SI)Scattered particles were detected by
           telescope consisting of two silicon counters: a thin
            (dE) counter and another (E) of total absorption with
           the thicknesses of 30 mu-m and 1 mm, correspondingly.
           Overall energy resolution was 400-500 keV and it was
           defined mainly by the energy spread in cyclotron beam.
METHOD     (EDE)
SAMPLE     Self supporting foils of 11B with 99% enrichment were
           used as the targets. Target thicknesses were from 0.1
           to 0.2 mg/cm2. They were determined from the energy
           losses of alpha particles with the accuracy of ~ 8%.
ERR-ANALYS Systematic error of cross sections did not exceed 10%.
           At measurements in the region of forward hemisphere
           statistical error was 1-5%. At large angles it
           increased but did not exceed 10%.
STATUS     (TABLE) Data were presented by authors
HISTORY    (20060502C)
ENDBIB              24
NOCOMMON             0          0
ENDSUBENT           27
SUBENT        F0772002   20060704   20060823   20060818       F025
BIB                  1          1
REACTION   (5-B-11(A,INL)5-B-11,PAR,DA)
ENDBIB               1
NOCOMMON             0          0
DATA                 5        361
EN         E-LVL      ANG-CM     DATA-CM    DATA-ERR
MEV        MEV        ADEG       MB/SR      MB/SR
40.0        0.0000     13.222    1120.2     2.411744
40.0        0.0000     14.978    640.81     1.744309
40.0        0.0000     16.335    306.77     1.413717
40.0        0.0000     17.691    123.18     7.55719E-01
40.0        0.0000     19.046    35.281     3.79388E-01
40.0        0.0000     20.399    19.286     2.87499E-01
40.0        0.0000     21.751    41.556     3.93141E-01
40.0        0.0000     23.102    79.797     4.24488E-01
40.0        0.0000     24.451    118.79     4.64080E-01
40.0        0.0000     25.798    136.88     5.20520E-01
40.0        0.0000     27.143    137.58     4.69740E-01
40.0        0.0000     29.828    100.52     3.35085E-01
40.0        0.0000     32.504    47.602     2.44084E-01
40.0        0.0000     35.171    14.180     1.25639E-01
40.0        0.0000     37.828     5.756     7.00132E-02
40.0        0.0000     40.474    12.361     1.15312E-01
40.0        0.0000     43.108    20.889     1.46887E-01
40.0        0.0000     45.73     23.183     1.47683E-01
40.0        0.0000     48.339    19.464     1.17287E-01
40.0        0.0000     50.934    13.434     8.94765E-02
40.0        0.0000     53.515    8.5275     1.45903E-01
40.0        0.0000     57.356    6.4261     1.11543E-01
40.0        0.0000     61.161    7.7318     1.27542E-01
40.0        0.0000     64.925    7.9840     8.82439E-02
40.0        0.0000     68.648    6.1443     9.67877E-02
40.0        0.0000     72.326    4.0528     7.85952E-02
40.0        0.0000     75.958    2.6152     6.19340E-02
40.0        0.0000     79.541    1.8600     5.11948E-02
40.0        0.0000     83.073    1.3110     4.23344E-02
40.0        0.0000     87.7      0.9221     3.74578E-02
40.0        0.0000     92.229    0.8703     3.10426E-02
40.0        0.0000     96.657    0.8935     3.27353E-02
40.0        0.0000     100.98    0.8056     3.09846E-02
40.0        0.0000     105.197   0.7574     2.73125E-02
40.0        0.0000     109.306   0.8468     2.75028E-02
40.0        0.0000     111.319   1.1068     3.38201E-02
40.0        0.0000     115.265   1.2162     4.12805E-02
40.0        0.0000     119.102   1.2466     4.10323E-02
40.0        0.0000     122.831   1.0418     3.27164E-02
40.0        0.0000     126.456   0.8773     3.14124E-02
40.0        0.0000     129.977   0.8000     4.89592E-02
40.0        0.0000     133.398   0.7092     5.34580E-02
40.0        0.0000     134.239   0.6407     3.13377E-02
40.0        0.0000     136.724   0.7622     5.64980E-02
40.0        0.0000     139.958   0.8156     5.90148E-02
40.0        0.0000     143.105   0.8745     5.22614E-02
40.0        0.0000     146.171   1.1339     5.57282E-02
40.0        0.0000     149.161   1.3091     5.88397E-02
40.0        0.0000     152.08    1.6367     6.94116E-02
40.0        0.0000     154.934   1.4179     8.26936E-02
40.0        0.0000     157.73    1.4371     7.79377E-02
40.0        0.0000     160.474   1.3489     5.75173E-02
40.0        0.0000     163.838   1.3687     9.46750E-02
40.0        0.0000     167.143   1.6308     7.20016E-02
40.0        0.0000     170.399   2.5376     5.73478E-02
40.0        4.4451     13.93     21.31097   3.25330E-01
40.0        4.4451     15.319    19.43993   2.97148E-01
40.0        4.4451     16.707    18.4501    3.39120E-01
40.0        4.4451     18.093    16.92168   2.74002E-01
40.0        4.4451     19.479    15.90254   2.49178E-01
40.0        4.4451     20.863    14.23919   2.41690E-01
40.0        4.4451     22.245    11.99629   2.06679E-01
40.0        4.4451     23.626    9.47299    1.43120E-01
40.0        4.4451     25.005    6.79478    1.08623E-01
40.0        4.4451     26.382    4.62122    9.36115E-02
40.0        4.4451     27.758    3.47026    7.30298E-02
40.0        4.4451     30.502    2.52952    5.20473E-02
40.0        4.4451     33.237    3.57767    6.55378E-02
40.0        4.4451     35.963    5.37242    7.57656E-02
40.0        4.4451     38.677    5.99406    7.00210E-02
40.0        4.4451     41.381    5.47219    7.52231E-02
40.0        4.4451     44.072    4.24065    6.49113E-02
40.0        4.4451     46.75     2.65485    4.90379E-02
40.0        4.4451     49.413    1.72114    3.42384E-02
40.0        4.4451     52.062    1.44811    2.88528E-02
40.0        4.4451     54.695    1.52583    6.06463E-02
40.0        4.4451     58.614    1.77908    5.77210E-02
40.0        4.4451     62.493    1.59426    5.70106E-02
40.0        4.4451     66.329    1.13827    3.28317E-02
40.0        4.4451     70.119    0.75511    3.34697E-02
40.0        4.4451     73.862    0.71502    3.26021E-02
40.0        4.4451     77.554    0.84323    3.47742E-02
40.0        4.4451     81.192    1.02497    3.76278E-02
40.0        4.4451     84.776    1.00526    3.67560E-02
40.0        4.4451     89.464    0.95519    3.78758E-02
40.0        4.4451     94.045    0.74204    2.85400E-02
40.0        4.4451     98.516    0.60553    2.68925E-02
40.0        4.4451     102.871   0.5963     2.66674E-02
40.0        4.4451     107.11    0.69053    2.61557E-02
40.0        4.4451     113.245   0.8331     2.85583E-02
40.0        4.4451     117.185   0.76141    2.53945E-02
40.0        4.4451     121.005   0.7679     3.32614E-02
40.0        4.4451     124.708   0.82494    3.40489E-02
40.0        4.4451     128.295   0.79921    5.52825E-02
40.0        4.4451     131.768   0.84701    3.67918E-02
40.0        4.4451     135.133   1.02304    6.21453E-02
40.0        4.4451     138.393   0.94988    6.10606E-02
40.0        4.4451     141.554   0.93749    6.39363E-02
40.0        4.4451     144.62    0.92554    6.43295E-02
40.0        4.4451     147.597   0.58972    3.53691E-02
40.0        4.4451     150.493   0.81117    5.72155E-02
40.0        4.4451     153.312   0.86859    5.14508E-02
40.0        4.4451     156.062   1.19843    7.25323E-02
40.0        4.4451     158.75    1.6526     1.09207E-01
40.0        4.4451     161.381   1.25409    6.61883E-02
40.0        4.4451     164.601   1.4792     6.83761E-02
40.0        4.4451     167.758   1.47869    1.03025E-01
40.0        4.4451     170.863   1.25841    6.11860E-02
40.0        4.4451     173.93    1.57282    5.29896E-02
40.0        6.743      14.125    16.00661   2.78092E-01
40.0        6.743      16.941    14.20353   1.34960E-01
40.0        6.743      18.347    10.7283    2.21686E-01
40.0        6.743      19.752    9.54456    1.91467E-01
40.0        6.743      21.155    8.27276    1.65060E-01
40.0        6.743      22.557    7.16763    1.57464E-01
40.0        6.743      23.957    5.82866    1.28172E-01
40.0        6.743      25.355    4.90964    9.33014E-02
40.0        6.743      26.751    4.30048    7.98029E-02
40.0        6.743      28.145    3.74335    7.75668E-02
40.0        6.743      30.927    3.5211     7.04079E-02
40.0        6.743      33.7      3.586      6.17268E-02
40.0        6.743      36.463    3.52714    6.37100E-02
40.0        6.743      39.214    2.99561    5.14804E-02
40.0        6.743      41.954    2.19551    3.58287E-02
40.0        6.743      44.681    1.41809    3.04001E-02
40.0        6.743      47.394    1.11473    2.91539E-02
40.0        6.743      50.093    1.19879    3.37721E-02
40.0        6.743      52.776    1.49869    3.53147E-02
40.0        6.743      55.443    1.79729    3.48087E-02
40.0        6.743      59.411    2.13703    7.74164E-02
40.0        6.743      63.337    2.19314    6.42545E-02
40.0        6.743      67.219    2.28543    6.90025E-02
40.0        6.743      71.053    2.66479    5.37492E-02
40.0        6.743      74.837    2.93167    6.85876E-02
40.0        6.743      78.567    3.02216    6.75269E-02
40.0        6.743      82.443    2.81363    6.08646E-02
40.0        6.743      85.859    2.52952    5.57050E-02
40.0        6.743      90.587    2.16055    4.95404E-02
40.0        6.743      95.202    2.0465     5.37437E-02
40.0        6.743      99.7      1.815      4.19268E-02
40.0        6.743      104.077   1.48023    3.79297E-02
40.0        6.743      108.33    1.22675    3.48374E-02
40.0        6.743      112.457   1.11591    3.17796E-02
40.0        6.743      114.473   1.41525    4.04192E-02
40.0        6.743      118.409   1.7474     5.03802E-02
40.0        6.743      122.219   1.33368    4.91601E-02
40.0        6.743      125.904   1.00378    3.26185E-02
40.0        6.743      129.466   1.17429    5.55420E-02
40.0        6.743      132.909   1.54301    5.59709E-02
40.0        6.743      136.237   1.82419    8.32625E-02
40.0        6.743      139.455   2.11934    1.03660E-01
40.0        6.743      142.567   1.6104     7.48416E-02
40.0        6.743      145.581   1.40316    7.58742E-02
40.0        6.743      148.502   1.54447    7.68403E-02
40.0        6.743      151.337   2.06449    9.20511E-02
40.0        6.743      154.093   2.65923    1.01162E-01
40.0        6.743      156.776   3.0598     1.08588E-01
40.0        6.743      159.394   3.10195    1.31789E-01
40.0        6.743      161.954   2.84351    1.12664E-01
40.0        6.743      165.083   2.60921    8.24693E-02
40.0        6.743      168.145   3.62808    1.96184E-01
40.0        6.743      171.155   6.00254    1.92235E-01
40.0        6.743      174.125   9.14658    1.45680E-01
50.5        0.0000     13.62     522.193    1.311165
50.5        0.0000     14.978    233.019    1.192854
50.5        0.0000     16.335    74.3148    6.02733E-01
50.5        0.0000     17.691    18.3761    3.62412E-01
50.5        0.0000     19.046    28.8350    3.83955E-01
50.5        0.0000     20.399    76.1155    6.47352E-01
50.5        0.0000     21.751    105.097    6.84384E-01
50.5        0.0000     23.102    129.096    7.87992E-01
50.5        0.0000     24.451    132.747    6.80342E-01
50.5        0.0000     25.798    119.851    7.64282E-01
50.5        0.0000     27.143    94.5324    8.18378E-01
50.5        0.0000     28.486    67.9807    5.39428E-01
50.5        0.0000     29.828    44.1473    4.19160E-01
50.5        0.0000     31.167    27.5815    3.80299E-01
50.5        0.0000     32.504    15.5348    2.43475E-01
50.5        0.0000     33.838    11.9034    2.19011E-01
50.5        0.0000     35.171    12.6630    1.66045E-01
50.5        0.0000     36.5      16.0579    1.73531E-01
50.5        0.0000     37.828    21.0225    1.99295E-01
50.5        0.0000     39.152    24.7993    2.31800E-01
50.5        0.0000     40.474    28.1122    2.72857E-01
50.5        0.0000     43.108    26.6423    2.64656E-01
50.5        0.0000     45.73     20.4585    3.38817E-01
50.5        0.0000     48.339    13.2714    2.52617E-01
50.5        0.0000     50.934    8.7155     1.66259E-01
50.5        0.0000     53.515    6.17564    1.18983E-01
50.5        0.0000     56.08     5.97707    1.07213E-01
50.5        0.0000     58.629    6.42312    1.14082E-01
50.5        0.0000     61.161    6.1049     1.05984E-01
50.5        0.0000     63.675    5.12519    1.86033E-01
50.5        0.0000     66.171    3.60328    1.28118E-01
50.5        0.0000     68.648    2.3769     5.32157E-02
50.5        0.0000     71.105    1.41757    4.72261E-02
50.5        0.0000     73.542    1.37649    3.73391E-02
50.5        0.0000     75.958    1.80236    3.92188E-02
50.5        0.0000     78.352    2.22104    5.36790E-02
50.5        0.0000     81.901    2.69134    5.75104E-02
50.5        0.0000     85.398    2.19647    5.25357E-02
50.5        0.0000     88.841    1.64795    4.65553E-02
50.5        0.0000     92.229    1.48476    4.00994E-02
50.5        0.0000     95.559    1.64118    4.61071E-02
50.5        0.0000     98.831    1.61068    4.90341E-02
50.5        0.0000     100.044   1.46904    4.58404E-02
50.5        0.0000     102.044   1.52688    5.70224E-02
50.5        0.0000     105.197   1.1784     4.26609E-02
50.5        0.0000     108.289   1.19036    3.62215E-02
50.5        0.0000     111.319   1.21372    4.56463E-02
50.5        0.0000     114.289   1.13565    4.10060E-02
50.5        0.0000     117.197   0.96222    3.99196E-02
50.5        0.0000     120.044   0.71859    2.80776E-02
50.5        0.0000     122.831   0.66246    2.99575E-02
50.5        0.0000     125.559   0.65691    2.85883E-02
50.5        0.0000     129.106   0.65249    2.87243E-02
50.5        0.0000     132.552   0.68804    2.92320E-02
50.5        0.0000     135.901   0.59427    2.30275E-02
50.5        0.0000     138.352   0.50384    1.95823E-02
50.5        0.0000     139.158   0.49057    2.33340E-02
50.5        0.0000     142.326   0.45748    1.85839E-02
50.5        0.0000     145.412   0.42563    1.98667E-02
50.5        0.0000     148.42    0.35348    1.89485E-02
50.5        0.0000     151.356   0.2885     1.63593E-02
50.5        0.0000     153.515   0.2638     2.39818E-02
50.5        0.0000     154.226   0.27058    1.45887E-02
50.5        0.0000     157.036   0.28924    1.33844E-02
50.5        0.0000     159.792   0.34608    1.55082E-02
50.5        0.0000     162.5     0.36097    1.70352E-02
50.5        0.0000     165.167   0.44246    2.01118E-02
50.5        0.0000     170.399   0.46743    2.69422E-02
50.5        0.0000     173.62    0.63293    4.91249E-02
50.5        4.4451     13.859    15.048     2.18777E-01
50.5        4.4451     15.241    14.549     2.92979E-01
50.5        4.4451     16.622    14.724     2.63729E-01
50.5        4.4451     18.002    12.592     2.94918E-01
50.5        4.4451     19.38     10.451     2.27249E-01
50.5        4.4451     20.757    7.4087     1.98574E-01
50.5        4.4451     22.132    5.8730     1.59079E-01
50.5        4.4451     23.506    3.8697     1.34158E-01
50.5        4.4451     24.879    2.6641     9.47844E-02
50.5        4.4451     26.249    2.0366     9.79860E-02
50.5        4.4451     27.617    2.1523     1.21461E-01
50.5        4.4451     28.984    2.4189     1.00095E-01
50.5        4.4451     30.348    3.1586     1.10303E-01
50.5        4.4451     31.71     3.56       1.30341E-01
50.5        4.4451     33.07     3.9009     1.78051E-01
50.5        4.4451     34.427    3.9364     1.05583E-01
50.5        4.4451     35.782    4.0491     1.29675E-01
50.5        4.4451     37.134    3.5637     9.76448E-02
50.5        4.4451     38.483    3.1744     8.69128E-02
50.5        4.4451     39.83     2.4807     7.32156E-02
50.5        4.4451     41.174    1.9079     6.74123E-02
50.5        4.4451     43.852    1.3250     5.68089E-02
50.5        4.4451     46.517    1.2350     4.92036E-02
50.5        4.4451     49.168    1.2734     6.71141E-02
50.5        4.4451     51.805    1.8118     7.45906E-02
50.5        4.4451     54.426    1.9882     6.59444E-02
50.5        4.4451     57.03     1.9386     6.47280E-02
50.5        4.4451     59.618    1.8537     6.11147E-02
50.5        4.4451     62.188    1.3569     5.04986E-02
50.5        4.4451     64.739    0.9672     3.82021E-02
50.5        4.4451     67.271    0.9257     3.59512E-02
50.5        4.4451     67.271    0.9276     6.62571E-02
50.5        4.4451     69.783    1.0532     5.56634E-02
50.5        4.4451     72.273    1.0224     3.04011E-02
50.5        4.4451     74.742    1.1242     3.08376E-02
50.5        4.4451     77.188    1.1145     4.04006E-02
50.5        4.4451     79.612    0.9714     3.57335E-02
50.5        4.4451     83.202    0.8955     3.55368E-02
50.5        4.4451     86.736    0.7886     2.95956E-02
50.5        4.4451     90.212    0.9251     6.16733E-02
50.5        4.4451     93.629    0.9250     3.50873E-02
50.5        4.4451     96.985    0.8964     3.76121E-02
50.5        4.4451     100.278   0.8466     3.90508E-02
50.5        4.4451     103.507   0.6732     3.48104E-02
50.5        4.4451     106.671   0.6173     2.97689E-02
50.5        4.4451     109.77    0.6758     3.65966E-02
50.5        4.4451     112.803   0.5671     3.02696E-02
50.5        4.4451     115.77    0.5268     2.88252E-02
50.5        4.4451     118.671   0.5625     2.58365E-02
50.5        4.4451     121.507   0.5306     2.65300E-02
50.5        4.4451     124.278   0.5547     2.64443E-02
50.5        4.4451     126.985   0.5623     2.83283E-02
50.5        4.4451     130.497   0.5140     2.90067E-02
50.5        4.4451     133.901   0.4041     2.07572E-02
50.5        4.4451     137.202   0.3519     1.54915E-02
50.5        4.4451     139.612   0.4099     4.27350E-02
50.5        4.4451     143.51    0.4046     1.77429E-02
50.5        4.4451     146.529   0.3369     1.79060E-02
50.5        4.4451     149.466   0.3449     1.94329E-02
50.5        4.4451     152.327   0.4309     2.05892E-02
50.5        4.4451     154.426   0.4867     3.35855E-02
50.5        4.4451     155.117   0.4870     2.01868E-02
50.5        4.4451     157.844   0.5134     1.84181E-02
50.5        4.4451     160.514   0.4995     1.92686E-02
50.5        4.4451     163.134   0.4645     2.00074E-02
50.5        4.4451     165.71    0.3643     1.89135E-02
50.5        4.4451     170.757   0.5772     3.10754E-02
50.5        4.4451     173.859   0.8267     5.83109E-02
50.5        6.743      15.399    10.042     2.40946E-01
50.5        6.743      16.794    10.156     2.16823E-01
50.5        6.743      18.188    9.1591     2.49003E-01
50.5        6.743      19.581    7.4100     1.89440E-01
50.5        6.743      20.972    5.6183     1.71197E-01
50.5        6.743      22.361    4.3504     1.35554E-01
50.5        6.743      23.749    3.1734     1.20287E-01
50.5        6.743      25.136    2.5557     9.19221E-02
50.5        6.743      26.52     2.1402     9.94635E-02
50.5        6.743      27.902    2.3324     1.25210E-01
50.5        6.743      29.283    2.4576     9.99157E-02
50.5        6.743      30.661    2.5955     9.90245E-02
50.5        6.743      32.037    2.9068     1.21753E-01
50.5        6.743      33.41     2.8568     1.13548E-01
50.5        6.743      34.781    2.8371     8.87895E-02
50.5        6.743      36.149    2.3638     9.81515E-02
50.5        6.743      37.515    2.1612     7.53347E-02
50.5        6.743      38.878    1.8618     6.59483E-02
50.5        6.743      40.238    1.5148     5.66900E-02
50.5        6.743      41.595    1.6514     6.21513E-02
50.5        6.743      44.299    1.8686     6.68638E-02
50.5        6.743      46.99     2.2309     6.55580E-02
50.5        6.743      49.667    3.0429     1.02869E-01
50.5        6.743      52.329    3.3286     1.00270E-01
50.5        6.743      54.974    3.2501     8.36389E-02
50.5        6.743      57.603    3.0577     8.06615E-02
50.5        6.743      60.215    2.8801     7.56091E-02
50.5        6.743      62.808    2.7065     7.08081E-02
50.5        6.743      65.381    2.3320     5.89107E-02
50.5        6.743      67.935    2.5082     1.08237E-01
50.5        6.743      67.935    2.3450     6.35177E-02
50.5        6.743      70.467    2.3155     8.20192E-02
50.5        6.743      72.978    2.0147     5.54108E-02
50.5        6.743      75.466    1.7125     4.10305E-02
50.5        6.743      77.932    1.4906     3.51729E-02
50.5        6.743      80.373    1.3201     4.08561E-02
50.5        6.743      83.988    1.0853     3.61165E-02
50.5        6.743      87.545    1.0274     3.55973E-02
50.5        6.743      91.042    1.0004     3.60052E-02
50.5        6.743      94.476    0.9374     6.23549E-02
50.5        6.743      97.848    0.8969     3.39725E-02
50.5        6.743      101.153   0.8669     3.59342E-02
50.5        6.743      104.393   0.9163     3.59126E-02
50.5        6.743      107.564   0.9121     3.86469E-02
50.5        6.743      110.667   0.8796     4.30742E-02
50.5        6.743      113.702   0.8370     3.54648E-02
50.5        6.743      116.667   0.8433     3.71242E-02
50.5        6.743      119.564   0.8785     3.13550E-02
50.5        6.743      122.393   0.8900     3.42561E-02
50.5        6.743      125.153   0.9501     3.85000E-02
50.5        6.743      127.848   0.7915     3.64704E-02
50.5        6.743      131.339   0.6266     4.79173E-02
50.5        6.743      140.373   0.6243     2.25716E-02
50.5        6.743      144.225   0.5652     2.12867E-02
50.5        6.743      147.204   0.4541     2.11266E-02
50.5        6.743      150.097   0.3876     2.09590E-02
50.5        6.743      152.911   0.4428     2.12551E-02
50.5        6.743      155.654   0.5704     2.22704E-02
50.5        6.743      158.33    0.7126     2.21394E-02
50.5        6.743      160.949   0.6805     2.29658E-02
50.5        6.743      163.515   0.4724     2.06173E-02
ENDDATA            363
ENDSUBENT          369
ENDENTRY             2
