ENTRY            F0777   20060704   20060823   20060818       F025
SUBENT        F0777001   20060704   20060823   20060818       F025
BIB                 10         28
TITLE      Role of exchange effects in elastic scattering of
           alpha particles and of 3He ions by 6Li nuclei.
AUTHOR     (V.N.Bragin,N.T.Burtebaev,A.D.Dujsebaev,G.N.Ivanov,
           S.B.Sakuta,V.I.Chuev,L.V.Chulkov)
INSTITUTE  (4RUSKUR,4KASKAZ)
REFERENCE  (J,YF,44,312,1986)
FACILITY   (CYCLO,4KASKAZ)For 3He with the energy of 50,60 MeV
           and for 50 MeV alpha particles.
           (CYCLO,4RUSKUR)For 3He with the energy of 34,72 MeV
           and for 36 MeV alpha particles.
DETECTOR   (TELES)Ionizing chamber or flight semiconductor
           counters with the thickness of 30-100 mu-m were used
           as dE-detectors. Semiconductor counter with the
           thickness of 1-3 mm was used as E-detector.
SAMPLE     Foils of metallic lithium enriched in 6Li to 90.9% were
           coated on thin (~0.2 mu-m) organic films by thermal
           sputtering in vacuum. Thicknesses of targets in
           different experiments varied from 0.1 to 0.5 mg/cm2.
METHOD     (EDE)
ERR-ANALYS (ANG-ERR-D)Digitizing error
           (ERR-DIG)Digitizing error
           (DATA-ERR)Error from the graphic bars
           Relative errors were determined mostly by statistical
           accuracy and were no more than 10%. Error in absolute
           cross section definition was due to uncertainty in
           target thickness which was determined by weighing
           immediately after measurement performance.
HISTORY    (20060322C)
ENDBIB              28
COMMON               1          3
ERR-DIG
PER-CENT
 0.2
ENDCOMMON            3
ENDSUBENT           35
SUBENT        F0777002   20060704   20060823   20060818       F025
BIB                  2          2
REACTION   (3-LI-6(A,EL)3-LI-6,,DA)
STATUS     (CURVE)Fig.1
ENDBIB               2
COMMON               1          3
ANG-ERR-D
ADEG
 0.09
ENDCOMMON            3
DATA                 4         76
EN         ANG-CM     DATA-CM    DATA-ERR
MEV        ADEG       MB/SR      MB/SR
 36.600     14.543     238.39
 36.600     15.849     122.94
 36.600     22.214     7.7476
 36.600     26.296     12.520
 36.600     27.602     17.276
 36.600     32.011     31.334
 36.600     37.398     19.988
 36.600     40.826     11.782
 36.600     45.887     4.5667
 36.600     50.131     1.7381
 36.600     54.703     5.6145
 36.600     59.275     6.4565
 36.600     64.173     5.8229
 36.600     68.907     3.3703
 36.600     73.478     1.8358
 36.600     78.376     1.7171
 36.600     82.620     1.4751
 36.600     86.865     1.1222    0.20005
 36.600     91.926    0.98782    0.16203
 36.600     96.335     1.5486    0.25400
 36.600     99.600     1.8695    0.31990
 36.600     104.01     2.2161    0.33235
 36.600     107.93     2.2984    0.51024
 36.600     112.17     2.4128    0.39577
 36.600     115.44     2.2027    0.31499
 36.600     120.01     2.2027    0.31499
 36.600     122.46     2.7578    0.47192
 36.600     126.05     2.8086    0.48060
 36.600     130.29     2.4872    0.39043
 36.600     132.91     1.7380    0.27282
 36.600     136.99     1.6962    0.27822
 36.600     139.93     1.5962    0.26182
 36.600     143.03     1.4840    0.25394
 36.600     146.29     1.9986    0.32782
 36.600     148.58     2.2295    0.42954
 36.600     151.36     2.8428    0.46630
 36.600     154.46     4.7645    0.74792
 36.600     156.91     6.7362     1.0574
 36.600     158.87     8.1817     1.3420
 36.600     161.32     8.8005     1.3198
 36.600     163.76     11.638     1.9089
 36.600     166.38     12.292     1.9295
 36.600     169.32     13.302     1.9949
 36.600     173.56     14.839     2.2254
 50.500     29.215     43.460
 50.500     37.706     13.617
 50.500     46.197     4.8569
 50.500     54.197     8.7309
 50.500     58.931     9.8783
 50.500     62.360     6.2559
 50.500     65.299     3.9133
 50.500     70.525     2.2591    0.34464
 50.500     78.361     3.7479
 50.500     80.646     4.9175
 50.500     85.871     4.3197
 50.500     93.545     1.5408    0.25711
 50.500     100.24     1.3042    0.19897
 50.500     105.95     2.4938    0.41615
 50.500     109.38     2.2873    0.36527
 50.500     114.12     1.8658    0.33840
 50.500     119.50     1.4046    0.20431
 50.500     125.38     1.0838    0.16534
 50.500     130.77     1.2338    0.18822
 50.500     135.34    0.94617    0.11775
 50.500     141.06    0.98188    0.16385
 50.500     144.97     1.5990    0.25535
 50.500     147.91     2.8391    0.47378
 50.500     151.50     4.7393    0.75683
 50.500     154.93     5.1671    0.86226
 50.500     159.99     5.3291    0.85102
 50.500     162.61     4.2672    0.65099
 50.500     165.38     2.9830    0.45507
 50.500     168.32     3.7024    0.67151
 50.500     168.97     4.9793    0.86690
 50.500     170.60     6.9493     1.0602
 50.500     172.73     13.874     2.4155
ENDDATA             78
ENDSUBENT           89
SUBENT        F0777003   20060704   20060823   20060818       F025
BIB                  2          2
REACTION   (3-LI-6(HE3,EL)3-LI-6,,DA)
STATUS     (CURVE)Fig.2
ENDBIB               2
COMMON               1          3
ANG-ERR-D
ADEG
 0.08
ENDCOMMON            3
DATA                 4        191
EN         ANG-CM     DATA-CM    DATA-ERR
MEV        ADEG       MB/SR      MB/SR
 34.000     20.960     642.70
 34.000     25.725     319.36
 34.000     27.766     146.61
 34.000     31.169     43.834
 34.000     31.848     8.3678
 34.000     34.740     2.4528    0.51719
 34.000     37.634     5.7071
 34.000     40.359     10.681
 34.000     43.763     13.019
 34.000     46.997     11.561
 34.000     49.890     8.5347
 34.000     52.443     5.4494
 34.000     58.569     2.4205
 34.000     61.973     1.9341
 34.000     65.888     1.6839    0.27592
 34.000     70.143     1.5973    0.26174
 34.000     74.058     1.5151    0.25995
 34.000     79.335     1.3633    0.23391
 34.000     84.100     1.2430    0.20967
 34.000     89.888     1.0966    0.20520
 34.000     94.143    0.84221    0.14450
 34.000     98.227    0.68642    0.12309
 34.000     104.18    0.44117    0.82557E-01
 34.000     109.80    0.42685    0.73235E-01
 34.000     115.25    0.41848    0.78311E-01
 34.000     120.52    0.42967    0.83781E-01
 34.000     124.78    0.38662    0.57455E-01
 34.000     129.38    0.35955    0.70109E-01
 34.000     133.29    0.33218    0.51891E-01
 34.000     137.89    0.33438    0.59962E-01
 34.000     141.63    0.34332    0.61565E-01
 34.000     145.38    0.35718    0.64051E-01
 34.000     148.95    0.36673    0.62919E-01
 34.000     152.69    0.35954    0.61685E-01
 34.000     156.27    0.35017    0.60078E-01
 34.000     158.31    0.28166    0.46154E-01
 34.000     160.86    0.22211    0.38107E-01
 34.000     163.42    0.26717    0.52096E-01
 34.000     166.31    0.27980    0.37803E-01
 34.000     169.20    0.28165    0.41856E-01
 34.000     171.08    0.34786    0.54339E-01
 34.000     174.31    0.35016    0.62792E-01
 50.000     20.306     40.494
 50.000     29.492     13.278
 50.000     35.620     15.351
 50.000     42.426     8.3658
 50.000     48.379     3.3435
 50.000     53.484     2.5510
 50.000     59.611     2.2209
 50.000     65.056     1.4180
 50.000     69.820    0.92343
 50.000     75.265    0.65091
 50.000     80.029    0.49336
 50.000     86.666    0.31918
 50.000     90.237    0.17978    0.32239E-01
 50.000     94.490    0.96054E-010.16480E-01
 50.000     99.254    0.69519E-010.11927E-01
 50.000     104.02    0.89324E-010.15325E-01
 50.000     108.96    0.89912E-010.15426E-01
 50.000     112.70    0.51656E-010.88626E-02
 50.000     117.29    0.27418E-010.49167E-02
 50.000     124.95    0.26007E-010.44620E-02
 50.000     130.57    0.86409E-010.18220E-01
 50.000     136.19    0.10813    0.18553E-01
 50.000     140.62    0.32329    0.60498E-01
 50.000     148.96    0.31278    0.63463E-01
 50.000     154.75    0.25492    0.49706E-01
 50.000     160.70    0.13178    0.25696E-01
 50.000     166.15    0.17500    0.35508E-01
 50.000     172.11    0.17499    0.30024E-01
 60.000     23.213     5.6878
 60.000     25.805     1.6266
 60.000     30.122     3.2773
 60.000     33.401     10.951
 60.000     35.474     14.568
 60.000     38.928     12.549
 60.000     41.691     10.533
 60.000     44.628     7.6159
 60.000     47.564     5.4356
 60.000     50.846     4.3037
 60.000     53.955     3.8544
 60.000     56.200     3.3855
 60.000     59.136     3.0518
 60.000     61.900     2.8601
 60.000     64.836     2.6119
 60.000     68.118     1.9507
 60.000     72.781     1.1686
 60.000     74.509    0.92524
 60.000     77.618    0.78166
 60.000     81.072    0.73734
 60.000     83.490    0.61091
 60.000     86.945    0.40863
 60.000     89.363    0.33638
 60.000     91.608    0.25451
 60.000     94.199    0.19382
 60.000     96.099    0.13305    0.22411E-01
 60.000     98.518    0.11611    0.20440E-01
 60.000     101.28    0.11024    0.17735E-01
 60.000     103.87    0.10535    0.18545E-01
 60.000     106.98    0.11314    0.19056E-01
 60.000     110.09    0.11168    0.17967E-01
 60.000     113.02    0.11387
 60.000     113.89    0.79191E-010.92316E-02
 60.000     115.44    0.86719E-010.12654E-01
 60.000     116.83    0.67338E-010.11342E-01
 60.000     118.55    0.74702E-010.12018E-01
 60.000     118.73    0.42764E-010.72030E-02
 60.000     120.80    0.26808E-010.49244E-02
 60.000     124.94    0.21088E-010.33927E-02
 60.000     127.53    0.18643E-010.31402E-02
 60.000     128.92    0.28420E-010.45723E-02
 60.000     129.43    0.43043E-010.72501E-02
 60.000     130.99    0.49005E-010.75163E-02
 60.000     133.06    0.68663E-010.95107E-02
 60.000     135.48    0.90751E-010.11902E-01
 60.000     136.86    0.10067    0.13945E-01
 60.000     137.72    0.14106    0.20584E-01
 60.000     140.48    0.14106    0.18500E-01
 60.000     140.83    0.17248    0.22621E-01
 60.000     143.42    0.18049    0.31773E-01
 60.000     145.84    0.18644    0.32821E-01
 60.000     148.60    0.18765    0.30190E-01
 60.000     150.33    0.16165    0.26006E-01
 60.000     152.57    0.15447    0.23693E-01
 60.000     153.78    0.12230    0.19677E-01
 60.000     156.55    0.10199    0.17179E-01
 60.000     158.45    0.80754E-010.13602E-01
 60.000     160.52    0.75193E-010.13813E-01
 60.000     165.01    0.74708E-010.12019E-01
 60.000     166.39    0.80755E-010.10283E-01
 60.000     167.60    0.90169E-010.15873E-01
 60.000     169.85    0.12966    0.23818E-01
 60.000     171.92    0.19011    0.30586E-01
 60.000     173.30    0.21090    0.33930E-01
 60.000     175.37    0.25290    0.38790E-01
 60.000     176.58    0.32570    0.57336E-01
 60.000     177.13    0.30327    0.53388E-01
 60.000     178.72    0.29936    0.43683E-01
 72.000     17.367     236.94
 72.000     20.820     63.684
 72.000     24.619     31.102
 72.000     27.556     39.757
 72.000     30.837     53.948
 72.000     33.946     47.874
 72.000     36.536     35.516
 72.000     38.954     26.347
 72.000     42.235     17.117
 72.000     44.998     12.202
 72.000     47.934     8.1946
 72.000     50.525     6.6710
 72.000     53.460     5.3947
 72.000     55.705     4.5098
 72.000     58.296     3.3015
 72.000     61.404     2.6699
 72.000     66.067     1.7930
 72.000     70.903     1.1419
 72.000     74.875    0.77194
 72.000     79.020    0.51498
 72.000     82.474    0.31937
 72.000     86.273    0.19938
 72.000     90.245    0.13301
 72.000     93.180    0.71759E-010.12388E-01
 72.000     95.944    0.51156E-010.76492E-02
 72.000     99.571    0.60789E-010.95548E-02
 72.000     103.54    0.63258E-010.11415E-01
 72.000     106.82    0.63258E-010.10921E-01
 72.000     110.11    0.58416E-010.96318E-02
 72.000     113.04    0.27782E-010.45808E-02
 72.000     116.84    0.29492E-010.50914E-02
 72.000     120.64    0.27234E-010.51284E-02
 72.000     122.19    0.37950E-010.68479E-02
 72.000     125.65    0.61193E-010.11523E-01
 72.000     128.59    0.77190E-010.12727E-01
 72.000     131.52    0.10544    0.17385E-01
 72.000     134.11    0.12530    0.20659E-01
 72.000     137.39    0.13841    0.20696E-01
 72.000     139.81    0.15910    0.26234E-01
 72.000     141.88    0.17929    0.32352E-01
 72.000     144.82    0.18906    0.31173E-01
 72.000     147.76    0.18411    0.31785E-01
 72.000     151.38    0.14213    0.23435E-01
 72.000     155.18    0.11882    0.17766E-01
 72.000     157.08    0.86406E-010.13581E-01
 72.000     161.23    0.77188E-010.11542E-01
 72.000     164.34    0.98669E-010.14003E-01
 72.000     166.93    0.15493    0.20818E-01
 72.000     169.69    0.19937    0.32872E-01
 72.000     172.80    0.29687    0.53568E-01
 72.000     175.22    0.35748    0.46500E-01
 72.000     176.43    0.44205    0.72887E-01
 72.000     178.84    0.47869    0.75240E-01
ENDDATA            193
ENDSUBENT          204
ENDENTRY             3
