ENTRY            F0781   20060705   20060823   20060818       F025
SUBENT        F0781001   20060705   20060823   20060818       F025
BIB                 10         23
TITLE      Angular dependence of the density matrix spin-tensors
           of the 12C 4.44-MeV state in (a,d) and (a,t) reactions
           at Ea = 25 MeV.
AUTHOR     (O.I.Vasileva,G.S.Gurevich,A.V.Ignatenko,V.M.Lebedev,
           N.V.Orlova,A.V.Spassky,I.B.Teplov,G.V.Shakhvorostova,
           I.K.Shestakova)
INSTITUTE  (4RUSMOS)
REFERENCE  (J,YF,49,625,1989)
FACILITY   (CYCLO) 120-cm
DETECTOR   (TELES,SI)Charged reaction products were detected by 3
           dE-E telescopes of silicon semiconductor counters
           with an angle resolution of +-2 degrees placed in three
           planes about the horizontal plane with the intervals of
           delta fi=45 degrees but at the same angle theta with
           respect to the beam direction of the incident particles
METHOD     (EDE)
SAMPLE     Boron target was prepared by spattering of alcohol
           suspension of boron powder containing 43% of 10B and
           57% of 11B isotopes onto gold backing. Target thickness
           was 1.6 mg/cm2.
ERR-ANALYS (ANG-ERR-D)  Digitizing error
           (ERR-DIG)    Digitizing error
HISTORY    (20060620C)
ENDBIB              23
COMMON               2          3
EN         ANG-RSL
MEV        ADEG
 25.        2.
ENDCOMMON            3
ENDSUBENT           30
SUBENT        F0781002   20060705   20060823   20060818       F025
BIB                  2          2
REACTION   (5-B-11(A,T)6-C-12,PAR,DA)
STATUS     (CURVE)Fig.1a
ENDBIB               2
COMMON               2          3
ANG-ERR-D  ERR-DIG
ADEG       PER-CENT
 0.151      0.0002
ENDCOMMON            3
DATA                 3         80
E-LVL      ANG-CM     DATA-CM
MEV        ADEG       MB/SR
 0.0000     17.063     6.8132
 0.0000     19.116     6.1271
 0.0000     19.459     5.1197
 0.0000     22.882     4.2431
 0.0000     23.910     3.4315
 0.0000     24.594     3.8158
 0.0000     27.674     3.2943
 0.0000     29.044     2.8908
 0.0000     33.492     3.0113
 0.0000     37.941     2.9869
 0.0000     39.310     2.4755
 0.0000     44.102     2.2814
 0.0000     44.787     1.7143
 0.0000     49.579     1.2570
 0.0000     53.346    0.67034
 0.0000     56.769    0.56935
 0.0000     61.217    0.67036
 0.0000     68.403    0.67586
 0.0000     73.879    0.56474
 0.0000     79.013    0.46425
 0.0000     86.197    0.79579
 0.0000     90.646    0.89218
 0.0000     96.464    0.66496
 0.0000     101.60    0.44570
 0.0000     107.76    0.92183
 0.0000     113.23     1.0167
 0.0000     118.71     1.0678
 0.0000     122.81    0.75781
 0.0000     126.58    0.44938
 0.0000     130.35    0.29633
 0.0000     135.48    0.36942
 0.0000     138.56    0.42098
 0.0000     143.69    0.38798
 0.0000     147.80    0.31634
 0.0000     151.56    0.19382
 0.0000     154.98    0.36643
 0.0000     162.85    0.81568
 0.0000     169.01     1.2472
 0.0000     173.80     1.2370
 0.0000     178.25     1.1216
 4.4400     9.9239     5.5410
 4.4400     12.319     5.0076
 4.4400     14.715     4.4125
 4.4400     15.741     3.6652
 4.4400     19.506     3.2570
 4.4400     21.217     2.6827
 4.4400     21.901     2.9684
 4.4400     23.954     2.5719
 4.4400     27.034     2.9435
 4.4400     30.798     3.0963
 4.4400     35.247     3.0189
 4.4400     37.643     2.7054
 4.4400     42.091     2.1911
 4.4400     44.144     1.7896
 4.4400     48.935     1.4131
 4.4400     55.779     1.2452
 4.4400     59.202     1.0519
 4.4400     62.281     1.2039
 4.4400     68.441     1.1738
 4.4400     75.285     1.2771
 4.4400     80.076     1.3663
 4.4400     86.236     1.4616
 4.4400     91.027     1.3778
 4.4400     98.897     1.4131
 4.4400     103.35     1.6587
 4.4400     109.85     1.6728
 4.4400     114.64     2.0481
 4.4400     119.09     1.8354
 4.4400     123.88     1.6870
 4.4400     127.98     1.8354
 4.4400     132.09     3.0189
 4.4400     137.22     3.6345
 4.4400     140.65     4.6809
 4.4400     143.04     4.1596
 4.4400     147.83     3.8882
 4.4400     151.60     2.8943
 4.4400     155.70     2.0830
 4.4400     162.55     2.4450
 4.4400     168.71     4.7605
 4.4400     174.87     6.2355
ENDDATA             82
ENDSUBENT           93
SUBENT        F0781003   20060705   20060823   20060818       F025
BIB                  2          2
REACTION   (5-B-10(A,D)6-C-12,PAR,DA)
STATUS     (CURVE)Fig.1b
ENDBIB               2
COMMON               2          3
ANG-ERR-D  ERR-DIG
ADEG       PER-CENT
 0.183      0.0006
ENDCOMMON            3
DATA                 3         67
E-LVL      ANG-CM     DATA-CM
MEV        ADEG       MB/SR
 0.0000     15.591    0.60116
 0.0000     18.722    0.72394
 0.0000     23.943    0.78489
 0.0000     29.512    0.87184
 0.0000     36.477    0.74179
 0.0000     41.704    0.51156
 0.0000     47.280    0.33882
 0.0000     53.552    0.22623
 0.0000     59.125    0.18043
 0.0000     65.742    0.15228
 0.0000     72.007    0.17900
 0.0000     77.223    0.27691
 0.0000     81.747    0.32286
 0.0000     88.711    0.29781
 0.0000     93.587    0.27471
 0.0000     97.767    0.21734
 0.0000     102.64    0.24734
 0.0000     107.86    0.22449
 0.0000     112.74    0.23000
 0.0000     117.61    0.23949
 0.0000     123.53    0.26819
 0.0000     128.40    0.27925
 0.0000     132.93    0.26178
 0.0000     136.76    0.27702
 0.0000     142.33    0.22636
 0.0000     146.51    0.19259
 0.0000     150.69    0.20881
 0.0000     154.52    0.18952
 0.0000     159.04    0.20382
 0.0000     159.39    0.18056
 0.0000     162.87    0.22097
 0.0000     167.74    0.24744
 0.0000     171.22    0.28618
 0.0000     178.88    0.37973
 4.4400     14.340     1.7384
 4.4400     18.170     1.4861
 4.4400     21.651     1.3022
 4.4400     27.570     1.1041
 4.4400     34.185     1.0166
 4.4400     39.755    0.90569
 4.4400     45.674     1.0594
 4.4400     51.940     1.2291
 4.4400     58.555     1.2393
 4.4400     64.474     1.0682
 4.4400     69.348    0.87626
 4.4400     75.266    0.75530
 4.4400     81.185    0.66186
 4.4400     87.799    0.69546
 4.4400     94.066    0.74292
 4.4400     98.244    0.81352
 4.4400     103.47    0.81352
 4.4400     108.34    0.83391
 4.4400     112.87    0.81351
 4.4400     118.44    0.73681
 4.4400     123.66    0.66733
 4.4400     125.40    0.56114
 4.4400     130.27    0.54742
 4.4400     135.50    0.52097
 4.4400     140.72    0.48768
 4.4400     142.46    0.68972
 4.4400     148.73    0.75526
 4.4400     153.25    0.82024
 4.4400     156.73    0.88348
 4.4400     158.47    0.78708
 4.4400     163.70    0.73073
 4.4400     168.92    0.82023
 4.4400     175.53    0.93601
ENDDATA             69
ENDSUBENT           80
ENDENTRY             3
