ENTRY            F0791   20070213   20070719   20070627       F027
SUBENT        F0791001   20070213   20070719   20070627       F027
BIB                 11         26
TITLE      Spin-dependence and coherent summations in two-nucleon
           transfer reactions.
AUTHOR     (J.M.Nelson,W.R.Falk)
INSTITUTE  (2UK BIR,1CANMNA)
REFERENCE  (J,NP/A,218,441,1974)
FACILITY   (CYCLO,1CANMNA)
DETECTOR   (TELES)Two detector telescopes, each employing a
           200 mu-m dE detector, a 3 mm lithium drifted E-detector
           and a veto counter, mounted in a 71 cm diameter
           scattering chamber.
SAMPLE     The target material consisted of FEP fluorocarbon film
            (manufactured by du Pont) of 12.7 mu-m thickness. The
           fluorine surface density was 2.19 mg/cm2 as determined
           from the chemical composition of the film.
MONITOR    (9-F-19(P,EL)9-F-19,,DA)To provide a relative
           normalization between the different measurements,
           elastic scattering events were recorded with a NaI
           scintillation counter at an angle of 37.5 degr. to the
           incident beam direction. A series of measurements to
           check the consistency of this normalization was then
           made by keeping one detector fixed at 75 degr.
METHOD     (EDE)
ERR-ANALYS (ANG-ERR-D) Digitizing error
           (ERR-DIG) Digitizing error
           (ERR-S) Statistical error
HISTORY    (20070208C)
ENDBIB              26
COMMON               3          3
EN         ANG-ERR-D  ERR-DIG
MEV        ADEG       PER-CENT
  42.4      0.193      0.2
ENDCOMMON            3
ENDSUBENT           33
SUBENT        F0791002   20070213   20070719   20070627       F027
BIB                  2          2
REACTION   (9-F-19(P,HE3)8-O-17,PAR,DA)
STATUS     (CURVE)Fig.2
ENDBIB               2
NOCOMMON             0          0
DATA                 4         84
E-LVL      ANG-CM     DATA-CM    ERR-S
MEV        ADEG       MU-B/SR    MU-B/SR
 0.0000     13.442     379.41     19.051
 0.0000     17.784     277.26
 0.0000     23.461     173.21
 0.0000     28.137     119.35
 0.0000     33.827     117.02
 0.0000     39.177     99.052     2.8692
 0.0000     41.853     91.578     3.5198
 0.0000     44.857     68.250     4.5242
 0.0000     47.192     49.878     1.4448
 0.0000     49.525     35.050
 0.0000     52.538     35.741     1.7946
 0.0000     55.545     29.379     1.1292
 0.0000     57.894     36.803     1.8479
 0.0000     61.572     31.770     1.2699
 0.0000     65.586     29.372     1.1740
 0.0000     71.271     24.379    0.97447
 0.0000     75.948     17.816     1.0788
 0.0000     81.630     13.147    0.79608
 0.0000     86.985     13.275    0.53061
 0.0000     91.342     15.989    0.80285
 0.0000     96.696     15.075    0.60255
 0.0000     107.74     12.758    0.77254
0.87100     13.041     106.94     9.6863
0.87100     17.706     54.475     3.8005
0.87100     23.409     83.220     3.2697
0.87100     27.765     96.148     3.7776
0.87100     33.108     64.143     4.4750
0.87100     39.116     38.119     2.2684
0.87100     41.785     28.825     1.7154
0.87100     44.455     22.221     1.3224
0.87100     47.127     18.682    0.73400
0.87100     49.462     14.542    0.71763
0.87100     52.487     21.584     1.0652
0.87100     54.827     19.412     1.1552
0.87100     57.177     24.226     1.1956
0.87100     61.187     19.787     1.1775
0.87100     65.858     12.339    0.86088
0.87100     71.194     6.7893    0.54397
0.87100     77.205     4.3162    0.39096
0.87100     81.898     5.3346    0.42742
0.87100     87.262     7.1903    0.50164
0.87100     93.296     9.4153    0.46465
0.87100     97.639     7.3991    0.44031
0.87100     107.66     3.9167    0.35477
 3.0600     13.537     78.529     7.1809
 3.0600     17.209     47.364     4.3310
 3.0600     22.548     19.551     1.7878
 3.0600     27.564     15.939     1.6275
 3.0600     32.921     16.732     1.5300
 3.0600     38.270     12.139     1.2394
 3.0600     40.606     8.2275    0.84007
 3.0600     44.624     9.0670    0.54464
 3.0600     46.625     6.1455    0.49706
 3.0600     48.964     5.1587    0.75218
 3.0600     51.977     5.3111    0.48566
 3.0600     54.649     3.9289    0.40116
 3.0600     56.993     4.0450    0.41302
 3.0600     60.668     2.7954    0.31553
 3.0600     71.032     1.4713    0.19822
 3.0600     76.724     1.6214    0.21844
 3.0600     81.745     1.6693    0.24339
 3.0600     86.766     1.6854    0.30291
 3.0600     91.447     1.3346    0.22462
 3.0600     97.136     1.2226    0.17827
 3.8500     13.110     25.464     3.6377
 3.8500     17.124     20.799     1.9103
 3.8500     22.813     19.820     1.1132
 3.8500     26.824     12.847    0.95296
 3.8500     32.171     6.6080    0.49017
 3.8500     37.853     3.3021    0.44432
 3.8500     40.867     3.8154    0.57640
 3.8500     44.218     5.3970    0.40034
 3.8500     46.225     4.8076    0.39930
 3.8500     48.236     6.0001    0.33700
 3.8500     51.919     6.3569    0.41457
 3.8500     54.259     5.3447    0.34856
 3.8500     57.268     3.9266    0.39483
 3.8500     60.612     2.9981    0.35293
 3.8500     70.654     3.3010    0.27416
 3.8500     76.677     2.8292    0.33305
 3.8500     80.690     2.0987    0.11787
 3.8500     86.048     2.6445    0.35583
 3.8500     90.728     1.6976    0.25647
 3.8500     95.746     1.3471    0.22534
ENDDATA             86
ENDSUBENT           93
SUBENT        F0791003   20070213   20070719   20070627       F027
BIB                  2          2
REACTION   (9-F-19(P,T)9-F-17,PAR,DA)
STATUS     (CURVE)Fig.2
ENDBIB               2
NOCOMMON             0          0
DATA                 4         88
E-LVL      ANG-CM     DATA-CM    ERR-S
MEV        ADEG       MU-B/SR    MU-B/SR
 0.0000     14.271     386.54     27.056
 0.0000     18.681     314.11
 0.0000     24.081     292.32     20.461
 0.0000     28.516     201.52
 0.0000     34.438     168.62
 0.0000     38.476     173.67     5.7829
 0.0000     42.849     180.62
 0.0000     46.399     164.83     6.2576
 0.0000     48.281     135.86
 0.0000     50.519     98.754
 0.0000     54.220     101.22
 0.0000     56.809     66.790
 0.0000     58.651     71.833
 0.0000     62.232     53.760
 0.0000     66.129     46.072     1.5341
 0.0000     72.193     45.663     2.5754
 0.0000     77.595     42.086     1.9875
 0.0000     82.534     29.297
 0.0000     87.778     25.112     1.0699
 0.0000     92.347     21.837     1.2316
 0.0000     97.942     17.074    0.96299
 0.0000     107.90     14.786    0.96826
0.50000     14.364     186.56     13.110
0.50000     18.054     68.614     4.1990
0.50000     23.793     190.44     11.655
0.50000     27.772     287.94
0.50000     33.867     233.84     16.433
0.50000     38.011     119.68
0.50000     42.140     67.499
0.50000     45.115     32.584
0.50000     47.745     16.512
0.50000     49.982     12.044    0.95467
0.50000     52.044     27.782
0.50000     55.712     35.437     1.8438
0.50000     57.998     56.784     2.4290
0.50000     61.709     54.911
0.50000     65.775     46.802     3.4998
0.50000     72.072     30.546     2.1466
0.50000     77.440     11.682    0.92598
0.50000     82.148     4.0539    0.30315
0.50000     87.996     5.5094    0.41199
0.50000     92.769     11.480    0.96114
0.50000     97.823     11.321    0.84658
0.50000     107.83     7.2149    0.50702
 3.1000     12.384     22.329     7.9821
 3.1000     16.552     31.854     3.0912
 3.1000     21.888     12.173     1.3404
 3.1000     27.274     12.540    0.93833
 3.1000     32.791     17.718     1.4844
 3.1000     38.201     14.882     1.1803
 3.1000     40.919     12.196    0.80237
 3.1000     44.314     9.8029    0.55546
 3.1000     46.373     7.1139    0.72151
 3.1000     48.819     3.3987    0.41804
 3.1000     51.522     3.1915    0.37891
 3.1000     54.110     1.9069    0.20998
 3.1000     57.301     2.0418    0.21598
 3.1000     60.151     2.2951    0.28230
 3.1000     65.503     3.1344    0.55386
 3.1000     70.217     3.1819    0.44511
 3.1000     75.904     4.4094    0.70789
 3.1000     80.532     2.2446    0.38762
 3.1000     85.440     1.8399    0.21844
 3.1000     91.032     1.3886    0.22293
 3.1000     95.792    0.95549    0.18023
 3.1000     105.79    0.55490    0.17695
 3.8600     12.506     44.280     7.2828
 3.8600     16.437     27.926     2.7077
 3.8600     22.874     20.780     2.6420
 3.8600     27.156     11.664     1.2832
 3.8600     32.824     4.8454    0.67722
 3.8600     38.384     4.7549    0.68439
 3.8600     41.205     6.6821    0.87783
 3.8600     44.865     9.5754    0.49811
 3.8600     47.026     12.033    0.89964
 3.8600     50.066     11.301    0.69141
 3.8600     52.554     15.349    0.86897
 3.8600     55.121     11.089    0.97744
 3.8600     58.659     10.986    0.77184
 3.8600     60.744     6.5668    0.63671
 3.8600     65.845     4.4334    0.52590
 3.8600     70.431     3.2664    0.44285
 3.8600     76.732     7.2135    0.66770
 3.8600     81.320     5.2124    0.43630
 3.8600     86.752     3.7122    0.32722
 3.8600     92.670     3.0587    0.26961
 3.8600     96.263     1.9478    0.44203
 3.8600     105.87     1.8127    0.32005
ENDDATA             90
ENDSUBENT           97
ENDENTRY             3
