ENTRY            O1029   20030320
SUBENT        O1029001   20030320
BIB                 12         20
TITLE      The Mg-26(d,a)Na-24 reaction at low energies.
AUTHOR     (E.K.Lin, W.N.Wang, C.C.Kiang, C.C.Hsu, P.S.Song,
           L.P.Liang)
INSTITUTE  (3CHFTHU)
REFERENCE  (J,CHP,8,36,1970)
HISTORY    (20030212C)
           (20030320U) Last checking has been done.
SAMPLE      MgO Powder enriched in Mg-26 was evaporated under
           vacuum onto thin carbon foils, a Mg-26 thickness was
           about 100-mug/cm**2.
ADD-RES    Alpha-spectra for the 12-Mg-26(d,a)Na-24 were
           represented.
DETECTOR   (SIBAR) A pair of the semiconductor surface barrier
           detector.
FACILITY   (VDG,3CHFTHU) 3-MeV Van de Graaff accelerator.
METHOD     (BCINT)
REL-REF    (R,,C.C.HSU+,J,NC/B,56,39,1969)
           (R,,W.N.WANG+,J,NP/A,102,537,1967)
           (R,O1031001,E.K.LIN+,J,CHP,4,6,1966)
STATUS     (CURVE).By CAJAD.
ENDBIB              20
NOCOMMON
ENDSUBENT           23
SUBENT        O1029002   20030320
BIB                  5         11
REACTION   (12-MG-26(D,A)11-NA-24,PAR,DA)
PART-DET   (A)
EN-SEC     (E-EXC,11-NA-24)
COMMENT    -By compiler: the doublet, corresponding to the first
           and second excited states at 0.473-MeV and 0.53-MeV,
           respectevely, was not resolved clearly, and at some
           angles the impurity group from the 16-O(d,a)14-N
           reaction seriously obscured the groups.
            E-EXC=1.846-MEV combines 1.846- AND 1.885-MeV states.
ERR-ANALYS (ERR-DIG)  Data-point reader uncertainty.
           (EN-ERR-DIG) Data-point reader uncertainty.
ENDBIB              11
COMMON               3          3
ANG        ERR-DIG    EN-ERR-DIG
ADEG       MB/SR      MEV
       140.      0.009      0.002
ENDCOMMON            3
DATA                 3         97
EN         E-EXC      DATA
MEV        MEV        MB/SR
      2.498         0.      0.096
      2.502      0.473      0.515
      2.504      1.347      0.239
      2.524         0.      0.033
      2.528      1.347      0.111
      2.529      0.473      0.483
      2.549         0.     0.0031
      2.553      0.473      0.581
      2.554      1.347      0.182
      2.573         0.     0.0046
      2.575      1.347      0.386
      2.576      1.846      0.282
       2.58      0.473      0.697
      2.598         0.      0.033
      2.601      1.347      0.288
      2.602      1.846      0.135
      2.605      0.473      0.406
      2.624         0.       0.06
      2.625      0.473      0.436
      2.626      1.846      0.059
      2.629      1.347      0.353
      2.649         0.      0.084
      2.651      1.846      0.024
      2.652      1.347      0.213
      2.654      0.473      0.552
      2.675      1.846      0.194
      2.677         0.      0.127
      2.678      1.347      0.368
      2.681      0.473      0.705
        2.7         0.      0.127
      2.703      1.846      0.112
      2.704      1.347      0.373
      2.709      0.473      0.809
      2.726         0.      0.218
      2.729      1.347      0.365
       2.73      1.846      0.159
      2.732      0.473       0.74
      2.752         0.      0.377
      2.753      1.347      0.539
      2.754      1.846      0.229
      2.757      0.473       0.61
      2.777      1.846      0.165
      2.779         0.      0.334
       2.78      1.347      0.762
      2.782      0.473      0.633
        2.8      1.846      0.076
      2.801         0.      0.316
      2.803      1.347      0.839
      2.808      0.473      0.756
      2.827      1.846      0.106
      2.828         0.       0.45
      2.829      0.473      0.903
       2.83      1.347      0.934
      2.847         0.      0.426
      2.849      1.846      0.118
      2.854      1.347      0.733
      2.857      0.473      1.285
      2.876         0.      0.237
      2.877      1.846        0.1
       2.88      1.347      0.828
      2.882      0.473      1.469
      2.902         0.      0.121
      2.904      1.846      0.053
      2.905      0.473      1.604
      2.906      1.347      0.736
      2.924         0.      0.078
      2.928      1.846      0.041
       2.93      0.473      1.683
      2.931      1.347      0.608
      2.949         0.      0.072
       2.95      1.846      0.088
      2.953      1.347      0.697
      2.956      0.473      1.818
      2.975      1.347      0.569
      2.976      1.846      0.153
      2.977         0.      0.102
       2.98      0.473      1.779
      3.001         0.      0.096
      3.002      1.846      0.229
      3.004      0.473      1.433
      3.005      1.347      0.367
      3.024         0.      0.041
      3.025      1.347      0.275
      3.026      1.846      0.312
       3.03      0.473      1.259
      3.036         0.      0.086
      3.048         0.      0.084
      3.052      1.846      0.271
      3.055      0.473      1.363
      3.056      1.347      0.491
      3.075      1.347      0.508
      3.077      1.846      0.265
      3.082      0.473      1.398
        3.1         0.      0.102
      3.101      1.846      0.265
      3.103      1.347      0.489
      3.107      0.473      1.206
ENDDATA             99
ENDSUBENT          119
ENDENTRY             2
