ENTRY            O1077   20040407
SUBENT        O1077001   20040407
BIB                 12         28
TITLE      Low-lying states of Sb-121 studied in the Sb-123(p,t)
           reaction.
AUTHOR     (P.Guazzoni, M.Jaskola, V.Yu.Ponomarev, L.Zetta,
           G.Graw, R.Hertenberger, G.Staudt)
INSTITUTE  (2ITYMIL)
           (2GERMUN)
           (2GERTUE)
REFERENCE  (J,PR/C,62,054312,2000)
HISTORY    (20031009C)
           (20040407U) Last checking has been done.
ADD-RES    (COMP) The quasiparticle-phonon model.
           The distorted wave Born approximation analysis.
           The triton spectra were analyzed with the
            AUTOFIT shape-fitting code.
SAMPLE     An isitopically enriched 98% Sb-123, with a thickness
           of 100-mug/cm**2 on 7-mug/cm**2 carbon backing, has
           been used.
DETECTOR   (MAGSP) The Q3D magnetic spectrograph.
            1.8-m long focal plane detector for light ions.
FACILITY   (VDGT,2GERMUN) The Garching HVEC MP tandem.
METHOD     (BCINT)
STATUS     (CURVE) By CAJAD.
ERR-ANALYS The errors in the absolute cross sections are mostly
           determined by the uncertainties regarding the target
           thickness, solid angle, collected charge, background
           subtraction at higher excitation energies and counting
           statistics, giving an overall value of approx. 15%,
           while the dead time was completely negligible.
ENDBIB              28
COMMON               1          3
EN
MEV
        26.
ENDCOMMON            3
ENDSUBENT           35
SUBENT        O1077002   20040407
BIB                  4         11
REACTION  1(51-SB-123(P,T)51-SB-121,PAR,DA)
          2(51-SB-123(P,T)51-SB-121,PAR,SIG) The integrated cross
            sections from 5 to 65 degrees.
EN-SEC     (E-EXC,51-SB-121)
ERR-ANALYS (ERR-DIG) Data-point reader uncertainty.
           (DATA-ERR) The uncertainty is shown on figure without
           any analysis.
           (ANG-ERR-D) Data-point reader uncertainty.
           (E-EXC-ERR) Quoted energies are estimated to have an
           uncertainty of +/- 15%.
ADD-RES    (STRUC) Relative spectroscopic factor
ENDBIB              11
COMMON               3          3
ANG-ERR-D  ERR-DIG    E-EXC-ERR
ADEG       PER-CENT   KEV
       0.25         6.         3.
ENDCOMMON            3
DATA                 5        833
E-EXC      ANG-CM     DATA-CM   1DATA-ERR  1DATA      2
MEV        ADEG       MU-B/SR    PER-CENT   MICRO-B
         0.       5.04        2.8        40.      3.198
         0.       9.97        2.5        40.
         0.      14.91       2.34
         0.      20.37       1.88
         0.      25.32       1.27         8.
         0.      30.25        1.2        12.
         0.      35.53       1.23
         0.      40.66       0.71        24.
         0.      45.42        0.5         8.
         0.      50.71       0.42        30.
         0.      55.46       0.44        40.
         0.      60.93       0.36        28.
         0.      66.02        0.5         8.
      0.037       5.27      7000.              1950.048
      0.037      10.04      3100.
      0.037      15.02       800.
      0.037      20.54        95.
      0.037       25.4       225.
      0.037     30.255       600.
      0.037      35.13       800.
      0.037       40.4       452.
      0.037      45.53       149.
      0.037      50.67       49.4
      0.037      55.68       183.
      0.037      60.57       244.
      0.037      65.48       176.
      0.508       5.11       25.3                30.738
      0.508      10.38       26.4
      0.508      15.46       26.4
      0.508      20.38       20.7
      0.508      25.31       14.4
      0.508      30.42        7.2
      0.508      35.16        7.5
      0.508      40.43        5.7
      0.508      45.18       4.28
      0.508      50.45        3.1
      0.508      55.88       3.95
      0.508      60.64       2.24
      0.508       65.9       2.34
      0.573       4.69        0.4        80.      0.519
      0.573       10.3       0.33        40.
      0.573      15.41        0.2        50.
      0.573      20.48       0.32        28.
      0.573      25.25        0.2        50.
      0.573      30.51       0.23        40.
      0.573      35.28       0.12        60.
      0.573      40.56       0.08        80.
      0.573      45.49       0.06        70.
      0.573      50.72       0.11        60.
      0.573       55.8       0.12        60.
      0.573      60.56       0.07        70.
      0.573      65.63        0.1        50.
      0.947       5.22        0.4        80.      0.958
      0.947       9.78       0.61        30.
      0.947       15.6       0.59        12.
      0.947      20.71       0.45         8.
      0.947      25.51       0.14        60.
      0.947      30.43       0.18        50.
      0.947      35.88       0.19        40.
      0.947      40.82       0.17        60.
      0.947      46.17      0.028        70.
      0.947      51.06       0.07        90.
      0.947      55.98       0.11        60.
      0.947      61.29       0.05        80.
      0.947      66.36       0.13        40.
      1.025       5.37       4.75         8.      8.754
      1.025      10.42        6.9
      1.025      15.48        9.3
      1.025      20.73        9.4
      1.025      25.69       2.91
      1.025      30.77       2.71
      1.025      35.56       0.74         7.
      1.025      40.94       1.84
      1.025      45.84       1.86
      1.025      50.79       0.67         9.
      1.025      55.84       0.98         9.
      1.025      61.12       0.63
      1.025        66.       0.79
      1.036      5.271        84.               139.048
      1.036      10.17       117.
      1.036      14.89       146.
      1.036      20.17       106.
      1.036      25.46       71.2
      1.036       30.4       38.4
      1.036      35.86       31.1
      1.036      41.13       24.5
      1.036       45.7       22.1
      1.036      50.63       14.8
      1.036      55.71       17.5
      1.036      61.36       10.5
      1.036      65.91        9.7
      1.139       5.54       100.               171.271
      1.139      10.59       144.
      1.139      15.64       195.
      1.139      20.91       147.
      1.139      25.67        89.
      1.139       30.8       46.8
      1.139      35.72        38.
      1.139      40.79       38.4
      1.139      45.71       32.1
      1.139      51.01        17.
      1.139      55.72       19.1
      1.139        61.       13.6
      1.139      66.44        12.
      1.385        5.2        5.3                 8.704
      1.385      10.27        8.4
      1.385      15.17       10.5
      1.385      20.27        8.4
      1.385      25.56       4.49
      1.385      30.85       2.12
      1.385      35.42       1.83
      1.385      40.67        2.3
      1.385      45.77       1.99
      1.385      51.39       1.36
      1.385      55.95       1.18
      1.385      61.25       0.63
      1.385      65.97       0.89
      1.426       5.26       1.21                 5.102
      1.426       10.5       1.59
      1.426      15.91       1.93
      1.426      20.96       2.86
      1.426      25.87       2.83
      1.426      30.78        2.2
      1.426       35.7       1.78
      1.426     40.791       1.44
      1.426      46.38       1.75
      1.426      50.94        1.3
      1.426      56.21       1.05
      1.426      60.96       0.67
      1.426     66.022       0.84
      1.447        5.5        1.5                 2.586
      1.447      10.76       2.07
      1.447      15.33       2.98
      1.447      20.46       1.69
      1.447      25.59       0.89
      1.447      30.89      0.464
      1.447       35.8       0.82
      1.447      40.93      0.503
      1.447      45.85        0.5
      1.447      50.98       0.31
      1.447      56.12       0.11        27.
      1.447      61.21      0.176
      1.447      66.31      0.191
      1.471       5.56       29.3                29.808
      1.471      10.99       31.1
      1.471      15.89       31.8
      1.471      20.97       26.5
      1.471      26.07       16.1
      1.471      30.83        8.3
      1.471      35.92        6.2
      1.471      41.01        5.4
      1.471      46.09       4.66
      1.471      51.34        4.4
      1.471      56.25       3.98
      1.471      61.16       3.07
      1.471      66.26       1.94
      1.474         5.       2.29                  5.41
      1.474      10.28       2.89
      1.474      15.35        4.7
      1.474      20.11       3.69
      1.474      25.23       1.45
      1.474      30.52       0.87
      1.474      35.44       0.99
      1.474      40.54       1.06
      1.474      45.98       1.14
      1.474       50.9       1.22
      1.474       56.2       0.53
      1.474      60.79       0.23        30.
      1.474      65.69        0.5
      1.509       4.72       1.14                 2.254
      1.509      10.14       1.81
      1.509      14.85       2.64
      1.509      20.12       1.96
      1.509       25.2       1.68
      1.509      30.06       0.48
      1.509      35.43       0.53
      1.509       40.5       0.64
      1.509     45.773      0.421
      1.509      50.34      0.311         8.
      1.509      55.77       0.26         8.
      1.509       60.7      0.193         8.
      1.509       65.6      0.213
      1.518       4.74       1.66                 4.404
      1.518      10.34       3.28
      1.518      15.24        4.9
      1.518      20.01       3.41
      1.518      25.12       1.66
      1.518      30.08       1.02
      1.518      35.38       0.77
      1.518      40.64       0.95
      1.518      45.76       0.63
      1.518       50.7      0.478
      1.518      55.63      0.407
      1.518      60.92      0.284
      1.518      65.86       0.19
      1.612       4.66        7.1                13.503
      1.612     10.065       10.8
      1.612      15.14        12.
      1.612      20.06       10.8
      1.612      24.98        7.1
      1.612      30.09       3.95
      1.612      35.36       2.92
      1.612      40.09       2.86
      1.612     45.701       2.59
      1.612      50.27       2.07
      1.612      55.51       2.29
      1.612      60.63       1.23
      1.612       65.2       0.71
      1.628        4.9         2.                 3.981
      1.628     10.171       2.76
      1.628      15.08        3.8
      1.628     20.015       3.37
      1.628      30.79       0.98
      1.628      35.37        0.9
      1.628      40.83       0.87
      1.628      45.75       0.77
      1.628      50.87      0.515
      1.628     55.801      0.421
      1.628      60.76      0.197
      1.628     66.024      0.283
      1.735       5.31       1.27                 5.133
      1.735     10.173       3.89
      1.735      15.07        5.1
      1.735      19.98       4.58
      1.735      25.26       2.44
      1.735     30.192       1.41
      1.735      35.26       1.69
      1.735      40.35       1.35
      1.735      45.27         1.
      1.735      50.55        0.6
      1.735      55.45       0.69
      1.735      60.73      0.384
      1.735      65.62       0.57
      1.759                                       1.009
       1.81       5.53       0.61                 1.014
       1.81      10.61      0.513
       1.81       15.3       1.32
       1.81       20.4       0.81
       1.81       25.5      0.459
       1.81      30.41      0.317
       1.81      35.68      0.202         8.
       1.81      40.74      0.324
       1.81     45.854      0.139        11.
       1.81      50.73       0.26        11.
       1.81      55.82       0.17        29.
       1.81       61.1       0.09        30.
       1.81      65.99        0.1        30.
      1.822       5.05        11.                31.331
      1.822       10.1       23.1
      1.822        15.       29.8
      1.822      20.43       30.1
      1.822      25.19       15.3
      1.822      30.29        8.1
      1.822      35.39        6.1
      1.822      40.46        7.3
      1.822      45.54        7.1
      1.822      50.81        5.4
      1.822      55.56       3.77
      1.822      60.83       2.16
      1.822      65.75       1.86
      1.868       5.43      0.452         8.      1.613
      1.868      10.18       0.47
      1.868      15.27       0.55
      1.868     20.541       0.55
      1.868      25.29        0.7
      1.868      30.91        0.6
      1.868      36.01       0.51
      1.868      41.12      0.452
      1.868      45.89      0.328
      1.868      51.15      0.401
      1.868      56.65      0.159         9.
      1.868      61.37      0.248
      1.868      66.48      0.229
      1.883       5.28       2.35                 4.004
      1.883      10.02       2.55
      1.883      15.59       4.64
      1.883     20.176       2.76
      1.883       25.6       2.09
      1.883      29.86       0.74
      1.883      35.12        0.6
      1.883      40.18       1.06
      1.883      45.45       0.71
      1.883      51.08      0.439
      1.883     55.985      0.515
      1.883      60.22      0.214
      1.883      66.34      0.306
      1.932       5.42       3.04                 5.842
      1.932      10.69       3.33
      1.932      15.61       4.12
      1.932      20.89        3.4
      1.932      25.81       3.04
      1.932      30.74       2.51
      1.932      36.04       1.83
      1.932        41.       0.89
      1.932      46.47        0.6
      1.932      51.38       0.84
      1.932      56.64       1.04
      1.932      61.23       0.73
      1.932      66.88      0.471
      1.951       5.02       21.8                53.529
      1.951       10.6       46.5
      1.951      15.15        60.
      1.951      20.24        52.
      1.951      25.17        29.
      1.951      30.45       13.1
      1.951      35.19       12.8
      1.951      40.44       12.6
      1.951      45.72        9.3
      1.951      50.64         8.
      1.951      55.37        6.4
      1.951      60.98        5.1
      1.951      65.72       3.79
      1.995       4.91       2.01                 6.784
      1.995       9.82        4.1
      1.995     14.915       4.73
      1.995     20.016       4.27
      1.995      25.27       2.67
      1.995     30.342       1.88
      1.995      35.61       1.57
      1.995      40.53        1.3
      1.995      45.61       0.72
      1.995      51.23       0.76
      1.995      55.96       0.64
      1.995      60.86       0.53
      1.995      65.95      0.345
      2.035       4.59       3.69                11.959
      2.035        9.8       3.58
      2.035      15.04       4.11
      2.035      20.07       4.15
      2.035       25.1        5.6
      2.035      30.15        5.7
      2.035     35.191        5.1
      2.035      40.24       3.98
      2.035      45.65       2.64
      2.035      50.52       1.98
      2.035      55.57       1.77
      2.035      61.15       1.64
      2.035       66.2       1.59
      2.068                                       1.773
      2.075       4.92        4.5                14.317
      2.075        10.       4.55
      2.075      15.25       3.91
      2.075      20.18       4.64
      2.075      25.08        5.5
      2.075      30.17        6.5
      2.075     35.261        6.6
      2.075       40.7       5.04
      2.075      45.79       3.01
      2.075     50.701       2.11
      2.075       55.6       2.13
      2.075      60.71       2.54
      2.075      65.76       2.27
       2.09       4.75        7.3                21.363
       2.09       9.98        8.7
       2.09      15.01       11.1
       2.09      20.04       11.6
       2.09      25.45        9.8
       2.09      30.32         8.
       2.09      35.18         7.
       2.09      40.23        5.3
       2.09      45.64       4.45
       2.09      50.86       3.93
       2.09      56.08       3.19
       2.09      60.78       2.38
       2.09      66.01       1.64
      2.104      5.261         8.                27.215
      2.104     10.183        10.
      2.104      15.26        14.
      2.104      20.35       18.9
      2.104      25.09       14.9
      2.104      30.18       12.3
      2.104     35.441        8.5
      2.104     40.531        7.3
      2.104     45.611        7.1
      2.104      51.05        5.4
      2.104      55.79       4.61
      2.104      60.87       3.09
      2.104      65.96       3.25
      2.111      5.281       12.1                20.498
      2.111      10.31       17.9
      2.111      15.34       28.8
      2.111      20.39       18.3
      2.111      25.63       10.2
      2.111      30.34       4.07
      2.111      35.55         6.
      2.111      40.95        6.4
      2.111      46.01       3.55
      2.111     50.875        3.3
      2.111      56.11       1.69
      2.111      61.51       2.03
      2.111      66.03       1.13
      2.128       5.08       3.69                13.807
      2.128      10.01       2.97
      2.128      15.44       3.19
      2.128     20.018       3.29
      2.128      24.91       4.72
      2.128        30.        5.7
      2.128      35.09        6.4
      2.128     40.701       4.96
      2.128     45.612       2.65
      2.128      50.53       1.41
      2.128      56.14       1.79
      2.128      61.03       2.09
      2.128     65.965       1.75
      2.148       5.49       2.96                  9.34
      2.148      10.16       4.33
      2.148      15.74       4.51
      2.148      20.79       4.15
      2.148      25.83       4.51
      2.148      30.69       3.97
      2.148      35.93       2.72
      2.148      40.97       2.29
      2.148      46.02       1.94
      2.148      51.07        1.7
      2.148     56.114        1.5
      2.148      61.34       1.07
      2.148      66.38       0.87
      2.159       5.09        9.7                37.886
      2.159       9.65       11.5
      2.159     15.266       11.2
      2.159     20.191       14.3
      2.159      25.61       15.6
      2.159     30.344       19.2
      2.159     35.442       18.7
      2.159     40.702       14.3
      2.159     45.613        8.3
      2.159      50.88        5.9
      2.159     55.793       4.85
      2.159      60.88        6.5
      2.159      65.77        5.8
      2.165       5.46        9.9                  8.55
      2.165      10.33        6.4
      2.165      15.56       5.05
      2.165      21.14       3.26
      2.165      26.01       4.21
      2.165      31.23       3.92
      2.165      36.11       2.05
      2.165      41.15       2.55
      2.165      46.21       1.34
      2.165      51.24       1.24
      2.165      56.82       2.14
      2.165      61.32       1.32
      2.165      66.93       0.75
      2.176      5.262       2.14                10.223
      2.176       9.83       5.04
      2.176      14.74         7.
      2.176      20.36        6.7
      2.176      25.28       4.46
      2.176      30.19       3.63
      2.176     35.443       3.21
      2.176     40.532       2.96
      2.176     45.614       1.97
      2.176      50.89       1.48
      2.176     55.965       1.26
      2.176     60.885       1.11
      2.176      65.78       0.91
      2.189        5.8        51.                25.107
      2.189      10.86       26.7
      2.189      15.93        9.3
      2.189      21.15        8.4
      2.189      26.02        9.2
      2.189      30.87        10.
      2.189       36.1        8.6
      2.189      40.96        6.8
      2.189      46.03       4.21
      2.189      51.25        3.2
      2.189      56.28       3.96
      2.189      61.33       3.27
      2.189      66.75       2.02
      2.209       5.47       2.55                 7.158
      2.209      10.32       3.17
      2.209      15.49       4.29
      2.209      20.15       4.51
      2.209      25.35       4.56
      2.209      30.38       3.05
      2.209      35.41       1.65
      2.209      40.61       1.67
      2.209      45.44       1.91
      2.209      50.82       1.57
      2.209     56.205       1.59
      2.209      60.72       0.86
      2.209      65.36       0.68
      2.233       4.94       36.8                 8.497
      2.233      10.15       17.8
      2.233      15.36       4.66
      2.233       20.2       3.25
      2.233      25.75       4.21
      2.233     30.425       3.06
      2.233     35.613       3.65
      2.233       40.1       2.76
      2.233      45.48       1.78
      2.233      50.68       1.01
      2.233      55.52       1.11
      2.233      60.89        1.5
      2.233      65.74       0.89
      2.239       4.76       2.45                  8.35
      2.239       9.96       1.62
      2.239      14.98       1.99
      2.239      20.34       2.67
      2.239      25.18        2.9
      2.239      30.01       3.57
      2.239     35.391       3.72
      2.239      40.41       3.42
      2.239      45.46       1.69
      2.239      50.65       1.21
      2.239      55.85       1.26
      2.239      60.69       1.07
      2.239      65.89       1.11
      2.266       4.89       10.3                30.651
      2.266      10.08       12.2
      2.266      15.28       13.4
      2.266       20.3       14.7
      2.266      25.13       13.6
      2.266      30.16       13.2
      2.266      35.17       12.3
      2.266      40.38        9.4
      2.266      45.58        7.7
      2.266      50.78        5.4
      2.266      55.97        5.3
      2.266      60.82       4.51
      2.266      66.19       4.03
      2.288        5.1       4.77                15.097
      2.288       9.93        6.1
      2.288      15.66        7.3
      2.288      20.68        6.7
      2.288      25.52        5.2
      2.288      30.73       4.21
      2.288      35.94       4.77
      2.288     40.943       4.58
      2.288      45.78       3.87
      2.288      50.99       2.88
      2.288      55.83       3.27
      2.288      60.84       2.34
      2.288      66.05       1.41
      2.302       5.34       2.34                12.181
      2.302      10.53       3.41
      2.302      15.18        5.9
      2.302      20.02        5.9
      2.302      25.04        5.9
      2.302      30.24       4.58
      2.302      35.81       3.56
      2.302      40.81       3.41
      2.302      45.83       3.01
      2.302      50.32       2.54
      2.302      56.05       2.06
      2.302      61.08       1.53
      2.302      65.92       1.35
      2.312       5.24        54.                35.455
      2.312      10.46       31.2
      2.312       15.5       17.9
      2.312      20.52       16.3
      2.312      25.54       14.9
      2.312      30.39       11.5
      2.312      35.77        8.5
      2.312     40.611        7.7
      2.312      45.47        5.9
      2.312      50.83       4.38
      2.312      56.04       3.66
      2.312      61.06       2.71
      2.312      66.27       1.92
      2.328       5.07       0.91                22.446
      2.328      10.44       1.69
      2.328     15.276       2.16
      2.328      20.47       1.69
      2.328      25.68       0.95
      2.328      31.06       0.63
      2.328     35.181       0.58
      2.328      40.92       0.54
      2.328      45.94      0.328
      2.328       50.6      0.315
      2.328     55.803       0.29
      2.328      61.01      0.246
      2.328      66.04      0.163
      2.362       5.99        5.6                 10.44
      2.362      11.01       4.58
      2.362      15.31       4.39
      2.362      20.87       4.77
      2.362      25.71       4.77
      2.362      31.08       4.97
      2.362      35.57       4.04
      2.362      40.78       2.45
      2.362      45.81       1.26
      2.362      51.18       1.49
      2.362      56.55       2.16
      2.362      61.57       1.69
      2.362      66.61       0.98
      2.377      5.511        8.2                17.407
      2.377     10.336       11.9
      2.377      15.71        14.
      2.377     20.375       12.4
      2.377      25.21        7.9
      2.377      30.95        5.2
      2.377      35.79       5.04
      2.377      40.99       3.78
      2.377     45.841       1.97
      2.377      51.02       2.73
      2.377      56.06       2.52
      2.377      61.43       2.14
      2.377       66.1       1.26
      2.396       5.48       21.8                40.081
      2.396      10.68       21.4
      2.396      15.88       18.6
      2.396      20.53       22.2
      2.396      25.73       22.7
      2.396      30.75       22.2
      2.396      36.31       17.2
      2.396      41.16       11.3
      2.396      46.19         9.
      2.396      51.03        7.5
      2.396      56.58        9.4
      2.396      61.24        7.9
      2.396      66.63        5.6
      2.407       5.25       10.7                16.873
      2.407      10.63        8.3
      2.407      16.01        7.1
      2.407      20.67        6.5
      2.407      25.86        6.5
      2.407      30.53        7.7
      2.407      35.73        7.7
      2.407       41.1       4.28
      2.407      46.13        2.5
      2.407      51.14       2.71
      2.407      56.34       2.83
      2.407      61.18       3.07
      2.407      66.56       1.72
      2.426       4.95       2.47                 5.434
      2.426       9.81       2.03
      2.426       15.2       1.89
      2.426      20.21       2.44
      2.426      24.88       2.18
      2.426      30.26       2.03
      2.426      35.49       1.54
      2.426     40.534       1.17
      2.426      45.37       1.28
      2.426      50.95       0.97
      2.426      55.81       0.77
      2.426      60.99       1.04
      2.426      65.93      0.376
      2.437       4.93        80.                 27.49
      2.437       9.99       40.8
      2.437      14.92        8.8
      2.437      20.49        7.5
      2.437      24.94       11.1
      2.437      30.48       12.6
      2.437      35.14       12.6
      2.437      40.52        9.5
      2.437      45.41        4.3
      2.437      50.62       3.65
      2.437      55.61        4.9
      2.437      60.27        4.8
      2.437      65.49       3.09
      2.452      5.255        5.2                 11.96
      2.452       9.92       4.73
      2.452      15.12        4.9
      2.452      20.16       4.64
      2.452      25.34        5.7
      2.452      30.54        5.9
      2.452     35.381         6.
      2.452      40.29       2.71
      2.452      45.51       2.18
      2.452      50.38       1.75
      2.452      56.09       2.43
      2.452      60.58       2.12
      2.452      65.65       1.44
      2.467       5.12       2.35                 5.696
      2.467      11.03       1.94
      2.467      14.96       1.87
      2.467      20.31       2.99
      2.467      25.14       2.78
      2.467     30.191       1.93
      2.467     35.573       1.46
      2.467      40.06       1.25
      2.467      45.59       1.56
      2.467      50.84       0.78
      2.467      56.01       0.97
      2.467      60.53       0.62
      2.467      66.08        0.6
      2.477      5.055        6.3                19.949
      2.477      10.06        7.7
      2.477      15.23       11.2
      2.477      20.42       13.7
      2.477      25.47       12.5
      2.477      30.33        8.4
      2.477     35.392        5.5
      2.477       40.8       4.06
      2.477       45.8         5.
      2.477     50.833       4.71
      2.477      55.89       3.33
      2.477      60.75       2.46
      2.477     65.991       1.67
      2.488       5.29        7.3                25.027
      2.488      10.26       11.8
      2.488      15.42       16.2
      2.488      20.26       14.6
      2.488      25.85        9.4
      2.488     30.541        6.6
      2.488      35.91        6.5
      2.488      40.57        5.8
      2.488       45.6        5.5
      2.488     50.781        5.4
      2.488      55.99       4.26
      2.488      60.85       3.25
      2.488      65.73       1.85
      2.502       4.68       102.                45.655
      2.502      10.13       48.7
      2.502      15.09        16.
      2.502      20.13       14.3
      2.502      25.15       14.5
      2.502     30.542        14.
      2.502     35.563       14.8
      2.502      40.27        9.8
      2.502      45.55        5.1
      2.502      51.13       3.87
      2.502      56.13       5.02
      2.502      60.97        5.7
      2.502      65.52       3.11
      2.523        5.6        6.9                20.543
      2.523      10.93       10.3
      2.523      15.94       11.1
      2.523      20.58       11.9
      2.523      25.43       10.4
      2.523      30.82        8.7
      2.523      36.02        7.7
      2.523      41.24        5.7
      2.523      45.74       4.18
      2.523      50.43       2.96
      2.523      55.78       3.77
      2.523      61.17       2.92
      2.523      66.06       1.48
      2.545       5.21       14.5                17.073
      2.545      10.11        8.7
      2.545      15.03       5.03
      2.545     20.391        5.6
      2.545      25.41        6.3
      2.545      30.27        5.5
      2.545      35.65        6.5
      2.545     40.671        6.7
      2.545      45.73       4.75
      2.545      50.77       4.32
      2.545        56.       3.48
      2.545      61.04       2.92
      2.545      66.12       1.83
      2.565       5.06       14.3                38.678
      2.565      10.77       14.6
      2.565      15.78       14.9
      2.565       20.6       17.2
      2.565      25.76       20.8
      2.565     30.795       19.5
      2.565      35.84       13.8
      2.565      40.71        8.6
      2.565      45.93         6.
      2.565      50.93         7.
      2.565       56.3        6.8
      2.565     60.981        5.4
      2.565      66.21       3.39
       2.58      5.341        5.5                17.648
       2.58      10.35        7.7
       2.58      15.38        6.8
       2.58      20.76        7.7
       2.58      25.77        8.7
       2.58      30.64        7.1
       2.58      35.71       5.06
       2.58     40.781       2.83
       2.58      45.62       3.07
       2.58     51.035        2.4
       2.58      55.91       1.72
       2.58      61.11       1.72
       2.58     65.975       1.65
      2.599       5.17       1.91                 6.767
      2.599      10.66       3.51
      2.599      15.82         5.
      2.599       20.5       4.15
      2.599      25.53       2.91
      2.599      30.55       2.85
      2.599      36.32       1.84
      2.599      41.33       1.73
      2.599     45.844       1.16
      2.599      51.04       1.14
      2.599      55.86       1.12
      2.599      61.05       1.19
      2.599      66.33      0.464
      2.607       5.23       13.5                46.629
      2.607      10.07       13.1
      2.607      14.73       14.4
      2.607      20.14       14.6
      2.607      24.97       16.7
      2.607      30.35       19.2
      2.607     35.182        25.
      2.607      40.77       17.3
      2.607     45.651        9.2
      2.607     50.713        5.9
      2.607       56.1        6.5
      2.607      60.94        7.1
      2.607      65.98        6.6
      2.625       5.01       3.56                13.434
      2.625      10.57        3.6
      2.625      14.86       4.29
      2.625      20.59        5.1
      2.625      25.42       4.96
      2.625      30.07        6.2
      2.625     35.281       4.66
      2.625      40.51       3.38
      2.625     45.721       2.67
      2.625      50.56       2.48
      2.625       55.4       2.04
      2.625      60.59       2.24
      2.625      65.64       1.56
      2.636       4.82       25.1                65.191
      2.636       9.68       21.6
      2.636       14.9        18.
      2.636      19.92       22.6
      2.636      25.11       33.6
      2.636      30.67       35.8
      2.636      35.35       32.2
      2.636     40.771       17.7
      2.636     45.652       10.1
      2.636      50.69        9.9
      2.636      55.87       14.1
      2.636      61.09       12.2
      2.636      66.15        6.7
      2.651       4.78        9.3                19.969
      2.651       9.79       13.2
      2.651      14.97        16.
      2.651     20.535       13.8
      2.651      25.39         9.
      2.651     30.261        5.6
      2.651      35.27        5.7
      2.651       40.3       4.52
      2.651      45.52       3.18
      2.651     50.721       2.76
      2.651      55.75       2.49
      2.651      60.77       2.43
      2.651      65.79       2.39
ENDDATA            835
ENDSUBENT          855
ENDENTRY             2
