ENTRY            O1082   20040520
SUBENT        O1082001   20040520
BIB                 15         29
TITLE      Properties of Ne-22(A,N)Mg-25 resonances.
AUTHOR     (V.Harms, K.L.Kratz,M.Wiescher)
INSTITUTE  (2GERMNZ)
           (1USANOT)
REFERENCE  (J,PR/C,43,2849,1991)
HISTORY    (20040128C)
           (20040520U) Last checking has been done.
REL-REF    (N,O1122001,K.WOLKE+,J,ZP/A,334,491,1989)
           (N,,D.ASHERY,J,NP/A,136,481,1969)
           (N,C0515001,F.X.HAAS+,J,PR/C,7,2432,1973)
           (N,,H.B.MAK+,J,NP/A,226,493,1974)
           Previous investigations of the reaction.
SAMPLE     Neon gas enriched to 99% in Ne-22 was recirculated in
           a differentially pumped gas target system of the
           extended type.
ADD-RES    (RRATE)
           (STRUC) Partial widths for the observed levels.
COMMENT    -By compiler. Data-heading in the data-section EN is
           the effective beam energy at the center of the target
           chamber.
FACILITY   (DYNAM,2GERIFS) The 4-MV dynamitron accelerator.
METHOD     (SITA)
           (BCINT)
           (EXTB) He+ beam currents up to 250 microampere.
PART-DET   (N)
DETECTOR   (HE3SP) Gridded He-3 ionization chamber of cylindrical
           shape.
ERR-ANALYS (EN-ERR-DIG). Digitizing errors.
STATUS     (CURVE).By CAJAD.
ENDBIB              29
NOCOMMON
ENDSUBENT           32
SUBENT        O1082002   20040520
BIB                  5         10
REACTION   (10-NE-22(A,N)12-MG-25,PAR,SIG,,REL) Fig 4, 5, 6.
EN-SEC     (E-LVL,12-MG-25)
LEVEL-PROP (12-MG-25,E-LVL=0.000,SPIN=2.5,PARITY=+1.)
           (12-MG-25,E-LVL=0.590,SPIN=0.5,PARITY=+1.)
           (12-MG-25,E-LVL=0.980,SPIN=1.5,PARITY=+1.)
COMMENT    -By authors.  For effective beam energy less 1.1-MeV
           pressure in target chamber is 2 torr, at E(eff) more
           than 1.1-MeV pressure in target chamber is 1 torr.
ERR-ANALYS (DATA-ERR).The error is shown by authors on figures.
           (ERR-DIG).Data-point reader uncertainty.
ENDBIB              10
COMMON               2          3
ERR-DIG    EN-ERR-DIG
PER-CENT   MEV
         5.    2.2E-03
ENDCOMMON            3
DATA                 4        225
EN         E-LVL      DATA       DATA-ERR
MEV        MEV        ARB-UNITS  PER-CENT
     0.7923         0.        2.2        40.
     0.8185         0.        2.2        30.
      0.831         0.        4.2        30.
     0.8427         0.        2.2        40.
     0.8774         0.        4.3        50.
     0.8975         0.        3.2        50.
     0.9174         0.        2.1        40.
      0.934         0.        4.2        50.
     0.9402         0.         6.        70.
     0.9524         0.        6.4        30.
     0.9728         0.         9.        30.
     0.9892         0.        15.        70.
      1.001         0.         9.        80.
      1.011         0.         5.        80.
      1.034         0.        23.        17.
      1.054         0.        37.        24.
      1.064         0.        28.        50.
       1.08         0.        29.        60.
       1.13         0.        11.        70.
      1.141         0.        14.        60.
      1.155         0.        18.        80.
      1.157         0.        40.        40.
      1.171         0.        39.        30.
      1.178         0.        36.        50.
      1.184         0.        65.        30.
      1.188         0.        95.        19.
      1.198         0.        85.        14.
      1.202         0.        63.        30.
      1.214         0.        52.        40.
      1.216         0.        63.        21.
      1.228         0.        65.        22.
      1.244         0.        40.        40.
      1.254         0.        30.        60.
      1.274         0.        37.        70.
       1.28         0.        30.        30.
      1.297         0.        57.        26.
      1.315         0.        97.        21.
      1.327         0.       100.        20.
       1.34         0.       140.        16.
      1.346         0.       163.         9.
      1.358         0.       219.        11.
      1.377         0.       340.         9.
      1.389         0.       342.         8.
      1.401         0.       400.        40.
      1.404         0.       420.        26.
      1.417         0.      1900.        30.
      1.422         0.      2800.        29.
      1.424       0.59       200.        60.
      1.428         0.      3700.        11.
      1.431         0.      5200.        19.
      1.436         0.      7100.         7.
       1.44       0.59       380.        50.
      1.444         0.      5800.
      1.446         0.      5400.         9.
       1.45         0.      1390.        20.
      1.464         0.       600.        15.
      1.473         0.      1330.        14.
      1.474       0.59       210.        50.
      1.483         0.      1550.
      1.487       0.59       400.        50.
       1.49         0.      3410.
      1.493         0.      4120.        10.
      1.494         0.      5600.
      1.501       0.59       570.        30.
      1.502         0.      6200.
      1.506         0.      5800.
      1.507       0.59      1180.        17.
      1.517       0.59      3050.
      1.518         0.      4420.
      1.529         0.      2600.
       1.53       0.59      7600.
      1.534         0.      2600.         8.
      1.535       0.59      6300.
       1.54         0.      1990.         6.
      1.541       0.59      3930.
      1.549         0.      1530.         8.
      1.555       0.59      1890.         9.
      1.562         0.      7200.
      1.567       0.59      1820.         8.
      1.568         0.     10800.
      1.569         0.     18400.
       1.57       0.59      2530.
      1.574       0.59      3040.
      1.575       0.59      3520.
      1.577         0.     20500.
      1.581         0.     16400.
      1.582       0.59      4200.        12.
      1.585       0.59      3640.
      1.586       0.59      1820.        15.
      1.587         0.      9300.
      1.597         0.      4350.
        1.6         0.      3600.
      1.601       0.59      1130.        22.
       1.61         0.      1690.         7.
      1.612       0.59       450.        60.
      1.615         0.      1030.        17.
      1.624         0.       850.        20.
      1.629       0.59      1000.        40.
      1.632         0.       700.        60.
      1.642       0.59       800.        40.
      1.643         0.       420.        70.
      1.659       0.59      1500.        50.
      1.662         0.       600.        70.
       1.67         0.      1550.        12.
      1.677       0.59      5600.
      1.679         0.      7000.         6.
      1.684         0.     14900.         5.
       1.69       0.59     12900.
      1.695         0.     27200.
      1.696         0.     18600.
      1.699       0.59     20800.
      1.705         0.     14800.
      1.706       0.59     12900.
       1.71         0.      7800.
      1.711       0.59      7200.
      1.719         0.      4410.
      1.723         0.      2320.         8.
      1.724       0.59      3340.
      1.733         0.      2690.
      1.738         0.      2150.        13.
      1.739       0.59      1860.
      1.749         0.      2220.         9.
      1.752       0.59      2680.
      1.753       0.59      3860.
      1.757         0.      2249.
      1.764         0.      2890.
      1.765       0.59      5160.
      1.768         0.      3900.
      1.771       0.59      4140.
      1.777       0.59      3850.
       1.78         0.      8000.
      1.781         0.      8900.
      1.783       0.59      3710.
      1.786       0.59      3100.        13.
      1.788         0.     11200.
      1.792       0.98       400.        50.
      1.794         0.     11600.
      1.795       0.98       900.        40.
      1.797       0.59      3090.
      1.803       0.98      1340.        13.
      1.805         0.     11100.
      1.806       0.59      2600.        19.
      1.811       0.98       800.        50.
      1.813         0.      8900.
      1.814       0.59      2400.        21.
      1.817         0.      6600.
      1.818       0.59      2200.        23.
      1.819       0.98       510.        60.
      1.826         0.      4160.         7.
      1.834       0.98       410.        60.
      1.838         0.      5600.
      1.839       0.59      1700.        24.
      1.844       0.98       310.        50.
      1.849         0.      8500.
      1.851       0.59      5300.         8.
      1.857         0.      7600.
      1.858       0.98       380.        70.
      1.862       0.59      7100.
      1.865       0.98       700.        60.
      1.869         0.      9500.
       1.87       0.59      7400.
      1.876       0.98       510.        60.
      1.882         0.     11400.
      1.885       0.59     12300.
      1.888         0.     16600.
      1.891       0.98       600.        70.
      1.892       0.59     11000.
        1.9       0.59     12700.
      1.901         0.     21600.
      1.907       0.98       410.        60.
      1.911         0.     25100.
      1.914       0.59     16400.
      1.918         0.     28000.
      1.919       0.98      1100.        50.
      1.922       0.59     20400.
      1.924       0.98      2800.        25.
      1.928         0.     30200.
      1.929       0.59     19600.
      1.941         0.     36300.
      1.942       0.59     27200.
      1.945       0.98      3700.        24.
       1.95         0.     39100.
      1.951       0.59     25300.
      1.956       0.98      4700.        19.
      1.962       0.59     29200.
      1.963         0.     34800.
      1.967       0.98      6300.        16.
      1.973         0.     19700.
      1.976       0.59     23400.
      1.977       0.98      7000.        13.
      1.983         0.     13000.
      1.984       0.59     29100.
      1.987       0.98      8100.         7.
      1.995         0.      7100.         7.
      1.997       0.59     52200.
         2.       0.98     13100.         8.
      2.007         0.      6300.        19.
      2.008       0.59     78000.
      2.013       0.98     17000.
      2.018       0.59    121000.
      2.019         0.      9900.         7.
      2.021         0.     18100.         7.
      2.022       0.98     24300.
      2.023       0.59    259000.
      2.026       0.98     40400.
      2.035         0.     50100.
      2.037       0.59    500000.
      2.039       0.98     54000.         6.
      2.045         0.     73000.
      2.047       0.59    537000.
      2.048       0.98     45000.        13.
      2.053         0.     60000.
      2.056       0.59    372000.
      2.057       0.98     36000.        17.
      2.063         0.     58000.
      2.066       0.59    249000.
      2.067       0.98     25000.        16.
      2.076         0.     36700.
      2.077       0.59    179000.
       2.08       0.98     18600.        16.
      2.087       0.59    124000.
      2.088         0.     26100.
       2.09       0.98     13800.        14.
      2.093         0.     24200.         6.
      2.094       0.59     96000.
ENDDATA            227
ENDSUBENT          246
SUBENT        O1082003   20040520
BIB                  4          8
REACTION   (10-NE-22(A,N)12-MG-25,,SIG,,REL) Fig 7
FLAG       (1.) Detector: He-3 spectrometer. See O1082002.
           Gas pressure in the target chamber was 2 torr.
           (2.).He-3 proportional counters, gas pressure is 0.75
                torr.
DETECTOR   (PROPC) A higher-efficiency He-3 proportional counter
           setup as detector for thermalized neutrons.
ERR-ANALYS (DATA-ERR).The error is shown by authors on figure.
ENDBIB               8
COMMON               1          3
EN-ERR-DIG
KEV
         1.
ENDCOMMON            3
DATA                 4         26
EN         DATA       DATA-ERR   FLAG
KEV        ARB-UNITS  PER-CENT   NO-DIM
      618.7        1.2       550.         2.
      623.7         9.        80.         2.
      790.7        24.        50.         1.
      801.5        13.        70.         2.
       813.        25.        40.         1.
      821.7        31.        50.         2.
      825.5        49.        40.         1.
      831.3        57.        25.         2.
      841.1        29.        60.         2.
      842.1        25.        60.         1.
      871.1        40.        60.         2.
      871.2        50.        50.         1.
      890.6        37.        60.         1.
      900.4        20.       100.         2.
       911.        24.        50.         1.
      930.4        20.       150.         2.
      932.2        49.        50.         1.
      935.1        60.        80.         1.
      948.7        75.        30.         1.
      959.4        60.        70.         2.
      970.9       120.        25.         1.
      983.4       180.        50.         1.
      988.4        76.        40.         2.
      996.2       100.        80.         1.
      1007.       110.        50.         2.
      1010.        60.        80.         1.
ENDDATA             28
ENDSUBENT           45
ENDENTRY             3
