ENTRY            O1091   20040422
SUBENT        O1091001   20040422
BIB                 12         34
TITLE      A study of the reaction O-16(He3,P)F-18.
AUTHOR     (H.M.Sen Gupta, M.J.Hurst, F.Watt)
INSTITUTE  (2UK OXF)
REFERENCE  (J,JP/G,2,935,1976)
HISTORY    (20031124C)
           (20040422U) Last checking has been done.
SAMPLE     The targets were prepared by the evaporation of
           tungsten oxide, enriched in O-16, on to thin carbon
           foils, 8 mug/cm**2 thickness.
ADD-RES    (COMP) DWBA Theory.
           (POT) Optical model parameters.
           (P-SPC)
           (STRUC) Dominant configuration, spin-parity, isobaric
           spin.
DETECTOR   (MAGSP) A beam of 18-MeV He3-ions from the tandem
           generator was used in conjuction with the Oxford
           multiple-angle magnetic spectrigraph.
FACILITY   (VDGT,2UK OXF) 6-MV HE3-ions .
METHOD     (SITA)
ERR-ANALYS (ERR-T).The uncertainty is shown by authors on figures.
           The errors in the absolute cross sections associated
           with the automatic scanning process were small compared
           with the error introduced by the uncertainty in target
           thickness. The relative errors in the angular
           distribution of specific groups introduced by the
           automatic scanning process were thought to be
           negligible.
           The errors in angular distribution results are larger
           than the statistical errors, are due to the effects of
           close or overlapping groups or a poor associated track
           length spectrum.
           (ANG-ERR-D).Data-point reader uncertainty.
           (ERR-DIG).Data-point reader uncertainty.
STATUS     (CURVE).By CAJAD.
ENDBIB              34
COMMON               1          3
EN
MEV
        18.
ENDCOMMON            3
ENDSUBENT           41
SUBENT        O1091002   20040422
BIB                  5         47
REACTION   (8-O-16(HE3,P)9-F-18,PAR,DA)
PART-DET   (P)
FLAG       (1.) The state was used as calibration point for level
           energies.
EN-SEC     (E-LVL,9-F-18)
LEVEL-PROP (9-F-18,E-LVL=0.000,SPIN=1.,PARITY=+1.)
           (9-F-18,E-LVL=0.937,SPIN=3.,PARITY=+1.)
           (9-F-18,E-LVL=1.039,SPIN=0.,PARITY=+1.)
           (9-F-18,E-LVL=1.120,SPIN=5.,PARITY=+1.)
           (9-F-18,E-LVL=3.060,SPIN=2.,PARITY=+1.)
           (9-F-18,E-LVL=3.837,SPIN=2.,PARITY=+1.)
           (9-F-18,E-LVL=4.118,SPIN=3.,PARITY=+1.)
           (9-F-18,E-LVL=4.357,SPIN=1.,PARITY=+1.)
           (9-F-18,E-LVL=4.651,SPIN=4.,PARITY=+1.)
           (9-F-18,E-LVL=4.964,SPIN=2.,PARITY=+1.)
           (9-F-18,E-LVL=6.383,SPIN=2.,PARITY=+1.)
           (9-F-18,E-LVL=6.781,SPIN=4.,PARITY=+1.)
           (9-F-18,E-LVL=1.698,SPIN=1.,PARITY=+1.)
           (9-F-18,E-LVL=2.524,SPIN=2.,PARITY=+1.)
           (9-F-18,E-LVL=3.355,SPIN=3.,PARITY=+1.)
           (9-F-18,E-LVL=3.722,SPIN=1.,PARITY=+1.)
           (9-F-18,E-LVL=5.299,SPIN=4.,PARITY=+1.)
           (9-F-18,E-LVL=6.481,SPIN=3.,PARITY=+1.)
           (9-F-18,E-LVL=6.557,SPIN=5.,PARITY=+1.)
           (9-F-18,E-LVL=1.078,SPIN=0.,PARITY=-1.)
           (9-F-18,E-LVL=2.096,SPIN=2.,PARITY=-1.)
           (9-F-18,E-LVL=3.126,SPIN=1.,PARITY=-1.)
           (9-F-18,E-LVL=3.787,SPIN=3.,PARITY=-1.)
           (9-F-18,E-LVL=4.224,SPIN=2.,PARITY=-1.)
           (9-F-18,E-LVL=4.399,SPIN=4.,PARITY=-1.)
           (9-F-18,E-LVL=4.853,SPIN=1.,PARITY=-1.)
           (9-F-18,E-LVL=5.507,SPIN=3.,PARITY=-1.)
           (9-F-18,E-LVL=5.672,SPIN=1.,PARITY=-1.)
           (9-F-18,E-LVL=5.789,SPIN=2.,PARITY=-1.)
           (9-F-18,E-LVL=6.095,SPIN=4.,PARITY=-1.)
           (9-F-18,E-LVL=6.241,SPIN=3.,PARITY=-1.)
           (9-F-18,E-LVL=6.857,SPIN=4.,PARITY=-1.)
           (9-F-18,E-LVL=7.877,SPIN=2.,PARITY=-1.)
           (9-F-18,E-LVL=5.599) Plus 5.606-KeV
           (9-F-18,E-LVL=7.190)
           (9-F-18,E-LVL=7.398)
           (9-F-18,E-LVL=7.422)
           (9-F-18,E-LVL=7.503)
           (9-F-18,E-LVL=7.578)
           (9-F-18,E-LVL=7.696)
           (9-F-18,E-LVL=8.239)
           (9-F-18,E-LVL=9.207)
ENDBIB              47
COMMON               2          3
ANG-ERR-D  ERR-DIG
ADEG       PER-CENT
        0.7         2.
ENDCOMMON            3
DATA                 5        516
E-LVL      ANG-CM     DATA-CM    ERR-T      FLAG
MEV        ADEG       MB/SR      PER-CENT   NO-DIM
         0.        8.3       3.52                    1.
         0.       16.6      0.715
         0.       24.6      1.206
         0.        33.      1.373
         0.       40.6      0.999
         0.       48.9       0.49
         0.       57.2      0.237        10.
         0.       63.7      0.345         3.
         0.       71.4      0.312         3.
         0.       79.5      0.278
         0.       88.2      0.203         3.
         0.       94.6      0.234
         0.      102.4      0.239
         0.      110.1      0.234
         0.      117.2      0.157         4.
         0.      123.8      0.128         9.
      0.937       10.9       5.11                    1.
      0.937       18.6       4.77
      0.937       27.6       3.29
      0.937       32.5      1.597
      0.937       44.5      1.087
      0.937       52.8      1.235
      0.937        60.      1.109
      0.937       67.5      0.708
      0.937       75.5      0.508
      0.937       83.4      0.563
      0.937       92.1      0.526
      0.937        99.      0.622
      0.937      105.6      0.496        2.6
      0.937      112.6      0.635
      0.937      120.4      0.722
      0.937      127.3      0.878
      1.039        9.6      0.953
      1.039       17.3      0.828
      1.039       27.4       0.59
      1.039       34.6      0.652
      1.039       42.3      0.329         3.
      1.039       51.9      0.009        40.
      1.039       59.8      0.062        10.
      1.039       67.6       0.18         3.
      1.039       73.3      0.265
      1.039       81.8      0.198
      1.039       90.9      0.068        10.
      1.039       97.9      0.025        24.
      1.039      104.5      0.012        50.
      1.039      112.5       0.05        20.
      1.039      120.8       0.12         7.
      1.039      126.4      0.072        14.
      1.078       13.1      0.082        15.
      1.078       21.3      0.081        30.
      1.078       30.1      0.075        11.
      1.078       37.3      0.072        11.
      1.078       46.5      0.061        15.
      1.078       54.6      0.045        29.
      1.078        62.      0.068        10.
      1.078       69.2      0.069        14.
      1.078        78.      0.067        21.
      1.078      85.35      0.099        11.
      1.078       92.8      0.048        17.
      1.078      101.5      0.049        16.
      1.078      107.2      0.016        40.
      1.078      115.3      0.012        50.
      1.078      123.4      0.032        22.
      1.078      129.8      0.013        50.
       1.12       11.2      0.423         5.
       1.12       20.8      0.801
       1.12       28.2      1.249
       1.12       37.1       1.63
       1.12       44.3       1.67
       1.12       52.2      1.181
       1.12       60.2      0.847
       1.12       69.7      0.589
       1.12       75.8      0.642
       1.12       82.4       0.66
       1.12       91.6        0.6
       1.12       99.6      0.572
       1.12      106.5      0.853
       1.12      113.2      1.002
       1.12      120.5      1.307
       1.12      130.4       1.56
      1.698      10.95      0.544
      1.698       18.7      0.153        13.
      1.698       28.6      0.172        12.
      1.698       36.3      0.159         9.
      1.698       43.1      0.139         9.
      1.698        59.      0.069        12.
      1.698       66.7      0.065        11.
      1.698       74.8      0.068        12.
      1.698      82.85      0.091        12.
      1.698       89.7      0.071        11.
      1.698       98.4      0.045        11.
      1.698      105.8      0.009        40.
      1.698      113.5      0.011        50.
      1.698      119.2      0.025        40.
      1.698      125.9       0.07        14.
      2.096       13.4      0.056        30.
      2.096       20.6      0.053        19.
      2.096       29.7      0.117        11.
      2.096       39.3      0.215
      2.096       45.8      0.411
      2.096       54.5      0.435
      2.096       61.2      0.435
      2.096        69.      0.422
      2.096       77.7      0.382
      2.096       94.4      0.214
      2.096      100.6        0.2
      2.096      106.6     0.1422
      2.096      114.7     0.1118
      2.096      123.5     0.1268
      2.096      130.1     0.1026
      2.524       18.8      0.204
      2.524       28.3      0.174
      2.524       43.7      0.205         9.
      2.524       52.4      0.094        10.
      2.524       60.1      0.081        11.
      2.524       67.8      0.058        14.
      2.524       76.3      0.085        14.
      2.524       83.5      0.105        10.
      2.524       91.2      0.066        11.
      2.524       98.5      0.083        20.
      2.524      106.1      0.097        10.
      2.524      120.7      0.062        16.
      2.524      128.3        0.1        15.
       3.06       11.7       3.65                    1.
       3.06       21.4       2.87
       3.06      29.75       1.59
       3.06      30.01     0.1219
       3.06      37.35      0.638
       3.06        44.      0.391
       3.06       53.5       0.57
       3.06      60.05      0.527
       3.06        76.      0.282
       3.06       84.7       0.29        17.
       3.06       91.9      0.323
       3.06      100.2      0.373
       3.06       106.      0.277
       3.06      115.1      0.215
       3.06      122.5      0.167
      3.126       22.4      0.113        12.
      3.126       29.6      0.109        10.
      3.126      30.02      0.029        30.
      3.126       38.3      0.027        30.
      3.126       45.9      0.022        30.
      3.126       53.6      0.019        30.
      3.126       61.5       0.03        30.
      3.126       70.1      0.059        19.
      3.126       85.2      0.084        18.
      3.126        93.      0.112        10.
      3.126      100.7      0.097        11.
      3.126      108.6      0.042        19.
      3.126      116.1       0.03        30.
      3.126      121.7      0.024        40.
      3.355       6.61      0.248
      3.355      11.75       0.44         9.
      3.355       20.2        0.6        30.
      3.355        38.      0.253         9.
      3.355       51.1      0.169
      3.355       60.6      0.188
      3.355       68.7      0.189
      3.355       76.1      0.165
      3.355        85.      0.149         6.
      3.355       99.5      0.149        17.
      3.355      113.4      0.251
      3.355      121.1       0.23
      3.355       127.      0.169
      3.722       10.1       0.59        15.
      3.722       19.3       0.81        21.
      3.722       28.9       0.82        21.
      3.722       34.4      0.461
      3.722      44.55       0.26
      3.722       51.8      0.164        11.
      3.722       61.9      0.136        13.
      3.722      69.71      0.052        17.
      3.722       77.1       0.12        25.
      3.722       84.4      0.183         6.
      3.722       91.3      0.151         4.
      3.722       99.1      0.123        14.
      3.722      107.3      0.052        15.
      3.722      115.2       0.03        50.
      3.787       11.6       0.15        20.
      3.787        20.      0.212        12.
      3.787      28.65      0.138        13.
      3.787       44.2      0.168         9.
      3.787      52.85      0.139        19.
      3.787        61.      0.117         9.
      3.787       77.2       0.14        20.
      3.787       84.8      0.164         8.
      3.787       93.7      0.178         8.
      3.787       99.9      0.183         9.
      3.787      107.1      0.208         9.
      3.787      114.8      0.185         9.
      3.787      126.2      0.216        12.
      3.837        13.       3.73
      3.837      15.31      0.423
      3.837       22.9       3.24
      3.837       31.1       2.04
      3.837       38.4       1.45        17.
      3.837       46.2      0.667
      3.837      52.86      0.853
      3.837       62.2      0.665
      3.837       70.2       0.55         9.
      3.837       77.4       0.41        10.
      3.837       95.1      0.715
      3.837      101.6      0.598
      3.837      108.3      0.555
      3.837      124.5      0.289         6.
      3.837      130.3      0.198        10.
      4.118       12.5      0.168        14.
      4.118       22.1      0.249         7.
      4.118       30.2      0.299         5.
      4.118       38.6       0.26        19.
      4.118       55.4      0.235         5.
      4.118       63.3      0.184         5.
      4.118       71.2      0.134        13.
      4.118       78.1      0.161         8.
      4.118       85.4      0.112         8.
      4.118      101.1      0.041        50.
      4.118      108.5      0.103        19.
      4.118      117.1      0.144        13.
      4.118      123.9      0.153        10.
      4.118      130.2      0.043        28.
      4.224       10.8       0.28        11.
      4.224       21.8      0.217         9.
      4.224       29.2      0.138         9.
      4.224       36.4      0.047        30.
      4.224       44.6      0.057        19.
      4.224       61.6      0.093        13.
      4.224       70.3      0.097        15.
      4.224      77.85      0.102        13.
      4.224       84.9      0.119        12.
      4.224       94.8      0.119        11.
      4.224      106.4      0.111        19.
      4.224      121.6      0.124        15.
      4.224      129.7      0.128        16.
      4.357       0.41      0.072        30.
      4.357       12.4      0.127        17.
      4.357        21.      0.052        25.
      4.357       29.5       0.07        19.
      4.357       37.4      0.117        13.
      4.357       44.9      0.099        16.
      4.357      54.65      0.071        21.
      4.357      61.61      0.086        30.
      4.357       74.5      0.072        22.
      4.357       93.9      0.035        40.
      4.399       0.42      0.269         8.
      4.399       11.3       0.81         7.
      4.399       20.1       0.88
      4.399      28.25      0.852
      4.399       36.9      0.785
      4.399       45.5      0.609
      4.399       55.3      0.502
      4.399       63.4      0.421         7.
      4.399       75.6      0.316         6.
      4.399      86.55       0.38        13.
      4.399      93.45       0.26        15.
      4.399      108.4      0.172        13.
      4.399       122.      0.272        10.
      4.651       11.8      14.51                    1.
      4.651       21.7      12.15
      4.651       28.5      12.73
      4.651      30.15       2.86         7.
      4.651       36.5         7.        19.
      4.651      45.55        6.4         8.
      4.651       53.4        4.9         8.
      4.651       60.7       2.13        13.
      4.651        71.       1.67        10.
      4.651        77.       1.94         9.
      4.651       85.1       1.81        10.
      4.651      94.41       1.94         7.
      4.651      100.4       2.41         9.
      4.651      115.6       3.01         8.
      4.651      123.3       2.77        10.
      4.853       8.35      0.197        12.
      4.853       12.1      0.545
      4.853      21.45      0.471
      4.853      28.31      0.441
      4.853      30.35       0.17        15.
      4.853       35.9       0.44
      4.853       44.1      0.381
      4.853       52.7      0.424
      4.853       60.8      0.323
      4.853       68.9      0.297
      4.853      77.05      0.261
      4.853       84.5      0.233         8.
      4.853      94.42      0.225        12.
      4.853      100.8      0.225        12.
      4.853      115.4        0.2        10.
      4.964       11.4       0.27        11.
      4.964       20.9      0.332         4.
      4.964      21.71      0.036        30.
      4.964       29.1       0.35         6.
      4.964       36.7      0.274         5.
      4.964       45.1      0.213        10.
      4.964       54.7      0.177         8.
      4.964       62.9      0.109        17.
      4.964       76.9      0.034        30.
      4.964      85.45      0.045        40.
      4.964       93.6      0.044        40.
      4.964       99.7      0.063        40.
      4.964      108.7      0.028        60.
      4.964      129.9      0.032        40.
      5.299        11.      0.433                    1.
      5.299      15.25      0.119        11.
      5.299       19.7      0.479
      5.299      21.65      0.137        11.
      5.299       27.1      0.461
      5.299       35.8      0.382
      5.299       43.6      0.305
      5.299       53.2      0.273
      5.299      61.54      0.218         7.
      5.299       69.3      0.218         6.
      5.299       76.6      0.207         7.
      5.299      85.25      0.185         8.
      5.299       99.2      0.132        13.
      5.299      107.8      0.128        13.
      5.299       128.      0.121        12.
      5.507       0.43      0.036        50.
      5.507       11.9       0.02        80.
      5.507      15.27      0.055        24.
      5.507      21.72       0.08        15.
      5.507       29.4      0.024        50.
      5.507      38.65      0.089         9.
      5.507       46.1      0.085        12.
      5.507        53.      0.072        14.
      5.507      60.65      0.086        12.
      5.507       69.9      0.068        12.
      5.507       79.1      0.055        13.
      5.507       85.5      0.059        12.
      5.507       92.9      0.036        25.
      5.507      129.2      0.073        15.
      5.599       14.8        1.7
      5.599       23.6       2.22
      5.599       40.3       1.99
      5.599       46.4      0.666
      5.599       56.3      0.492
      5.599       64.7      0.295
      5.599       71.6      0.192
      5.599       78.7     0.1531
      5.599       89.6      0.266
      5.599       95.4      0.284
      5.599      103.1       0.33
      5.599      108.8      0.244
      5.599      117.4      0.219
      5.599      131.3      0.197
      5.672       7.21      0.017        29.         1.
      5.672        7.6       0.36        11.
      5.672       18.2      0.134        16.
      5.672       25.8      0.113        19.
      5.672       52.1      0.098        13.
      5.672       59.2      0.079        13.
      5.672      67.85      0.056        14.
      5.672       75.9      0.045        16.
      5.672       82.9      0.038        16.
      5.672        91.      0.015        27.
      5.672      101.2      0.022        30.
      5.672      115.8      0.017        29.
      5.789      18.75      0.113        19.
      5.789       26.3      0.124        16.
      5.789       33.9      0.086        13.
      5.789       50.6       0.04        30.
      5.789       61.3      0.023        70.
      5.789       77.9      0.073        30.
      5.789       86.5      0.091        12.
      5.789       96.1      0.086        10.
      5.789      103.2      0.059        12.
      5.789      109.8      0.039        40.
      5.789      116.8      0.015        50.
      5.789      122.8      0.024        40.
      5.789      129.5      0.029        50.
      6.095       8.81      0.471
      6.095       18.3       2.74
      6.095       27.3       2.14
      6.095      30.03       0.38        11.
      6.095      44.15      0.714
      6.095       53.1      0.704
      6.095       61.4      0.597
      6.095       69.8      0.447
      6.095      78.85      0.534
      6.095      93.61      0.434
      6.095      101.7      0.434
      6.095      116.3      0.452
      6.095      122.9      0.451
      6.241      20.01       5.14                    1.
      6.241      28.32        2.1
      6.241       42.6       0.62        10.
      6.241       77.5       0.35        11.
      6.241       86.9      0.304        10.
      6.241      101.4      0.272         9.
      6.383       19.5       0.13        23.
      6.383       26.8       0.18        11.
      6.383       35.7      0.096        27.
      6.383      45.15      0.067        19.
      6.383      60.75      0.099        14.
      6.383      69.25      0.056        18.
      6.383      75.95       0.03        13.
      6.383      85.05      0.071        15.
      6.383       92.3      0.099        10.
      6.383      99.05      0.048        30.
      6.383      113.6      0.072        25.
      6.481      36.75      0.022        60.
      6.481       45.4      0.085        11.
      6.481      53.25      0.055        22.
      6.481      61.55      0.053        30.
      6.481      76.65      0.047        40.
      6.481       85.3      0.059        17.
      6.481       93.1      0.057        12.
      6.557       8.71      0.168        14.
      6.557       12.8       0.09        40.
      6.557        22.      0.061        50.
      6.557       38.5      0.022        80.
      6.557      45.45      0.072        30.
      6.557       53.7      0.205        11.
      6.557       62.4      0.198        11.
      6.557      70.21      0.236         7.
      6.557       78.9       0.17        24.
      6.557       85.8      0.101        10.
      6.557      93.62       0.12        30.
      6.557      100.5       0.17        18.
      6.557      115.7       0.28        11.
      6.781       10.5       3.88
      6.781       20.3       3.02
      6.781      28.33       2.38
      6.781      36.35       2.12
      6.781       45.3      1.277
      6.781       61.1       0.71        20.
      6.781      69.35       0.49         4.
      6.781       76.7       0.48         6.
      6.781       85.9       0.59         7.
      6.781       94.1       0.25        16.
      6.781      100.9        0.2        30.
      6.781      107.4      0.205        14.
      6.781      114.9       0.29        10.
      6.867       28.8       0.62        11.
      6.867       38.2      0.451         6.
      6.867       52.6       0.19        21.
      6.867       76.2      0.149        15.
      6.867       87.5      0.144        15.
      6.867       93.4      0.116        11.
      6.867      100.3       0.05        80.
      6.867      109.2      0.036        80.
      6.867      116.2       0.04        80.
       7.19       21.9       0.27         9.         1.
       7.19       31.8       0.41         7.
       7.19       39.8      0.316         6.
       7.19       47.7       0.43         9.
       7.19       64.6      0.217         9.
       7.19       81.5      0.243        12.
       7.19       88.8      0.267         8.
      7.398       14.5      0.663
      7.398        23.      0.578
      7.398       31.3      0.357
      7.398       39.4       0.14        21.
      7.398      52.25       0.09        19.
      7.398       64.2      0.087        15.
      7.398       71.7      0.068        25.
      7.398       87.6      0.067        25.
      7.422       12.6       0.13        40.
      7.422      22.95      0.089        30.
      7.422       30.4      0.067        40.
      7.422       38.7       0.09        30.
      7.422      55.35       0.06        70.
      7.422       62.7       0.09        30.
      7.422      70.22      0.112        18.
      7.422        87.      0.118        14.
      7.422       93.5       0.07        60.
      7.503         9.      0.364
      7.503       19.2      0.247
      7.503        29.     0.1659
      7.503        36.      0.101        11.
      7.503       45.7      0.055        27.
      7.503       62.3      0.035        70.
      7.503      69.72      0.068        26.
      7.503      76.95       0.06        27.
      7.578        9.7       0.35        14.
      7.578      21.46       0.27        15.
      7.578      28.55      0.198        11.
      7.578       38.1      0.195        11.
      7.578       46.9      0.166        15.
      7.578      52.75      0.118        14.
      7.578       69.1      0.061        30.
      7.578       80.4      0.057        30.
      7.578       90.6      0.014        40.
      7.696       10.2       3.48         3.
      7.696       20.4       2.89         9.
      7.696      28.95        2.3        13.
      7.696        37.       2.28         7.
      7.696      44.35       0.84        11.
      7.696       55.1       0.79        10.
      7.696       62.6        0.6        10.
      7.696      69.73        0.4        13.
      7.696       79.6       0.34        12.
      7.696       88.1      0.273         8.
      7.696        97.      0.213         8.
      7.877       10.6       0.86        13.
      7.877       20.7       1.25        11.
      7.877       36.1       0.71        10.
      7.877      44.95       0.31        16.
      7.877      54.55       0.38        21.
      7.877       62.8       0.17        18.
      7.877       70.4       0.24        13.
      7.877       77.8      0.192        16.
      7.877       86.6      0.061        50.
      7.877       96.2      0.051        60.
      8.239       11.5      1.252
      8.239      20.02      0.823
      8.239       29.3      0.748
      8.239       36.2      0.448
      8.239       45.2      0.254         9.
      8.239      61.62      0.232         8.
      8.239       71.1      0.286         8.
      8.239       77.3       0.43         7.
      9.207       10.7        0.9        11.
      9.207      21.47       0.66         8.
      9.207       28.4       0.24        13.
      9.207      44.25       0.01        40.
      9.207      55.45       0.01        50.
ENDDATA            518
ENDSUBENT          574
ENDENTRY             2
