ENTRY            14481   20171008   20180402   20180328       1438
SUBENT        14481001   20171008   20180402   20180328       1438
BIB                 12         56
TITLE      Radiative neutron capture cross section from 236U
AUTHOR     (B.Baramsai,M.Jandel,T.A.Bredeweg,E.M.Bond,A.R.Roman,
           G.Rusev,C.L.Walker,A.Couture,S.Mosby,J.M.O'Donnell,
           J.L.Ullmann,T.Kawano)
INSTITUTE  (1USALAS)
REFERENCE  (J,PR/C,96,024619,2017)
FACILITY   (LINAC,1USALAS) Experiment performed using neutron
           beam at LANSCE, Los Alamos National Laboratory,
           produced by spallation of 800 MeV protons
SAMPLE     (92-U-236,ENR=0.9999) Target-1
             Highly enriched 236U target with mass of 20.4 mg
             used for most of the beam time
           (92-U-234,ENR=0.000088) Target-2
           (92-U-235,ENR=0.00964)
           (92-U-236,ENR=0.8062)
           (92-U-238,ENR=0.1840) with mass 10 mg
            The purpose of using Target-2 was to validate the
            ratio method with the different reaction rates of
            N(236U(n,g))/N(238U(n,g)), N(236U(n,g))/N(235U(n,f))
           (92-U-234,ENR=0.001120) Target-3
           (92-U-235,ENR=0.0977)
           (92-U-236,ENR=0.8957)
           (92-U-238,ENR=0.00546) with mass 10 mg
            The purpose of using Target-3 was to measure the
            ratio of reaction rates N(236U(n,g))/N(235U(n,f))
           (92-U-234,ENR=0.001120) Target-4
           (92-U-235,ENR=0.0977)
           (92-U-236,ENR=0.8957)
           (92-U-238,ENR=0.00546) with mass 100 mu-g
            Thin electroplated target used to define the
ANALYSIS   Using Target-4 the 236U(n,g) cross section for the
           resonances at 5.45 and 43.91 eV was determined relative
           to the 235U(n,f) cross section at 8.76 and 35.18 eV
           The final result of the cross section was determined
           from the Target-1 and Target-3 data normalized to the
           absolute value of the cross section from the Target-4.
DETECTOR   (BAF2) Gamma rays were detected using DANCE array
           consists of 160 BaF2 scintillator crystals in a
           closed 4Pi geometry. The BaF2 crystal has fast (0.6 ns)
           and slow (600 ns) scintillation light output
           components. The fast timing of the scintillators
           leads to a precise determination of the neutron time
           of flight and a good identification of coincident
           gamma rays following neutron capture.
METHOD     (TOF) Incident neutron energy was determined by time
           of flight method.
MONITOR    (92-U-235(N,F),,SIG)
INC-SOURCE (SPALL) The neutron beam at LANSCE is produced by the
           spallation reaction of 800 MeV accelerated protons
           irradiating a tungsten target and is moderated in a
           water moderator. The neutron energy is calculated
           based on the flight time, a 20.28 m flight path
           length, and a 523 ns delay time after the T0 pulse,
           generated when the proton bunch hits the tungsten
           target.
HISTORY    (20171008C) Compiled by S.H.
ENDBIB              56
NOCOMMON             0          0
ENDSUBENT           59
SUBENT        14481002   20171008   20180402   20180328       1438
BIB                  3          4
REACTION   (92-U-236(N,G)92-U-237,,SIG)
STATUS     (TABLE) Data presented in figs.7,8 of the reference
                    sent by author (B.B.)
ERR-ANALYS (DATA-ERR) Total uncertainty
ENDBIB               4
NOCOMMON             0          0
DATA                 3       3049
EN         DATA       DATA-ERR
EV         B          B
    10.0077   0.225669   0.475046
    10.0231    0.45633   0.675522
    10.0385   0.891272   0.944072
    10.0539   0.161542   0.401923
    10.0693 0.00221678  0.0470827
    10.0848 0.00225267  0.0474623
    10.1003   0.281114   0.530202
    10.1158    1.29284    1.13703
    10.1313 0.00221794   0.047095
    10.1469 0.00223479  0.0472735
    10.1625 0.00224866  0.0474201
    10.1781 0.00230369  0.0479968
    10.1937   0.117052   0.342129
    10.2094   0.793543    0.89081
    10.2251   0.574272   0.757807
    10.2408 0.00213554  0.0462119
    10.2565  0.0141532   0.118967
    10.2723  0.0023435  0.0484098
    10.2881   0.685958   0.828226
    10.3039   0.454435   0.674118
    10.3197   0.654367    0.80893
    10.3355 0.00220594  0.0469675
    10.3514 0.00235845  0.0485638
    10.3673 0.00221124  0.0470238
    10.3833   0.733932   0.856698
    10.3992   0.344665   0.587082
    10.4152  0.0556603   0.235924
    10.4312 0.00240948  0.0490864
    10.4472   0.144817   0.380548
    10.4633 0.00218043  0.0466951
    10.4793  0.0671467   0.259127
    10.4954   0.118625   0.344419
    10.5115   0.510097   0.714211
    10.5277    0.69785   0.835374
    10.5439    1.30959    1.14437
    10.5601   0.229986   0.479569
    10.5763   0.515741   0.718151
    10.5925  0.0635355   0.252063
    10.6088   0.474839   0.689085
    10.6251   0.194191   0.440671
    10.6414 0.00219539  0.0468549
    10.6578   0.412506   0.642267
    10.6742   0.682763   0.826295
    10.6906   0.230446   0.480048
     10.707   0.660269   0.812569
    10.7234 0.00217388  0.0466249
    10.7399 0.00233425   0.048314
    10.7564  0.0785938   0.280346
    10.7729  0.0021607  0.0464833
    10.7895   0.503017   0.709237
     10.806 0.00215568  0.0464293
    10.8226 0.00214359   0.046299
    10.8393 0.00230709  0.0480322
    10.8559 0.00227736  0.0477217
    10.8726   0.454932   0.674486
    10.8893   0.262548   0.512394
     10.906   0.258003   0.507939
    10.9228   0.059199   0.243308
    10.9396 0.00220731   0.046982
    10.9564   0.586354   0.765737
    10.9732 0.00223141  0.0472378
    10.9901 0.00215209  0.0463906
    11.0069   0.296612   0.544621
    11.0239    0.82289   0.907133
    11.0408    0.31758   0.563542
    11.0578  0.0628204    0.25064
    11.0747  0.0641737   0.253325
    11.0918    0.26851    0.51818
    11.1088   0.725352   0.851676
    11.1259    0.22248   0.471678
    11.1429   0.226173   0.475576
    11.1601    1.13438    1.06507
    11.1772   0.283246   0.532208
    11.1944   0.490959   0.700685
    11.2116    1.00343    1.00171
    11.2288   0.155733    0.39463
    11.2461   0.466983   0.683362
    11.2633   0.481608    0.69398
    11.2806 0.00224719  0.0474046
     11.298 0.00231352  0.0480991
    11.3153 0.00228306  0.0477814
    11.3327   0.908044   0.952913
    11.3501   0.179303   0.423442
    11.3675 0.00219919  0.0468955
     11.385 0.00228739  0.0478267
    11.4025   0.104111   0.322663
      11.42   0.607019   0.779114
    11.4376   0.284386   0.533279
    11.4551   0.304903    0.55218
    11.4727   0.263873   0.513686
    11.4904   0.872246   0.933941
     11.508   0.437643   0.661546
    11.5257    1.39871    1.18267
    11.5434  0.0022976  0.0479332
    11.5611 0.00220936  0.0470038
    11.5789 0.00234807  0.0484569
    11.5967   0.181239   0.425722
    11.6145 0.00225611  0.0474986
    11.6323 0.00218478  0.0467417
    11.6502 0.00229658  0.0479226
    11.6681 0.00232461  0.0482142
     11.686 0.00211479  0.0459868
     11.704    1.17115     1.0822
     11.722   0.911229   0.954583
      11.74   0.457462   0.676359
     11.758 0.00222795  0.0472011
    11.7761   0.266254   0.515998
    11.7942  0.0773512   0.278121
    11.8123 0.00210111  0.0458379
    11.8304   0.531201   0.728835
    11.8486 0.00231381  0.0481021
    11.8668 0.00232152  0.0481821
     11.885 0.00221219  0.0470339
    11.9033 0.00222369   0.047156
    11.9216   0.764148   0.874156
    11.9399   0.231828   0.481485
    11.9582 0.00218733  0.0467689
    11.9766 0.00221427  0.0470561
     11.995   0.607563   0.779463
    12.0134   0.170159   0.412504
    12.0319 0.00234039  0.0483776
    12.0504   0.321187   0.566734
    12.0689 0.00218387  0.0467319
    12.0874    0.43903   0.662593
     12.106   0.645142   0.803207
    12.1246   0.626471   0.791499
    12.1432   0.263719   0.513536
    12.1619   0.526499   0.725603
    12.1806   0.719183   0.848047
    12.1993   0.150446   0.387874
     12.218   0.276976   0.526285
    12.2368   0.615048    0.78425
    12.2556   0.761467   0.872621
    12.2744    1.39499     1.1811
    12.2933   0.228125   0.477624
    12.3121   0.259604   0.509513
    12.3311   0.327147   0.571968
      12.35 0.00232801  0.0482494
     12.369   0.564644   0.751428
     12.388   0.722749   0.850147
     12.407    1.37341    1.17193
    12.4261   0.436551    0.66072
    12.4452   0.229448   0.479007
    12.4643   0.462959   0.680411
    12.4834   0.324636   0.569769
    12.5026  0.0555338   0.235656
    12.5218   0.309299   0.556147
     12.541   0.002356  0.0485386
    12.5603  0.0653883   0.255711
    12.5796 0.00227449  0.0476916
    12.5989   0.387297   0.622332
    12.6183 0.00227135  0.0476587
    12.6377   0.127042    0.35643
    12.6571 0.00225027   0.047437
    12.6765 0.00207265  0.0455264
     12.696  0.0023951  0.0489398
    12.7155   0.220979   0.470084
     12.735    0.44977   0.670649
    12.7546    0.22137     0.4705
    12.7742   0.597992   0.773299
    12.7938   0.082131   0.286585
    12.8135   0.359101   0.599251
    12.8332   0.224154   0.473449
    12.8529   0.991551   0.995767
    12.8726   0.480533   0.693205
    12.8924  0.0384725   0.196144
    12.9122  0.0582578   0.241367
     12.932  0.0587392   0.242362
    12.9519  0.0023209  0.0481758
    12.9718 0.00219312  0.0468308
    12.9917 0.00218651  0.0467601
    13.0117   0.277221   0.526518
    13.0317   0.765757   0.875076
    13.0517 0.00224987  0.0474328
    13.0717 0.00237083  0.0486912
    13.0918 0.00215811  0.0464555
    13.1119 0.00224228  0.0473527
    13.1321 0.00216312  0.0465094
    13.1523   0.212665   0.461156
    13.1725   0.420197   0.648226
    13.1927   0.460892    0.67889
     13.213 0.00224372  0.0473679
    13.2333 0.00220813  0.0469907
    13.2536  0.0458358   0.214093
    13.2739   0.358857   0.599047
    13.2943 0.00224869  0.0474204
    13.3148   0.229161   0.478707
    13.3352   0.465884   0.682557
    13.3557   0.226826   0.476262
    13.3762   0.206519   0.454444
    13.3968    1.09532    1.04658
    13.4173   0.321957   0.567413
     13.438  0.0372431   0.192985
    13.4586   0.776822   0.881375
    13.4793   0.534284   0.730947
       13.5 0.00205832  0.0453687
    13.5207  0.0022277  0.0471985
    13.5415   0.440334   0.663576
    13.5623  0.0021175  0.0460163
    13.5831 0.00225451  0.0474816
     13.604 0.00221812  0.0470969
    13.6249   0.212586    0.46107
    13.6458    0.22821   0.477714
    13.6668   0.870058   0.932769
    13.6878  0.0311713   0.176554
    13.7088  0.0823208   0.286916
    13.7299 0.00234305  0.0484051
     13.751   0.606296    0.77865
    13.7721 0.00235341  0.0485119
    13.7933   0.149987   0.387282
    13.8144  0.0022548  0.0474847
    13.8357 0.00221669  0.0470817
    13.8569 0.00215097  0.0463785
    13.8782 0.00223219  0.0472461
    13.8995 0.00212537  0.0461017
    13.9209 0.00226672  0.0476101
    13.9423   0.668857   0.817837
    13.9637   0.678315   0.823599
    13.9851   0.443325   0.665827
    14.0066   0.319132   0.564918
    14.0281  0.0959746   0.309798
    14.0497  0.0821244   0.286573
    14.0713   0.083846   0.289562
    14.0929    0.78125   0.883884
    14.1145 0.00230824  0.0480441
    14.1362   0.311637   0.558245
    14.1579 0.00218892  0.0467859
    14.1797 0.00211285  0.0459657
    14.2015   0.356948   0.597451
    14.2233 0.00221052  0.0470161
    14.2451   0.109042   0.330215
     14.267 0.00225648  0.0475024
    14.2889 0.00224273  0.0473574
    14.3109 0.00225848  0.0475235
    14.3329  0.0235123   0.153337
    14.3549   0.266607   0.516339
     14.377  0.0463145   0.215208
     14.399   0.316799   0.562849
    14.4212    0.00221  0.0470106
    14.4433  0.0022055  0.0469628
    14.4655 0.00221831  0.0470989
    14.4877   0.188008   0.433598
      14.51 0.00220288  0.0469349
    14.5323  0.0022511  0.0474458
    14.5546   0.186852   0.432264
     14.577   0.396025   0.629305
    14.5993  0.0020688  0.0454841
    14.6218 0.00224746  0.0474074
    14.6442 0.00234174  0.0483915
    14.6667  0.0920598   0.303414
    14.6893 0.00222702  0.0471913
    14.7118     0.0022  0.0469041
    14.7344   0.230671   0.480282
    14.7571   0.229483   0.479044
    14.7797   0.463434   0.680759
    14.8024   0.543512   0.737233
    14.8252 0.00228955  0.0478493
     14.848  0.0022821  0.0477713
    14.8708   0.443063   0.665629
    14.8936   0.159773   0.399716
    14.9165 0.00206876  0.0454836
    14.9394 0.00231537  0.0481183
    14.9624 0.00237365  0.0487201
    14.9854 0.00224276  0.0473577
    15.0084  0.0610739   0.247131
    15.0314   0.716886   0.846691
    15.0545 0.00226639  0.0476066
    15.0776 0.00214394  0.0463027
    15.1008   0.541895   0.736135
     15.124   0.544101   0.737632
    15.1472   0.564332    0.75122
    15.1705   0.340738   0.583728
    15.1938 0.00220693   0.046978
    15.2172 0.00222527  0.0471727
    15.2405   0.641078   0.800674
    15.2639   0.198698   0.445755
    15.2874 0.00214821  0.0463488
    15.3109  0.0844048   0.290525
    15.3344 0.00218928  0.0467897
     15.358     0.2143   0.462926
    15.3816   0.433938    0.65874
    15.4052 0.00225362  0.0474723
    15.4288 0.00239526  0.0489414
    15.4526  0.0022773  0.0477211
    15.4763 0.00243772  0.0493733
    15.5001   0.205738   0.453584
    15.5239  0.0022613  0.0475531
    15.5477 0.00221204  0.0470323
    15.5716   0.457256   0.676207
    15.5955 0.00219119  0.0468102
    15.6195   0.168326   0.410276
    15.6435 0.00224928  0.0474266
    15.6675   0.163914   0.404863
    15.6916   0.978118   0.988998
    15.7157    1.09232    1.04514
    15.7398   0.478032   0.691398
     15.764   0.448201   0.669478
    15.7882   0.490152   0.700109
    15.8125   0.704944   0.839609
    15.8368   0.306974   0.554052
    15.8611 0.00226597  0.0476022
    15.8855  0.0752068   0.274238
    15.9099   0.303905   0.551276
    15.9343 0.00213033  0.0461555
    15.9588   0.002115  0.0459891
    15.9833 0.00208494  0.0456611
    16.0079   0.658487   0.811472
    16.0325   0.227915   0.477404
    16.0571 0.00215666  0.0464398
    16.0818 0.00218735  0.0467692
    16.1065 0.00227944  0.0477435
    16.1312  0.0021394  0.0462536
     16.156   0.103443   0.321626
    16.1808   0.336195   0.579824
    16.2057   0.488995   0.699282
    16.2306 0.00221873  0.0471034
    16.2555 0.00214625  0.0463276
    16.2805 0.00230331  0.0479928
    16.3055 0.00231838  0.0481495
    16.3305 0.00206986  0.0454957
    16.3556  0.0022318  0.0472419
    16.3807   0.322551   0.567936
    16.4059  0.0765696   0.276712
    16.4311 0.00209111  0.0457286
    16.4564   0.139552   0.373566
    16.4816 0.00224244  0.0473544
    16.5069   0.553368   0.743887
    16.5323 0.00218024   0.046693
    16.5577 0.00233332  0.0483045
    16.5831 0.00227096  0.0476546
    16.6086  0.0022633  0.0475742
    16.6341   0.459273   0.677697
    16.6597    1.00978    1.00488
    16.6853   0.524202   0.724018
    16.7109 0.00219511   0.046852
    16.7366   0.550471   0.741937
    16.7623    0.52418   0.724003
     16.788   0.253075   0.503066
    16.8138   0.735244   0.857464
    16.8397 0.00225881  0.0475269
    16.8655 0.00228026  0.0477521
    16.8914 0.00223093  0.0472327
    16.9174 0.00216806  0.0465625
    16.9434     0.7807   0.883572
    16.9694   0.276428   0.525764
    16.9955   0.253189   0.503179
    17.0216 0.00228974  0.0478513
    17.0477   0.508859   0.713343
    17.0739  0.0991062   0.314811
    17.1002  0.0020806  0.0456136
    17.1264 0.00225686  0.0475064
    17.1527 0.00220279  0.0469339
    17.1791 0.00223707  0.0472976
    17.2055 0.00230903  0.0480524
    17.2319 0.00230985  0.0480609
    17.2584 0.00229125   0.047867
    17.2849   0.428933    0.65493
    17.3115    0.28871   0.537318
     17.338   0.240265   0.490168
    17.3647  0.0313521   0.177065
    17.3914   0.115837   0.340349
    17.4181   0.118199   0.343801
    17.4448    1.20454    1.09752
    17.4716 0.00227941  0.0477432
    17.4985 0.00237782  0.0487629
    17.5254 0.00216122  0.0464889
    17.5523   0.784266   0.885588
    17.5792  0.0965515   0.310727
    17.6062   0.106546   0.326414
    17.6333   0.437166   0.661185
    17.6604   0.222835   0.472055
    17.6875   0.671235   0.819289
    17.7147 0.00210127  0.0458396
    17.7419 0.00219319  0.0468315
    17.7692  0.0871329   0.295183
    17.7965   0.172934   0.415854
    17.8238   0.207704   0.455746
    17.8512 0.00219421  0.0468424
    17.8786 0.00222791  0.0472007
    17.9061   0.276195   0.525543
    17.9336  0.0343728   0.185399
    17.9611 0.00210913  0.0459253
    17.9887 0.00215166  0.0463859
    18.0164 0.00231547  0.0481193
     18.044 0.00212449  0.0460922
    18.0718   0.719937   0.848491
    18.0995   0.193651   0.440058
    18.1273   0.223781   0.473055
    18.1552   0.458394   0.677048
    18.1831   0.220675   0.469761
     18.211   0.501008   0.707819
     18.239  0.0854625    0.29234
     18.267   0.142944    0.37808
     18.295 0.00232784  0.0482477
    18.3231  0.0397611   0.199402
    18.3513  0.0023308  0.0482784
    18.3795  0.0380144   0.194973
    18.4077  0.0590964   0.243097
     18.436   0.521686   0.722278
    18.4643 0.00220056  0.0469101
    18.4927 0.00224472  0.0473785
    18.5211 0.00213573   0.046214
    18.5496 0.00218724   0.046768
    18.5781 0.00243322  0.0493276
    18.6066  0.0488238   0.220961
    18.6352 0.00234375  0.0484123
    18.6638   0.172679   0.415547
    18.6925 0.00248429  0.0498426
    18.7212 0.00238654  0.0488522
    18.7499 0.00241866  0.0491799
    18.7788   0.147239   0.383718
    18.8076   0.536191   0.732251
    18.8365   0.467771   0.683938
    18.8654  0.0674333   0.259679
    18.8944   0.235616   0.485402
    18.9234   0.451337   0.671816
    18.9525   0.912566   0.955283
    18.9816   0.249079   0.499078
    19.0108    0.79063   0.889174
      19.04   0.284761    0.53363
    19.0692   0.133836   0.365837
    19.0985   0.165787    0.40717
    19.1279 0.00206127  0.0454012
    19.1573  0.0866502   0.294364
    19.1867  0.0022648    0.04759
    19.2162 0.00226571  0.0475995
    19.2457 0.00227867  0.0477355
    19.2753   0.179521   0.423699
    19.3049   0.187469   0.432977
    19.3345 0.00231343  0.0480981
    19.3642 0.00208904   0.045706
     19.394 0.00230711  0.0480324
    19.4238    0.13987   0.373991
    19.4536 0.00236136  0.0485939
    19.4835   0.103283   0.321376
    19.5134 0.00225699  0.0475077
    19.5434 0.00229243  0.0478793
    19.5734   0.135116   0.367581
    19.6035 0.00224881  0.0474216
    19.6336 0.00226881   0.047632
    19.6638 0.00219625  0.0468642
     19.694 0.00234294   0.048404
    19.7242 0.00229738   0.047931
    19.7545   0.476493   0.690285
    19.7849   0.621499   0.788352
    19.8153   0.104851   0.323807
    19.8457 0.00222654  0.0471862
    19.8762 0.00221864  0.0471024
    19.9067   0.287364   0.536063
    19.9373 0.00218965  0.0467936
     19.968  0.0971363   0.311667
    19.9986   0.647797   0.804859
    20.0293    0.37107   0.609155
    20.0601   0.228667   0.478192
    20.0909   0.461525   0.679357
    20.1218   0.453613   0.673508
    20.1527  0.0555055   0.235596
    20.1837  0.0840789   0.289964
    20.2147 0.00230973  0.0480597
    20.2457 0.00226998  0.0476443
    20.2768   0.183107    0.42791
     20.308 0.00223048   0.047228
    20.3392 0.00228337  0.0477847
    20.3704 0.00228545  0.0478064
    20.4017 0.00228649  0.0478172
    20.4331 0.00218532  0.0467474
    20.4645  0.0023055  0.0480156
    20.4959 0.00221727  0.0470879
    20.5274 0.00221819  0.0470976
    20.5589   0.051468   0.226866
    20.5905   0.303048   0.550498
    20.6221    0.13102   0.361966
    20.6538  0.0023174  0.0481394
    20.6855  0.0986554   0.314094
    20.7173   0.314382   0.560698
    20.7491    1.01628    1.00811
     20.781   0.292279   0.540628
    20.8129   0.441173   0.664209
    20.8449    1.52301     1.2341
    20.8769   0.655581   0.809679
     20.909    1.38133     1.1753
    20.9411    1.29255     1.1369
    20.9733   0.359351   0.599459
    21.0055    1.51612    1.23131
    21.0378   0.371336   0.609373
    21.0701   0.392508   0.626505
    21.1025   0.165085   0.406306
    21.1349 0.00223149  0.0472387
    21.1674 0.00235812  0.0485605
    21.1999 0.00213701  0.0462278
    21.2325   0.939213    0.96913
    21.2651  0.0812295   0.285008
    21.2977 0.00215181  0.0463876
    21.3305   0.907296   0.952521
    21.3632 0.00207749  0.0455795
     21.396   0.672486   0.820052
    21.4289    0.45823   0.676927
    21.4618    0.21668   0.465489
    21.4948 0.00223955  0.0473239
    21.5278 0.00212689  0.0461182
    21.5609 0.00217927  0.0466826
     21.594    0.34902   0.590779
    21.6272 0.00240262  0.0490165
    21.6604   0.141033   0.375544
    21.6937   0.231895   0.481554
     21.727   0.448123    0.66942
    21.7604   0.216053   0.464815
    21.7938    0.26178   0.511644
    21.8273 0.00219582  0.0468595
    21.8608 0.00226805  0.0476241
    21.8944   0.467026   0.683393
    21.9281   0.431096   0.656579
    21.9617   0.830196   0.911151
    21.9955   0.699195   0.836179
    22.0293 0.00222829  0.0472047
    22.0631   0.219624    0.46864
     22.097  0.0137565   0.117288
     22.131 0.00225452  0.0474818
    22.1649   0.185575   0.430784
     22.199 0.00231569  0.0481216
    22.2331 0.00224616  0.0473937
    22.2673   0.100168   0.316493
    22.3015     0.1338   0.365787
    22.3357 0.00235023  0.0484792
      22.37 0.00228069  0.0477566
    22.4044 0.00222123  0.0471299
    22.4388   0.373885   0.611461
    22.4733 0.00221198  0.0470317
    22.5078   0.125441   0.354176
    22.5424   0.190321   0.436258
     22.577   0.194227   0.440712
    22.6117 0.00218053  0.0466961
    22.6465   0.175337   0.418733
    22.6812 0.00212191  0.0460642
    22.7161  0.0398056   0.199513
     22.751   0.813255   0.901807
    22.7859  0.0661325   0.257163
    22.8209  0.0842925   0.290332
     22.856   0.841188   0.917163
    22.8911 0.00223217  0.0472458
    22.9263   0.520812   0.721673
    22.9615  0.0461688   0.214869
    22.9968   0.263452   0.513276
    23.0321  0.0729232   0.270043
    23.0675   0.071846   0.268041
    23.1029  0.0704607   0.265444
    23.1384   0.108272   0.329047
     23.174  0.0827366    0.28764
    23.2096  0.0430687    0.20753
    23.2452   0.450499   0.671192
    23.2809 0.00217969  0.0466871
    23.3167   0.597938   0.773264
    23.3525 0.00235341   0.048512
    23.3884 0.00219617  0.0468633
    23.4243 0.00217267  0.0466119
    23.4603  0.0994851   0.315412
    23.4963 0.00220045  0.0469089
    23.5324   0.371756   0.609718
    23.5686 0.00236406  0.0486216
    23.6048 0.00228281  0.0477788
    23.6411 0.00211535  0.0459929
    23.6774   0.306956   0.554036
    23.7137   0.297161   0.545125
    23.7502 0.00213384  0.0461935
    23.7867   0.303888    0.55126
    23.8232 0.00220406  0.0469474
    23.8598   0.148343   0.385153
    23.8965   0.229535   0.479098
    23.9332   0.258071   0.508007
    23.9699  0.0022386  0.0473138
    24.0068   0.498138   0.705789
    24.0436 0.00224532  0.0473849
    24.0806  0.0022077  0.0469862
    24.1176   0.293346   0.541615
    24.1546   0.286628   0.535376
    24.1917   0.275557   0.524935
    24.2289  0.0316455   0.177892
    24.2661    1.18607    1.08907
    24.3034  0.0311914   0.176611
    24.3407  0.0353947   0.188135
    24.3781  0.0297942    0.17261
    24.4156  0.0290633    0.17048
    24.4531   0.220638   0.469721
    24.4906 0.00235581  0.0485367
    24.5283    1.09689    1.04733
    24.5659 0.00368677  0.0607188
    24.6037 0.00226947  0.0476389
    24.6415   0.432164   0.657392
    24.6793   0.271099   0.520672
    24.7172   0.266091    0.51584
    24.7552   0.260252   0.510149
    24.7933   0.297873   0.545777
    24.8313 0.00226582  0.0476007
    24.8695  0.0131619   0.114725
    24.9077   0.254447   0.504427
     24.946 0.00244014  0.0493978
    24.9843 0.00229296  0.0478848
    25.0227 0.00217796  0.0466687
    25.0611 0.00237675  0.0487519
    25.0996 0.00217181  0.0466027
    25.1382  0.0022821  0.0477713
    25.1768 0.00218781   0.046774
    25.2155  0.0128897   0.113533
    25.2542 0.00220959  0.0470062
     25.293 0.00238089  0.0487944
    25.3318 0.00230885  0.0480505
    25.3708   0.456816   0.675882
    25.4097 0.00226712  0.0476143
    25.4488 0.00231068  0.0480696
    25.4879   0.671737   0.819596
     25.527    1.20027    1.09557
    25.5662    0.22394   0.473223
    25.6055 0.00243141  0.0493094
    25.6448   0.399096   0.631741
    25.6842  0.0023253  0.0482214
    25.7237 0.00214187  0.0462804
    25.7632  0.0021851   0.046745
    25.8028 0.00217987  0.0466891
    25.8424   0.443959   0.666303
    25.8821 0.00232039  0.0481704
    25.9219 0.00228242  0.0477747
    25.9617 0.00225247  0.0474602
    26.0016 0.00235573  0.0485359
    26.0416 0.00235356  0.0485135
    26.0816   0.486755   0.697678
    26.1216 0.00223941  0.0473225
    26.1618  0.0412157   0.203016
    26.2019 0.00242742  0.0492688
    26.2422 0.00238685  0.0488554
    26.2825 0.00229868  0.0479446
    26.3229 0.00215789  0.0464531
    26.3633 0.00827421  0.0909627
    26.4038 0.00221025  0.0470133
    26.4444 0.00209433  0.0457638
     26.485   0.592425   0.769691
    26.5257  0.0121107   0.110049
    26.5664   0.665972   0.816071
    26.6073   0.836618   0.914668
    26.6481   0.235293    0.48507
    26.6891 0.00221143  0.0470259
    26.7301 0.00225148  0.0474497
    26.7711 0.00223213  0.0472454
    26.8123 0.00228267  0.0477773
    26.8535 0.00218212  0.0467132
    26.8947 0.00229758  0.0479331
     26.936   0.107092   0.327249
    26.9774 0.00241698  0.0491628
    27.0188  0.0729069   0.270013
    27.0603 0.00210964  0.0459309
    27.1019    0.13672   0.369757
    27.1436 0.00215069  0.0463755
    27.1853   0.279171   0.528366
     27.227   0.149467    0.38661
    27.2689 0.00207463  0.0455481
    27.3107  0.0356446   0.188798
    27.3527   0.194392   0.440899
    27.3947   0.461953   0.679672
    27.4368   0.240439   0.490345
    27.4789   0.455396    0.67483
    27.5212   0.233676   0.483401
    27.5634   0.464962   0.681882
    27.6058   0.679344   0.824224
    27.6482  0.0250319   0.158215
    27.6907   0.204353   0.452054
    27.7332  0.0023218  0.0481851
    27.7758   0.169909   0.412201
    27.8185   0.432558   0.657691
    27.8612   0.425261    0.65212
     27.904    0.44688    0.66849
    27.9469   0.274138   0.523582
    27.9898 0.00218333  0.0467261
    28.0328   0.281936   0.530976
    28.0759   0.709365   0.842238
     28.119   0.700862   0.837175
    28.1622   0.473046   0.687783
    28.2055    1.20774    1.09897
    28.2488   0.678027   0.823424
    28.2922   0.247118   0.497109
    28.3357  0.0241095   0.155272
    28.3792  0.0493553   0.222161
    28.4228   0.729556   0.854141
    28.4665   0.674488   0.821272
    28.5102    1.16383    1.07881
     28.554   0.729403   0.854051
    28.5979    1.08632    1.04227
    28.6418   0.582374   0.763135
    28.6858    1.16356    1.07868
    28.7299    1.98427    1.40864
     28.774    1.37764    1.17373
    28.8182    1.47842     1.2159
    28.8625    1.61381    1.27036
    28.9068    1.77041    1.33057
    28.9512    2.61701    1.61772
    28.9957    2.16136    1.47016
    29.0402    3.34978    1.83024
    29.0848    4.76344    2.18253
    29.1295    2.20722    1.48567
    29.1743    4.77129    2.18433
    29.2191    6.51409    2.55227
     29.264    6.74428    2.59697
    29.3089     7.3037    2.70254
     29.354    4.69254    2.16623
    29.3991    9.47325    3.07787
    29.4442    9.59736    3.09796
    29.4895    13.3359    3.65184
    29.5348    11.3746    3.37263
    29.5801    15.7497    3.96859
    29.6256    23.0892    4.80513
    29.6711    27.6013     5.2537
    29.7167    33.5038    5.78824
    29.7623     47.423    6.88643
     29.808     74.708    8.64338
    29.8538    91.8875     9.5858
    29.8997    109.963    10.4863
    29.9456    122.745     11.079
    29.9916    116.531    10.7949
    30.0377    79.2931    8.90466
    30.0838    45.9844    6.78118
    30.1301    29.7756     5.4567
    30.1764    10.8942    3.30064
    30.2227     4.9893    2.23367
    30.2691    4.20244    2.04999
    30.3156    1.51022    1.22891
    30.3622   0.542267   0.736388
    30.4089    1.89893    1.37802
    30.4556    1.21921    1.10418
    30.5024   0.752183   0.867285
    30.5492      1.162    1.07796
    30.5962    1.11411    1.05551
    30.6431   0.672735   0.820204
    30.6902  0.0131686   0.114754
    30.7374    0.45635   0.675536
    30.7846   0.234185   0.483927
    30.8319    2.30668    1.51878
    30.8792   0.335202   0.578966
    30.9267   0.457449    0.67635
    30.9742   0.672208   0.819883
    31.0218    1.36583    1.16869
    31.0694   0.394112   0.627784
    31.1172 0.00209322  0.0457517
     31.165 0.00214799  0.0463464
    31.2129 0.00217727  0.0466612
    31.2608   0.491951   0.701392
    31.3088 0.00781671  0.0884122
    31.3569     0.9105   0.954201
    31.4051   0.528076   0.726688
    31.4533   0.832975   0.912675
    31.5017   0.681035   0.825248
    31.5501   0.617885   0.786057
    31.5985   0.965718   0.982709
    31.6471 0.00235262  0.0485038
    31.6957  0.0023894  0.0488814
    31.7444   0.033853   0.183992
    31.7931 0.00204795  0.0452543
     31.842   0.644147   0.802588
    31.8909 0.00233165  0.0482872
    31.9399   0.402745   0.634622
     31.989 0.00224584  0.0473903
    32.0381   0.462864   0.680341
    32.0873   0.527734   0.726453
    32.1366    2.16396    1.47104
     32.186   0.295577    0.54367
    32.2354   0.469388   0.685119
     32.285   0.665508   0.815787
    32.3346    1.40338    1.18464
    32.3842    1.79955    1.34147
     32.434    1.30789    1.14363
    32.4838    1.29125    1.13633
    32.5337   0.919278    0.95879
    32.5837    2.66225    1.63164
    32.6337    2.59051    1.60951
    32.6839    4.49356     2.1198
    32.7341    2.38663    1.54487
    32.7844    2.57197    1.60374
    32.8347    3.91523    1.97869
    32.8852    2.40367    1.55038
    32.9357    9.65403    3.10709
    32.9863    8.76514     2.9606
     33.037    6.72811    2.59386
    33.0877      9.348    3.05745
    33.1385    11.7554    3.42862
    33.1895    9.23877    3.03953
    33.2404    11.9101     3.4511
    33.2915    14.3777    3.79179
    33.3426    10.6672    3.26606
    33.3939    13.9487    3.73479
    33.4452    18.7533    4.33051
    33.4965    18.0949    4.25382
     33.548    22.8155    4.77656
    33.5996    25.4209    5.04191
    33.6512    27.9771    5.28934
    33.7029    34.9157    5.90895
    33.7546    32.4205     5.6939
    33.8065    39.8606    6.31352
    33.8584    54.4757    7.38076
    33.9104    76.7205    8.75902
    33.9625    93.0549     9.6465
    34.0147     135.95    11.6598
     34.067    204.135    14.2876
    34.1193    226.344    15.0447
    34.1717    316.062    17.7781
    34.2242    369.475    19.2217
    34.2768    361.242    19.0064
    34.3294     235.18    15.3356
    34.3822    116.181    10.7787
     34.435    80.2457      8.958
    34.4879    36.5186    6.04306
    34.5409    12.5451     3.5419
    34.5939    8.20492    2.86442
    34.6471    2.85589    1.68994
    34.7003    4.12546    2.03112
    34.7536    3.18378    1.78431
     34.807    2.32724    1.52553
    34.8605   0.999984   0.999992
     34.914    1.45954    1.20811
    34.9677   0.864837   0.929966
    35.0214     1.2842    1.13323
    35.0752    1.29703    1.13887
    35.1291    1.91173    1.38265
     35.183  0.0309476   0.175919
    35.2371   0.710826   0.843105
    35.2912 0.00216344  0.0465127
    35.3454   0.229779   0.479353
    35.3997    1.39705    1.18197
    35.4541    1.42126    1.19217
    35.5086    0.65983   0.812299
    35.5631   0.534347   0.730991
    35.6178 0.00224562   0.047388
    35.6725 0.00225562  0.0474934
    35.7273   0.173286   0.416276
    35.7822   0.442064   0.664879
    35.8372   0.498585   0.706106
    35.8922  0.0383381   0.195801
    35.9473   0.103277   0.321368
    36.0026   0.473425   0.688059
    36.0579    1.13966    1.06755
    36.1133   0.703311   0.838636
    36.1688   0.334217   0.578115
    36.2243   0.452343   0.672564
      36.28 0.00234633  0.0484389
    36.3357   0.422442   0.649956
    36.3915   0.192001   0.438179
    36.4474   0.551835   0.742856
    36.5034   0.493741   0.702667
    36.5595   0.540911   0.735466
    36.6157   0.239241   0.489123
    36.6719   0.637858    0.79866
    36.7282   0.549003   0.740947
    36.7847    1.01906    1.00948
    36.8412    0.89844   0.947861
    36.8978   0.915664   0.956904
    36.9545     1.6003    1.26503
    37.0112   0.458692   0.677268
    37.0681   0.704255   0.839199
     37.125   0.227841   0.477328
    37.1821   0.324938   0.570033
    37.2392   0.722527   0.850016
    37.2964   0.245522   0.495502
    37.3537   0.601247   0.775401
    37.4111   0.876591   0.936264
    37.4685   0.210323    0.45861
    37.5261  0.0501411   0.223922
    37.5838  0.0022465  0.0473973
    37.6415   0.214129   0.462741
    37.6993  0.0174546   0.132116
    37.7572   0.206384   0.454295
    37.8152   0.565792   0.752192
    37.8733 0.00211702   0.046011
    37.9315 0.00228216   0.047772
    37.9898 0.00200301   0.044755
    38.0481 0.00240376  0.0490282
    38.1066   0.671911   0.819701
    38.1651 0.00230062  0.0479647
    38.2238   0.189755   0.435608
    38.2825   0.425674   0.652437
    38.3413   0.649489   0.805909
    38.4002   0.340025   0.583117
    38.4592  0.0891742   0.298621
    38.5183   0.534695   0.731228
    38.5774   0.803079   0.896147
    38.6367  0.0649646   0.254881
    38.6961   0.354929   0.595759
    38.7555   0.340465   0.583494
     38.815   0.123054   0.350791
    38.8747   0.476164   0.690046
    38.9344   0.538396   0.733755
    38.9942   0.589543   0.767817
    39.0541   0.166353   0.407864
    39.1141   0.220138   0.469189
    39.1742   0.735619   0.857683
    39.2344   0.264428   0.514226
    39.2947   0.384093   0.619752
     39.355   0.643354   0.802094
    39.4155   0.002339  0.0483632
     39.476   0.266653   0.516384
    39.5367   0.511683    0.71532
    39.5974   0.529009    0.72733
    39.6582   0.674953   0.821555
    39.7192   0.913705   0.955879
    39.7802  0.0249456   0.157942
    39.8413    0.72825   0.853376
    39.9025   0.578171   0.760376
    39.9638    1.17945    1.08603
    40.0252   0.724791   0.851347
    40.0867  0.0295149   0.171799
    40.1483   0.215954   0.464708
    40.2099 0.00221174  0.0470292
    40.2717 0.00219435  0.0468439
    40.3336   0.286126   0.534908
    40.3955   0.177008   0.420723
    40.4576   0.540424   0.735136
    40.5198   0.135519   0.368129
     40.582   0.976545   0.988203
    40.6443     1.9104    1.38217
    40.7068   0.292515   0.540847
    40.7693   0.350122   0.591711
    40.8319     1.1909    1.09128
    40.8947    1.42556    1.19397
    40.9575    2.11865    1.45556
    41.0204    1.74479     1.3209
    41.0834   0.710597   0.842969
    41.1466    0.81206   0.901144
    41.2098   0.211328   0.459705
    41.2731   0.815829   0.903232
    41.3365    1.29435    1.13769
       41.4     4.0355    2.00886
    41.4636    2.65026    1.62796
    41.5273    2.02143    1.42177
    41.5911    3.93027    1.98249
     41.655    4.79667    2.19013
     41.719    6.42795    2.53534
    41.7831    3.48786    1.86758
    41.8472    4.91545    2.21708
    41.9115    4.36851     2.0901
    41.9759     6.3023    2.51044
    42.0404    6.45136    2.53995
     42.105    8.05883    2.83881
    42.1697    10.2626    3.20353
    42.2344    9.04272    3.00711
    42.2993    11.9472    3.45647
    42.3643    13.3497    3.65373
    42.4294     12.647    3.55626
    42.4946    15.1508     3.8924
    42.5599    19.0057    4.35955
    42.6252    21.7128     4.6597
    42.6907    23.8733    4.88603
    42.7563    31.9277    5.65046
     42.822    30.8404    5.55342
    42.8878    32.0864    5.66449
    42.9537    32.2328     5.6774
    43.0196    42.5956    6.52653
    43.0857    44.7467     6.6893
    43.1519    44.2383    6.65118
    43.2182    46.7375    6.83648
    43.2846    72.6033    8.52076
    43.3511    78.9287    8.88418
    43.4177    90.8133     9.5296
    43.4844    110.755     10.524
    43.5512    130.754    11.4348
    43.6181    165.395    12.8606
    43.6851    225.938    15.0312
    43.7522    252.845    15.9011
    43.8194    446.664    21.1344
    43.8868    640.797     25.314
    43.9542    740.424    27.2107
    44.0217    875.233    29.5843
    44.0893    651.937     25.533
    44.1571    563.237    23.7326
    44.2249    307.391    17.5326
    44.2928    115.714     10.757
    44.3609    67.2164    8.19856
     44.429    28.5742    5.34549
    44.4973    11.6619    3.41495
    44.5656    10.6372    3.26147
    44.6341    7.68711    2.77256
    44.7027    5.12141    2.26305
    44.7713     4.7936    2.18943
    44.8401    3.31984    1.82204
     44.909    2.67331    1.63503
     44.978    2.67106    1.63434
    45.0471    1.45622    1.20674
    45.1163    3.60797    1.89947
    45.1856    1.50093    1.22513
     45.255    2.82764    1.68156
    45.3245   0.937796   0.968398
    45.3942    1.34738    1.16077
    45.4639    1.29057    1.13603
    45.5338    1.55326     1.2463
    45.6037    1.06227    1.03067
    45.6738    1.28776    1.13479
    45.7439    2.60687    1.61458
    45.8142   0.483028   0.695002
    45.8846    1.85333    1.36137
    45.9551   0.908357   0.953078
    46.0257   0.637016   0.798133
    46.0964   0.495281   0.703762
    46.1672   0.169881   0.412167
    46.2381  0.0624921   0.249984
    46.3091   0.089485    0.29914
    46.3803   0.495102   0.703635
    46.4515    1.74758    1.32196
    46.5229   0.337602   0.581035
    46.5944   0.144526   0.380165
     46.666   0.249263   0.499262
    46.7376   0.436557   0.660724
    46.8094   0.431609   0.656969
    46.8813 0.00244598  0.0494569
    46.9534 0.00537439  0.0733102
    47.0255   0.118659    0.34447
    47.0977 0.00232144  0.0481813
    47.1701    0.39425   0.627893
    47.2426   0.325784   0.570775
    47.3151    0.27831   0.527551
    47.3878  0.0022427  0.0473571
    47.4606   0.283127   0.532097
    47.5335   0.635148   0.796962
    47.6066   0.535635   0.731871
    47.6797   0.738146   0.859154
    47.7529   0.267655   0.517354
    47.8263   0.224964   0.474304
    47.8998   0.483709   0.695492
    47.9734   0.758811   0.871098
    48.0471   0.267525   0.517228
    48.1209   0.747089   0.864343
    48.1948   0.791592   0.889714
    48.2688   0.597812   0.773183
     48.343   0.651545   0.807184
    48.4173    0.70242   0.838105
    48.4916   0.706213   0.840364
    48.5661    1.62791     1.2759
    48.6407  0.0396731   0.199181
    48.7155    1.06161    1.03035
    48.7903  0.0290063   0.170312
    48.8653 0.00225046  0.0474391
    48.9403 0.00212818  0.0461322
    49.0155   0.174616   0.417871
    49.0908   0.415987   0.644971
    49.1662   0.347775   0.589724
    49.2417   0.440853   0.663968
    49.3174 0.00219873  0.0468906
    49.3932   0.906605   0.952158
     49.469   0.216797   0.465614
     49.545   0.451719   0.672101
    49.6211   0.235614   0.485401
    49.6974 0.00244576  0.0494546
    49.7737  0.0022534    0.04747
    49.8502    1.42129    1.19218
    49.9268   0.695358   0.833881
    50.0035   0.840639   0.916864
    50.0803    1.17786    1.08529
    50.1572 0.00231758  0.0481412
    50.2343 0.00216082  0.0464846
    50.3114   0.192778   0.439065
    50.3887   0.277279   0.526573
    50.4661 0.00217803  0.0466694
    50.5437 0.00220782  0.0469875
    50.6213   0.821818   0.906542
    50.6991    1.25725    1.12127
     50.777   0.277298   0.526591
     50.855    0.47461   0.688919
    50.9331 0.00218601  0.0467548
    51.0113   0.702279   0.838021
    51.0897    1.09783    1.04777
    51.1682   0.936512   0.967736
    51.2468    1.15414    1.07431
    51.3255    1.16425      1.079
    51.4044   0.491254   0.700895
    51.4833   0.263679   0.513497
    51.5624    1.18558    1.08885
    51.6417 0.00212684  0.0461177
     51.721  0.0481655   0.219466
    51.8004   0.223179   0.472419
      51.88    0.00225  0.0474341
    51.9597   0.927145   0.962883
    52.0395   0.180077   0.424354
    52.1195  0.0023302  0.0482721
    52.1996   0.600712   0.775056
    52.2797   0.153717   0.392068
    52.3601   0.258958   0.508879
    52.4405   0.143332   0.378592
    52.5211   0.233445   0.483161
    52.6017  0.0846991   0.291031
    52.6826   0.495831   0.704152
    52.7635    1.38977    1.17889
    52.8445   0.455695   0.675052
    52.9257   0.688983    0.83005
     53.007   0.443246   0.665767
    53.0885 0.00233495  0.0483213
      53.17 0.00227114  0.0476565
    53.2517     1.0681    1.03349
    53.3335 0.00207178  0.0455168
    53.4154    1.29855    1.13954
    53.4975   0.764606   0.874417
    53.5797   0.337473   0.580924
     53.662   0.576325   0.759161
    53.7444   0.134503   0.366747
     53.827   0.537794   0.733345
    53.9097   0.183583   0.428466
    53.9925   0.177472   0.421274
    54.0754   0.195006   0.441595
    54.1585   0.831639   0.911942
    54.2417   0.153176   0.391377
    54.3251   0.474937   0.689156
    54.4085   0.278441   0.527676
    54.4921   0.278859   0.528071
    54.5758     1.3525    1.16297
    54.6596   0.476323   0.690162
    54.7436   0.291388   0.539804
    54.8277   0.287202   0.535912
    54.9119   0.279152   0.528348
    54.9963   0.389713    0.62427
    55.0808 0.00224659  0.0473982
    55.1654   0.561398   0.749265
    55.2502   0.609094   0.780445
     55.335   0.134426   0.366641
      55.42   0.181211   0.425689
    55.5052 0.00224227  0.0473526
    55.5904   0.209151    0.45733
    55.6758   0.241968   0.491902
    55.7614   0.733034   0.856174
     55.847   0.454283   0.674005
    55.9328   0.486833   0.697734
    56.0188  0.0478028   0.218638
    56.1048 0.00230787  0.0480403
     56.191 0.00244038  0.0494002
    56.2773   0.755657   0.869285
    56.3638  0.0354396   0.188254
    56.4504   0.205294   0.453094
    56.5371   0.313788   0.560168
    56.6239    0.15304   0.391203
    56.7109 0.00241741  0.0491671
    56.7981   0.869255   0.932338
    56.8853   0.235144   0.484917
    56.9727   0.211037   0.459387
    57.0602 0.00229833  0.0479409
    57.1479   0.931986   0.965394
    57.2357   0.863212   0.929092
    57.3236   0.446187   0.667972
    57.4117   0.104175   0.322762
    57.4999   0.630186   0.793843
    57.5882   0.259143   0.509061
    57.6767   0.501608   0.708243
    57.7653   0.262979   0.512815
     57.854   0.557865   0.746904
    57.9429  0.0586115   0.242098
    58.0319  0.0770503   0.277579
     58.121  0.0224206   0.149735
    58.2103 0.00221483  0.0470619
    58.2998 0.00223286  0.0472531
    58.3893   0.544581   0.737958
     58.479   0.149911   0.387184
    58.5689   0.360523   0.600436
    58.6588 0.00217151  0.0465994
     58.749 0.00217532  0.0466403
    58.8392   0.289667   0.538207
    58.9296   0.304998   0.552266
    59.0201   0.591135   0.768853
    59.1108   0.821304   0.906258
    59.2016 0.00211933  0.0460362
    59.2925 0.00251044  0.0501043
    59.3836   0.122883   0.350547
    59.4749 0.00217097  0.0465937
    59.5662  0.0023198  0.0481643
    59.6577 0.00242748  0.0492695
    59.7494 0.00229911   0.047949
    59.8412   0.127457   0.357012
    59.9331 0.00231785  0.0481441
    60.0252 0.00233242  0.0482951
    60.1174 0.00230366  0.0479964
    60.2097  0.0254986   0.159683
    60.3022 0.00221017  0.0470124
    60.3949 0.00238916   0.048879
    60.4877 0.00233507  0.0483225
    60.5806 0.00243896  0.0493858
    60.6736 0.00232063   0.048173
    60.7669 0.00219703  0.0468725
    60.8602 0.00232755  0.0482447
    60.9537 0.00225565  0.0474937
    61.0473  0.0023021  0.0479802
    61.1411 0.00242775  0.0492722
    61.2351 0.00228254  0.0477759
    61.3291 0.00237053  0.0486881
    61.4233  0.0540549   0.232497
    61.5177  0.0813179   0.285163
    61.6122 0.00221214  0.0470334
    61.7069   0.564407    0.75127
    61.8017   0.495243   0.703735
    61.8966  0.0596748   0.244284
    61.9917  0.0723572   0.268993
    62.0869  0.0879333   0.296536
    62.1823   0.257753   0.507694
    62.2778    0.31776   0.563702
    62.3735 0.00231664  0.0481315
    62.4693 0.00236045  0.0485845
    62.5653   0.174404   0.417617
    62.6614 0.00218882  0.0467848
    62.7577   0.348467   0.590311
    62.8541    0.95912   0.979347
    62.9506   0.327047   0.571881
    63.0473   0.847191    0.92043
    63.1442   0.742941    0.86194
    63.2412   0.144474   0.380098
    63.3384    0.54579   0.738776
    63.4357    1.13317     1.0645
    63.5331    2.84865    1.68779
    63.6307    4.69198     2.1661
    63.7285    1.34183    1.15837
    63.8264 0.00217376  0.0466236
    63.9244    1.13237    1.06413
    64.0226   0.156619   0.395751
     64.121   0.505562   0.711029
    64.2195   0.442946   0.665542
    64.3181   0.455637   0.675009
    64.4169   0.555458    0.74529
    64.5159  0.0022775  0.0477231
     64.615 0.00221609  0.0470754
    64.7143 0.00237249  0.0487082
    64.8137 0.00239461  0.0489348
    64.9133   0.380428   0.616788
     65.013 0.00216383   0.046517
    65.1129   0.250332   0.500332
    65.2129   0.236267   0.486073
    65.3131   0.439936   0.663277
    65.4134   0.642586   0.801615
    65.5139   0.758656   0.871009
    65.6145   0.113282   0.336573
    65.7153    0.40793   0.638694
    65.8163 0.00195571  0.0442234
    65.9174 0.00251682  0.0501679
    66.0187  0.0264819   0.162732
    66.1201   0.698603   0.835825
    66.2217   0.694781   0.833536
    66.3234   0.809832   0.899907
    66.4253   0.507607   0.712465
    66.5273   0.227638   0.477114
    66.6295   0.525893   0.725185
    66.7319    0.26257   0.512416
    66.8344   0.315929   0.562075
    66.9371   0.293287    0.54156
    67.0399   0.874401   0.935094
    67.1429   0.584075   0.764248
    67.2461   0.164795   0.405949
    67.3494    1.49815    1.22399
    67.4528   0.884626   0.940545
    67.5564    1.44815    1.20339
    67.6602     1.6445    1.28238
    67.7642    1.21095    1.10043
    67.8683    2.00815    1.41709
    67.9725    1.86403    1.36529
     68.077    2.36151    1.53672
    68.1815    2.46643    1.57049
    68.2863    4.27831    2.06841
    68.3912    3.24745    1.80207
    68.4963    4.33742    2.08265
    68.6015    5.04416    2.24592
    68.7069    6.47186    2.54399
    68.8124    6.00668    2.45085
    68.9181    8.20522    2.86448
     69.024     7.3564    2.71227
      69.13    8.64852    2.94084
    69.2362    6.39758    2.52934
    69.3426    5.87735    2.42433
    69.4491    9.37844    3.06242
    69.5558    11.8667     3.4448
    69.6627    12.9558    3.59942
    69.7697    14.1924    3.76729
    69.8769    20.2582    4.50091
    69.9842    15.8312    3.97884
    70.0917    19.7792    4.44738
    70.1994    21.4695    4.63352
    70.3073    29.3242    5.41519
    70.4153    25.5856    5.05822
    70.5234    40.9605    6.40004
    70.6318    40.8069    6.38803
    70.7403    51.6514    7.18689
     70.849    62.8752    7.92939
    70.9578    66.8796      8.178
    71.0668    94.3306     9.7124
     71.176    116.373    10.7876
    71.2853    134.137    11.5818
    71.3948    248.541    15.7652
    71.5045    398.587    19.9646
    71.6144    501.174    22.3869
    71.7244    444.873     21.092
    71.8346     312.88    17.6884
    71.9449    239.736    15.4834
    72.0554    66.2081    8.13683
    72.1661    17.8125    4.22049
     72.277    11.8476    3.44203
     72.388    5.70415    2.38834
    72.4992    3.91799    1.97939
    72.6106    2.75306    1.65924
    72.7222    2.48762    1.57722
    72.8339   0.882568   0.939451
    72.9458    1.27192    1.12779
    73.0578   0.316929   0.562964
    73.1701   0.929183   0.963942
    73.2825   0.641356   0.800847
    73.3951   0.988971    0.99447
    73.5078   0.296694   0.544696
    73.6207   0.775363   0.880547
    73.7338    1.26878     1.1264
    73.8471   0.665505   0.815785
    73.9605    1.44376    1.20157
    74.0742  0.0348553   0.186696
     74.188   0.247376   0.497369
    74.3019   0.934097   0.966487
    74.4161 0.00238785  0.0488656
    74.5304   0.770587   0.877831
    74.6449   0.872543     0.9341
    74.7596    1.00527    1.00263
    74.8744    1.08386    1.04109
    74.9894 0.00606524  0.0778796
    75.1046   0.545678     0.7387
      75.22   0.316139   0.562262
    75.3356   0.562214    0.74981
    75.4513   0.481108    0.69362
    75.5672   0.535761   0.731957
    75.6833   0.125879   0.354795
    75.7996   0.633921   0.796191
     75.916   0.560092   0.748393
    76.0326  0.0364701   0.190971
    76.1495   0.546812   0.739468
    76.2664   0.248908   0.498907
    76.3836   0.394108    0.62778
    76.5009   0.414688   0.643962
    76.6185   0.226882   0.476322
    76.7362    0.40415   0.635728
    76.8541    1.51391    1.23041
    76.9721    2.49535    1.57967
    77.0904   0.695325   0.833861
    77.2088   0.137692   0.371069
    77.3274   0.309255   0.556107
    77.4462   0.958321   0.978939
    77.5652   0.280863   0.529965
    77.6843   0.945045   0.972135
    77.8037 0.00206419  0.0454334
    77.9232   0.854254   0.924259
    78.0429 0.00242434  0.0492375
    78.1628 0.00989933  0.0994954
    78.2829   0.238701   0.488571
    78.4031   0.486137   0.697235
    78.5236   0.702564   0.838191
    78.6442  0.0325735   0.180481
     78.765  0.0529356   0.230077
     78.886 0.00259706  0.0509614
    79.0072 0.00222596    0.04718
    79.1286   0.801709   0.895382
    79.2502     1.3651    1.16838
    79.3719 0.00225646  0.0475023
    79.4938   0.266298   0.516041
     79.616   0.525402   0.724846
    79.7383    1.07975    1.03911
    79.8608    0.51304   0.716268
    79.9835   0.549929   0.741572
    80.1063   0.281591   0.530651
    80.2294   0.185614   0.430829
    80.3526   0.121926   0.349179
    80.4761    1.76747    1.32946
    80.5997  0.0337201    0.18363
    80.7235   0.748907   0.865394
    80.8475   0.277986   0.527243
    80.9717   0.458951   0.677459
    81.0961  0.0658108   0.256536
    81.2207   0.271348   0.520911
    81.3455    0.83534    0.91397
    81.4704   0.164844    0.40601
    81.5956    2.09338    1.44685
     81.721   0.498973    0.70638
    81.8465    1.13152    1.06373
    81.9722    1.49822    1.22402
    82.0982    2.57671    1.60521
    82.2243    1.18933    1.09056
    82.3506    1.96112     1.4004
    82.4771   0.335689   0.579387
    82.6038    2.81365    1.67739
    82.7307   0.174664   0.417928
    82.8578    2.29041    1.51341
    82.9851    2.37342    1.54059
    83.1126    3.40427    1.84507
    83.2403    2.87947     1.6969
    83.3681    3.43109    1.85232
    83.4962    6.64357    2.57751
    83.6245    6.52348    2.55411
     83.753    6.64169    2.57715
    83.8816    7.52028    2.74231
    84.0105    9.85111    3.13865
    84.1395    10.8052    3.28713
    84.2688    12.5633    3.54447
    84.3983    13.6978    3.70105
    84.5279    11.4144    3.37852
    84.6578    14.2852    3.77958
    84.7878    16.9928    4.12223
    84.9181    18.4849    4.29941
    85.0485    18.9798    4.35658
    85.1792    27.0778    5.20363
      85.31    27.0596    5.20189
    85.4411    32.3066    5.68389
    85.5724    41.1932    6.41819
    85.7038    43.0897    6.56427
    85.8355    48.4284    6.95905
    85.9673    69.9993    8.36656
    86.0994    88.3691    9.40048
    86.2317    112.221    10.5935
    86.3641    180.585    13.4382
    86.4968    218.109    14.7685
    86.6297    362.201    19.0316
    86.7628    415.181     20.376
    86.8961    389.063    19.7247
    87.0296    183.354    13.5408
    87.1633    61.9286    7.86947
    87.2972    28.2001    5.31038
    87.4313    7.42234     2.7244
    87.5656     4.9935    2.23461
    87.7001     2.3716       1.54
    87.8348    1.83377    1.35417
    87.9698   0.915344   0.956736
    88.1049    1.44314    1.20131
    88.2403    1.31115    1.14505
    88.3758    1.98941    1.41047
    88.5116    1.73633     1.3177
    88.6476    2.07225    1.43953
    88.7837   0.679952   0.824592
    88.9201    1.12952    1.06279
    89.0567    1.09138    1.04469
    89.1936   0.308959   0.555841
    89.3306    1.13886    1.06717
    89.4678   0.282365   0.531381
    89.6053   0.234369   0.484117
    89.7429  0.0394212   0.198548
    89.8808   0.651245   0.806997
    90.0189   0.756992   0.870053
    90.1571   0.663648   0.814646
    90.2956   0.933599   0.966229
    90.4344  0.0517238   0.227429
    90.5733 0.00221947  0.0471113
    90.7124 0.00218672  0.0467624
    90.8518 0.00238993   0.048887
    90.9914   0.306163    0.55332
    91.1311   0.858628   0.926622
    91.2711     0.4575   0.676388
    91.4113   0.927424   0.963028
    91.5518   0.928261   0.963463
    91.6924   0.262239   0.512093
    91.8333    0.99054   0.995259
    91.9744 0.00244228  0.0494194
    92.1157    1.13616    1.06591
    92.2572 0.00232311  0.0481987
    92.3989   0.534165   0.730866
    92.5408   0.947209   0.973247
     92.683   0.673352    0.82058
    92.8254   0.232946   0.482645
     92.968 0.00206257  0.0454155
    93.1108   0.246955   0.496946
    93.2539 0.00225674  0.0475051
    93.3971   0.420046    0.64811
    93.5406 0.00225362  0.0474723
    93.6843   0.252983   0.502974
    93.8282   0.126324   0.355421
    93.9724 0.00211943  0.0460373
    94.1167 0.00240682  0.0490594
    94.2613 0.00212715  0.0461211
    94.4061 0.00238866  0.0488739
    94.5511 0.00217807  0.0466698
    94.6964 0.00240655  0.0490566
    94.8419   0.242284   0.492224
    94.9876   0.216641   0.465447
    95.1335   0.607737   0.779575
    95.2796  0.0435927   0.208789
     95.426 0.00214391  0.0463023
    95.5726   0.298465   0.546319
    95.7194 0.00244777  0.0494749
    95.8665 0.00239966  0.0489863
    96.0138   0.190067   0.435967
    96.1613 0.00241903  0.0491836
     96.309 0.00218893   0.046786
    96.4569   0.317124   0.563138
    96.6051   0.326642   0.571526
    96.7535   0.515039   0.717662
    96.9022   0.002379   0.048775
     97.051 0.00223189  0.0472429
    97.2001  0.0804754   0.283682
    97.3494   0.162666   0.403319
     97.499   0.344438   0.586889
    97.6488   0.805614    0.89756
    97.7988  0.0176746   0.132946
     97.949 0.00239685  0.0489576
    98.0995 0.00239464  0.0489351
    98.2502    1.20954    1.09979
    98.4011  0.0515778   0.227108
    98.5523  0.0562832   0.237241
    98.7037  0.0619824   0.248963
    98.8553   0.249038   0.499037
    99.0072   0.342673   0.585382
    99.1593    1.18971    1.09074
    99.3116   0.810983   0.900546
    99.4642   0.520777   0.721649
     99.617    1.02712    1.01347
      99.77   0.317889   0.563816
    99.9233  0.0022263  0.0471837
    100.077   0.629308   0.793289
    100.231         0.         0.
    100.385   0.159005   0.398755
    100.539    1.20076    1.09579
    100.693   0.911979   0.954976
    100.848    2.58243    1.60699
    101.003    1.79068    1.33816
    101.158    1.43004    1.19584
    101.313    3.67271    1.91643
    101.469    3.99356    1.99839
    101.625    2.79089    1.67059
    101.781    5.46635    2.33802
    101.937    5.81781    2.41201
    102.094    7.67187    2.76981
    102.251    13.3556    3.65454
    102.408    21.2269    4.60726
    102.565    17.3824    4.16922
    102.723    9.43421    3.07152
    102.881    3.60988    1.89997
    103.039     3.1745    1.78171
    103.197  0.0299946   0.173189
    103.355   0.463596   0.680879
    103.514   0.478378   0.691649
    103.673   0.240526   0.490434
    103.832   0.705682   0.840049
    103.992   0.362174   0.601809
    104.152   0.132346   0.363794
    104.312  0.0835615    0.28907
    104.472  0.0874493   0.295718
    104.633  0.0505734   0.224885
    104.793    0.11162   0.334095
    104.954   0.166117   0.407574
    105.115   0.387282    0.62232
    105.277         0.         0.
    105.439  0.0683285   0.261397
    105.601         0.         0.
    105.763   0.220629   0.469711
    105.925    0.43331   0.658263
    106.088    0.42689   0.653368
    106.251   0.223823   0.473099
    106.414         0.         0.
    106.578   0.267253   0.516966
    106.742   0.117474   0.342745
    106.906         0.         0.
     107.07         0.         0.
    107.234   0.246306   0.496292
    107.399   0.468834   0.684715
    107.564   0.454714   0.674324
    107.729         0.         0.
    107.895   0.478029   0.691396
     108.06  0.0210743    0.14517
    108.226         0.         0.
    108.393         0.         0.
    108.559         0.         0.
    108.726         0.         0.
    108.893         0.         0.
     109.06         0.         0.
    109.228         0.         0.
    109.396         0.         0.
    109.564         0.         0.
    109.732         0.         0.
    109.901    1.00734    1.00366
    110.069   0.511748   0.715365
    110.239         0.         0.
    110.408         0.         0.
    110.578         0.         0.
    110.747  0.0977198   0.312602
    110.918         0.         0.
    111.088   0.325329   0.570376
    111.259         0.         0.
    111.429         0.         0.
    111.601    0.12144   0.348482
    111.772  0.0975192   0.312281
    111.944         0.         0.
    112.116         0.         0.
    112.288         0.         0.
     112.46         0.         0.
    112.633   0.131204    0.36222
    112.806   0.921535   0.959966
     112.98   0.843064   0.918185
    113.153   0.227136   0.476588
    113.327         0.         0.
    113.501         0.         0.
    113.675         0.         0.
     113.85   0.171901    0.41461
    114.025         0.         0.
      114.2   0.779536   0.882914
    114.376   0.691387   0.831497
    114.551   0.930578   0.964665
    114.727    2.09534    1.44753
    114.904    2.54118    1.59411
     115.08   0.502468    0.70885
    115.257    2.57387    1.60433
    115.434   0.979319   0.989605
    115.611    1.04002    1.01981
    115.789    2.20402    1.48459
    115.967     2.2446     1.4982
    116.145    2.17292    1.47408
    116.323    2.04364    1.42956
    116.502    1.81613    1.34764
    116.681    3.96352    1.99086
     116.86    4.63768    2.15353
     117.04    4.86103    2.20477
     117.22    6.42596    2.53495
      117.4    5.99029    2.44751
     117.58    6.02086    2.45374
    117.761    5.31859    2.30621
    117.942    8.09237    2.84471
    118.123    10.9912     3.3153
    118.304    7.47865    2.73471
    118.486    8.22248    2.86749
    118.668    11.9299    3.45397
     118.85    16.2565    4.03193
    119.033    15.2755    3.90839
    119.216    18.2803    4.27555
    119.399    17.5646    4.19101
    119.582    24.2614    4.92558
    119.766    25.2416     5.0241
     119.95    34.2536    5.85266
    120.134    33.6135    5.79771
    120.319    57.9135    7.61009
    120.504    59.9929    7.74551
    120.689    99.9763    9.99881
    120.874     177.72    13.3311
     121.06    210.591    14.5118
    121.246    261.381    16.1673
    121.432    253.539    15.9229
    121.619    147.779    12.1564
    121.805    69.2803    8.32348
    121.993    19.5423    4.42067
     122.18     10.078    3.17459
    122.368    10.7178     3.2738
    122.556    7.87515    2.80627
    122.744    10.9596    3.31053
    122.933    10.1855    3.19147
    123.121    12.4903    3.53416
    123.311    11.8185     3.4378
      123.5    13.9877    3.74001
     123.69    16.8948    4.11032
     123.88    19.3544    4.39937
     124.07    22.1178    4.70296
    124.261    30.6361    5.53499
    124.451    34.9868    5.91496
    124.643    46.3063    6.80488
    124.834    100.269    10.0134
    125.026    119.197    10.9177
    125.218    157.497    12.5498
     125.41    115.352    10.7402
    125.603    89.6781    9.46985
    125.796    32.1259    5.66797
    125.989    4.25225     2.0621
    126.183    2.40799    1.55177
    126.377    1.58163    1.25763
    126.571    1.43569     1.1982
    126.765    2.70084    1.64342
     126.96   0.885534   0.941028
    127.155         0.         0.
     127.35   0.322038   0.567484
    127.546   0.116095   0.340727
    127.742         0.         0.
    127.938         0.         0.
    128.135         0.         0.
    128.332         0.         0.
    128.529         0.         0.
    128.726   0.607446   0.779388
    128.924   0.588501   0.767138
    129.122   0.375814   0.613037
     129.32   0.384336   0.619949
    129.519   0.122278   0.349683
    129.718   0.369802   0.608113
    129.917   0.365711    0.60474
    130.117  0.0264612   0.162669
    130.317   0.657373   0.810786
    130.517   0.353312     0.5944
    130.717   0.350415   0.591959
    130.918         0.         0.
    131.119   0.701841    0.83776
    131.321   0.894827   0.945953
    131.523    1.28987    1.13573
    131.725    1.00397    1.00198
    131.927   0.782253   0.884451
     132.13    1.25805    1.12163
    132.333    2.13899    1.46253
    132.536   0.853622   0.923917
    132.739   0.311062   0.557729
    132.943    2.25825    1.50275
    133.148   0.999886   0.999943
    133.352    1.65162    1.28515
    133.557   0.951605   0.975503
    133.762    5.97158    2.44368
    133.968    3.93586     1.9839
    134.173    6.03504    2.45663
     134.38    6.17101    2.48415
    134.586    10.5269    3.24452
    134.793    14.3553    3.78884
       135.    12.3566    3.51519
    135.207    11.0996     3.3316
    135.415    4.67152    2.16137
    135.623   0.728289   0.853399
    135.831   0.514702   0.717427
     136.04   0.268219   0.517899
    136.249   0.268899   0.518555
    136.458    1.01073    1.00535
    136.668    1.14986    1.07231
    136.878    1.81457    1.34706
    137.088    2.10957    1.45244
    137.299    1.98532    1.40901
     137.51    3.41553    1.84811
    137.721     3.5825    1.89275
    137.933    6.42902    2.53555
    138.144     8.5438    2.92298
    138.357    6.46065    2.54178
    138.569    5.66172    2.37944
    138.782   0.910036   0.953958
    138.995   0.899342   0.948337
    139.209   0.071318   0.267054
    139.423         0.         0.
    139.637         0.         0.
    139.851         0.         0.
    140.066   0.946435   0.972849
    140.281   0.286546     0.5353
    140.497   0.538838   0.734056
    140.713   0.135174    0.36766
    140.929   0.517938   0.719679
    141.145         0.         0.
    141.362    0.20936   0.457558
    141.579   0.212786   0.461288
    141.797   0.245791   0.495774
    142.015   0.474513   0.688849
    142.233   0.244388   0.494356
    142.451   0.765111   0.874706
     142.67   0.292975   0.541272
    142.889   0.272309   0.521833
    143.109   0.264706   0.514496
    143.329         0.         0.
    143.549         0.         0.
     143.77         0.         0.
     143.99     1.1748    1.08388
    144.212   0.493605    0.70257
    144.433   0.248467   0.498465
    144.655 0.00399762  0.0632268
    144.877   0.435204     0.6597
      145.1   0.869917   0.932694
    145.323         0.         0.
    145.546         0.         0.
     145.77   0.609849   0.780929
    145.993   0.266979     0.5167
    146.218         0.         0.
    146.442   0.309633   0.556446
    146.667   0.477482      0.691
    146.893   0.438474   0.662173
    147.118   0.482388   0.694542
    147.344         0.         0.
    147.571         0.         0.
    147.797         0.         0.
    148.024         0.         0.
    148.252  0.0127251   0.112805
     148.48  0.0572364   0.239241
    148.708         0.         0.
    148.936         0.         0.
    149.165         0.         0.
    149.394   0.311095   0.557759
    149.624    1.10786    1.05255
    149.853   0.462676   0.680203
    150.084   0.480898   0.693468
    150.314   0.464298   0.681394
    150.545    0.24407   0.494034
    150.776   0.292679   0.540998
    151.008   0.537807   0.733353
     151.24  0.0550946   0.234722
    151.472  0.0194901   0.139607
    151.705   0.458247   0.676939
    151.938   0.302103   0.549639
    152.172   0.175043   0.418381
    152.405   0.493923   0.702796
    152.639   0.129092   0.359293
    152.874   0.585249   0.765016
    153.109   0.116468   0.341274
    153.344   0.087548   0.295885
     153.58   0.469754   0.685386
    153.816   0.452082    0.67237
    154.052   0.202476   0.449973
    154.288   0.231691   0.481343
    154.526         0.         0.
    154.763         0.         0.
    155.001  0.0792561   0.281525
    155.239   0.509202   0.713584
    155.477   0.562964   0.750309
    155.716  0.0718136   0.267981
    155.955         0.         0.
    156.195    0.10664   0.326557
    156.435  0.0698081   0.264212
    156.675         0.         0.
    156.916   0.336218   0.579843
    157.157   0.230311   0.479907
    157.398   0.234732   0.484492
     157.64   0.695582   0.834016
    157.882   0.241985    0.49192
    158.125         0.         0.
    158.368         0.         0.
    158.611         0.         0.
    158.855   0.292479   0.540813
    159.099  0.0669583   0.258763
    159.343   0.492292   0.701635
    159.588   0.866571   0.930898
    159.833   0.478027   0.691395
    160.079   0.715999   0.846167
    160.325         0.         0.
    160.571   0.791532   0.889681
    160.818    1.23541    1.11149
    161.065   0.480556   0.693222
    161.312    1.53473    1.23884
     161.56  0.0536029   0.231523
    161.808   0.570616   0.755391
    162.057   0.887871   0.942269
    162.306   0.569249   0.754486
    162.555   0.884335   0.940391
    162.805    1.34713    1.16066
    163.055     1.7907    1.33817
    163.305    1.75001    1.32288
    163.556    1.83138    1.35329
    163.807    2.82073     1.6795
    164.059    4.18518    2.04577
    164.311    6.54458    2.55824
    164.563     7.8444    2.80078
    164.816    10.3319    3.21433
     165.07    18.9022    4.34766
    165.323     16.954    4.11753
    165.577    14.9344     3.8645
    165.831    6.36516    2.52293
    166.086   0.275548   0.524927
    166.341   0.318505   0.564363
    166.597   0.742309   0.861573
    166.853  0.0741486   0.272303
    167.109   0.479136   0.692196
    167.366   0.315013    0.56126
    167.623         0.         0.
     167.88         0.         0.
    168.138         0.         0.
    168.397   0.047259   0.217391
    168.655   0.290834    0.53929
    168.914   0.296413   0.544438
    169.174         0.         0.
    169.434   0.154074   0.392523
    169.694         0.         0.
    169.955         0.         0.
    170.216         0.         0.
    170.477   0.418192   0.646677
    170.739         0.         0.
    171.002         0.         0.
    171.264         0.         0.
    171.527         0.         0.
    171.791   0.499039   0.706427
    172.055         0.         0.
    172.319         0.         0.
    172.584  0.0217807   0.147583
    172.849  0.0934938   0.305768
    173.114   0.110015   0.331684
     173.38         0.         0.
    173.647         0.         0.
    173.914   0.705219   0.839773
    174.181         0.         0.
    174.448   0.231977    0.48164
    174.716         0.         0.
    174.985   0.108793   0.329838
    175.254   0.192395   0.438629
    175.523   0.911156   0.954545
    175.792    1.86515     1.3657
    176.062    1.12387    1.06013
    176.333         0.         0.
    176.604         0.         0.
    176.875   0.141023    0.37553
    177.147   0.510064   0.714188
    177.419         0.         0.
    177.692         0.         0.
    177.964    1.15475    1.07459
    178.238         0.         0.
    178.512   0.211908   0.460335
    178.786   0.167979   0.409853
    179.061   0.141089   0.375618
    179.336   0.357616    0.59801
    179.611  0.0558818   0.236393
    179.887  0.0438231    0.20934
    180.163  0.0657173   0.256354
     180.44   0.262642   0.512486
    180.718   0.503413   0.709516
    180.995   0.309746   0.556548
    181.273   0.221106    0.47022
    181.552   0.673536   0.820693
    181.831   0.423552   0.650809
     182.11   0.444786   0.666923
     182.39    1.00331    1.00166
     182.67   0.464274   0.681377
     182.95  0.0782427   0.279719
    183.231         0.         0.
    183.513  0.0875886   0.295954
    183.795   0.852533   0.923327
    184.077   0.705715   0.840069
     184.36    1.12822    1.06218
    184.643    1.14006    1.06774
    184.927    1.06187    1.03047
    185.211   0.926074   0.962327
    185.496    1.05278    1.02605
    185.781    1.25284     1.1193
    186.066     2.1043    1.45062
    186.352    1.99151    1.41121
    186.638    1.20602    1.09819
    186.925    3.73115    1.93162
    187.212    2.92105    1.70911
      187.5    4.25055    2.06169
    187.788    4.24149    2.05949
    188.076    4.64181    2.15449
    188.365    5.59668    2.36573
    188.654    2.26888    1.50628
    188.944    3.63195    1.90577
    189.234    4.48282    2.11727
    189.525     4.5741    2.13871
    189.816    7.35114     2.7113
    190.108    9.34847    3.05753
      190.4    6.47398     2.5444
    190.692    10.3854    3.22264
    190.985     9.8168    3.13318
    191.279    9.46223    3.07607
    191.573    12.7293    3.56782
    191.867    11.6496    3.41314
    192.162    17.6121    4.19667
    192.457    30.9559     5.5638
    192.753    38.3797    6.19513
    193.049    50.9379    7.13708
    193.345     68.787    8.29379
    193.642    78.2894    8.84813
     193.94     72.688    8.52572
    194.238    77.0638     8.7786
    194.536    82.0058     9.0557
    194.835    133.797    11.5671
    195.134    101.854    10.0923
    195.434    83.1466    9.11848
    195.734    24.3574    4.93532
    196.035     2.9895    1.72902
    196.336   0.880218   0.938199
    196.638     1.5597    1.24888
     196.94    1.72921    1.31499
    197.242   0.689009   0.830065
    197.545    1.72978    1.31521
    197.849     0.2582   0.508134
    198.153   0.969492   0.984628
    198.457    0.77323   0.879335
    198.762   0.545212   0.738384
    199.067   0.299095   0.546896
    199.373   0.310213   0.556968
    199.679   0.703149    0.83854
    199.986   0.150948    0.38852
    200.293         0.         0.
    200.601   0.525441   0.724873
    200.909   0.724576    0.85122
    201.218   0.503842   0.709818
    201.527    0.60571   0.778274
    201.837   0.212024   0.460461
    202.147         0.         0.
    202.457    1.11893     1.0578
    202.768    1.73894    1.31869
     203.08    1.04372    1.02163
    203.392    1.94252    1.39374
    203.704  0.0510102   0.225854
    204.017   0.589285   0.767649
    204.331    1.92745    1.38833
    204.645    0.82785   0.909863
    204.959     2.4624     1.5692
    205.274   0.634837   0.796767
    205.589    1.26969    1.12681
    205.905     2.6751    1.63558
    206.221    1.53475    1.23885
    206.538   0.766741   0.875638
    206.855    2.93136    1.71212
    207.173     2.8819    1.69762
    207.491    2.68363    1.63818
     207.81    5.59899    2.36622
    208.129    4.53618    2.12983
    208.449     6.3189    2.51374
    208.769    5.32283    2.30713
     209.09    5.68958    2.38529
    209.411    4.50659    2.12287
    209.733    6.17838    2.48563
    210.055    10.9705    3.31217
    210.378    10.3913    3.22355
    210.701    13.9208    3.73106
    211.025    10.2364    3.19944
    211.349    15.5452    3.94274
    211.674    25.8504    5.08433
    211.999    29.7432    5.45373
    212.325    29.9279    5.47064
    212.651    60.6111    7.78531
    212.977    92.0111    9.59224
    213.305    98.3007    9.91467
    213.632    118.835    10.9011
     213.96    54.0178    7.34968
    214.289    30.1204     5.4882
    214.618     6.2192    2.49383
    214.948    1.22446    1.10655
    215.278    1.60952    1.26867
    215.609  0.0381171   0.195236
     215.94    1.59884    1.26445
    216.272   0.275474   0.524856
    216.604    1.56871    1.25248
    216.937   0.278049   0.527304
     217.27   0.338051   0.581421
    217.604  0.0533639   0.231006
    217.938   0.257009   0.506961
    218.273   0.745756   0.863572
    218.608         0.         0.
    218.944   0.368469   0.607017
    219.281  0.0190175   0.137904
    219.617         0.         0.
    219.955  0.0706164   0.265737
    220.293  0.0759141   0.275525
    220.631         0.         0.
     220.97   0.734314   0.856921
     221.31   0.204678   0.452413
    221.649     0.4424   0.665131
     221.99    0.29985   0.547585
    222.331         0.         0.
    222.673   0.364206   0.603495
    223.015  0.0121296   0.110135
    223.357         0.         0.
      223.7   0.102556   0.320244
    224.044     1.4015    1.18385
    224.388         0.         0.
    224.733         0.         0.
    225.078   0.747537   0.864602
    225.424   0.564529   0.751352
     225.77   0.939036   0.969039
    226.117   0.276572   0.525901
    226.464         0.         0.
    226.812   0.217314    0.46617
    227.161   0.743457    0.86224
     227.51    1.94332    1.39403
    227.859    1.59137    1.26149
    228.209    1.56315    1.25026
     228.56    2.79905    1.67304
    228.911    1.65818     1.2877
    229.263    3.71943    1.92858
    229.615     5.3036    2.30295
    229.968    8.65057    2.94118
    230.321     6.2216    2.49431
    230.675    9.06054    3.01007
    231.029    5.07729    2.25328
    231.384   0.566622   0.752743
     231.74   0.357552   0.597956
    232.096   0.589326   0.767675
    232.452   0.940759   0.969927
    232.809   0.834664     0.9136
    233.167   0.471497   0.686656
    233.525   0.256679   0.506635
    233.884   0.199908   0.447111
    234.243   0.417131   0.645857
    234.603   0.801752   0.895406
    234.963         0.         0.
    235.324   0.254314   0.504296
    235.686   0.245071   0.495046
    236.048    1.40024    1.18332
    236.411   0.486759   0.697681
    236.774         0.         0.
    237.137         0.         0.
    237.502         0.         0.
    237.867  0.0752851   0.274381
    238.232   0.276447   0.525783
    238.598  0.0977099   0.312586
    238.965   0.779485   0.882884
    239.332   0.299536   0.547299
    239.699    0.51032   0.714367
    240.068   0.134601    0.36688
    240.436         0.         0.
    240.806         0.         0.
    241.176         0.         0.
    241.546         0.         0.
    241.917         0.         0.
    242.289         0.         0.
    242.661         0.         0.
    243.034   0.186005   0.431283
    243.407    0.85094   0.922464
    243.781   0.546002   0.738919
    244.156    0.23452   0.484272
    244.531   0.314576   0.560871
    244.906   0.550661   0.742065
    245.283  0.0897532   0.299588
    245.659         0.         0.
    246.037  0.0865923   0.294266
    246.415   0.290779   0.539239
    246.793         0.         0.
    247.173         0.         0.
    247.552         0.         0.
    247.933    1.40413    1.18496
    248.313   0.511025   0.714861
    248.695  0.0593299   0.243577
    249.077  0.0152448    0.12347
     249.46         0.         0.
    249.843  0.0852512   0.291978
    250.227   0.245706   0.495687
    250.611   0.231242   0.480876
    250.996   0.246725   0.496714
    251.382   0.287069   0.535788
    251.768  0.0383525   0.195838
    252.155  0.0448319   0.211735
    252.542   0.282171   0.531198
     252.93  0.0198117   0.140754
    253.318         0.         0.
    253.708  0.0871134    0.29515
    254.097         0.         0.
    254.488         0.         0.
    254.879    1.20719    1.09872
     255.27   0.491848   0.701319
    255.662   0.273967   0.523419
    256.055         0.         0.
    256.448         0.         0.
    256.842         0.         0.
    257.237   0.395407   0.628814
    257.632         0.         0.
    258.028         0.         0.
    258.424  0.0231357   0.152104
    258.821   0.127177   0.356619
    259.219   0.535586   0.731837
    259.617  0.0790154   0.281097
    260.016   0.312502   0.559018
    260.416  0.0509423   0.225704
    260.816         0.         0.
    261.216   0.140701   0.375101
    261.618  0.0249678   0.158012
    262.019    0.62398   0.789924
    262.422   0.552371   0.743217
    262.825   0.452545   0.672714
    263.229    0.48186   0.694161
    263.633   0.526103   0.725329
    264.038   0.445197   0.667231
    264.444    1.39748    1.18215
     264.85    1.16229     1.0781
    265.257    1.21995    1.10451
    265.664    2.72506    1.65078
    266.073   0.774612    0.88012
    266.481    1.90105    1.37878
    266.891    1.28138    1.13198
    267.301   0.546116   0.738997
    267.711   0.137272   0.370502
    268.123    1.68614    1.29852
    268.534    1.08853    1.04333
    268.947    3.02928    1.74048
     269.36    3.06716    1.75133
    269.774    3.21994    1.79442
    270.188    4.74058    2.17729
    270.603     4.8732    2.20753
    271.019    8.86354    2.97717
    271.436    8.92366    2.98725
    271.853    9.79215    3.12924
     272.27    14.4532    3.80173
    272.688    24.3448    4.93405
    273.107     35.373    5.94752
    273.527    36.2741     6.0228
    273.947    45.5483    6.74895
    274.368    25.8791    5.08715
    274.789    18.0441    4.24784
    275.212    4.21186    2.05228
    275.634    1.06401    1.03151
    276.058   0.109981   0.331634
    276.482   0.360894   0.600745
    276.907   0.599428   0.774227
    277.332  0.0540172   0.232416
    277.758    0.30349     0.5509
    278.185    1.07072    1.03475
    278.612    1.82562    1.35116
     279.04    0.46268   0.680206
    279.469   0.580903    0.76217
    279.898         0.         0.
    280.328  0.0529956   0.230208
    280.759    1.20113    1.09596
     281.19    1.14996    1.07236
    281.622    2.32378     1.5244
    282.055   0.269939   0.519557
    282.488         0.         0.
    282.922    1.04429    1.02191
    283.357   0.303647   0.551042
    283.792   0.255782   0.505749
    284.228    1.93181     1.3899
    284.665    2.33812    1.52909
    285.102    2.82146    1.67972
     285.54    3.82368    1.95542
    285.979    4.00302    2.00075
    286.418    3.23962    1.79989
    286.858    3.50425    1.87196
    287.299    4.63726    2.15343
     287.74    7.45446    2.73029
    288.182    9.80481    3.13126
    288.625    21.0217    4.58494
    289.068    19.2831    4.39125
    289.512    24.6883    4.96873
    289.957    20.5834     4.5369
    290.402    14.1479    3.76138
    290.848    5.88022    2.42492
    291.295   0.541597   0.735933
    291.743         0.         0.
    292.191   0.541147   0.735627
     292.64     1.1677     1.0806
    293.089   0.274318   0.523753
     293.54   0.937462   0.968226
    293.991   0.741824   0.861292
    294.442    1.34495    1.15972
    294.895    1.25534    1.12042
    295.348    1.89456    1.37643
    295.801    1.05416    1.02672
    296.256    2.19702    1.48223
    296.711   0.812119   0.901177
    297.167    2.91639    1.70774
    297.623    2.21445     1.4881
     298.08    4.34225    2.08381
    298.538    3.06748    1.75142
    298.997   0.812011   0.901117
    299.456    4.03226    2.00805
    299.916    4.79061    2.18875
    300.377    4.55757    2.13484
    300.838    7.38064    2.71673
    301.301    7.58494    2.75408
    301.764    14.0957    3.75443
    302.227    15.7977    3.97463
    302.691     16.177    4.02206
    303.156    32.2769    5.68128
    303.622    50.5689    7.11118
    304.089    56.4105    7.51069
    304.556    49.4285    7.03054
    305.024    26.8564    5.18232
    305.492    14.4776    3.80494
    305.962    3.45162    1.85786
    306.432   0.824233   0.907873
    306.902    1.08533    1.04179
    307.374   0.497222    0.70514
    307.846  0.0158014   0.125703
    308.319   0.750531   0.866332
    308.793  0.0235221   0.153369
    309.267         0.         0.
    309.742         0.         0.
    310.218    0.45024   0.670999
    310.694 0.00686469  0.0828534
    311.172   0.794267   0.891217
     311.65   0.349761   0.591406
    312.129         0.         0.
    312.608         0.         0.
    313.088   0.172927   0.415845
    313.569   0.397404     0.6304
    314.051         0.         0.
    314.533   0.385217   0.620658
    315.017   0.775433   0.880586
    315.501   0.860068   0.927399
    315.985   0.388271   0.623114
    316.471   0.408289   0.638975
    316.957         0.         0.
    317.444   0.239521   0.489409
    317.931   0.654576   0.809059
     318.42    2.03173    1.42539
    318.909    2.28463     1.5115
    319.399    3.84111    1.95988
     319.89    6.43693    2.53711
    320.381    6.00904    2.45133
    320.873    11.9523     3.4572
    321.366    12.5089    3.53679
     321.86    11.8981    3.44936
    322.354    7.29502    2.70093
     322.85    1.94836    1.39584
    323.346    0.02048   0.143108
    323.842   0.375472   0.612758
     324.34         0.         0.
    324.838   0.393517   0.627309
    325.337    1.05828    1.02873
    325.837   0.371299   0.609343
    326.337    1.35204    1.16277
    326.839   0.845847   0.919699
    327.341   0.659016   0.811798
    327.844    1.99065    1.41091
    328.347   0.422415   0.649935
    328.852   0.462143   0.679811
    329.357   0.432977    0.65801
    329.863   0.487855   0.698466
     330.37         0.         0.
    330.877    1.33016    1.15333
    331.385    1.21797    1.10362
    331.895    2.02539    1.42316
    332.404   0.915027    0.95657
    332.915    1.82383    1.35049
    333.426    2.34897    1.53264
    333.939    4.18534    2.04581
    334.452    5.63525    2.37387
    334.966    6.02305    2.45419
     335.48    10.5058    3.24127
    335.995    8.62901    2.93752
    336.512    10.7617     3.2805
    337.029    4.20227    2.04994
    337.546    3.34361    1.82855
    338.065   0.917156   0.957683
    338.584   0.566504   0.752664
    339.104    1.45104    1.20459
    339.625    1.18372    1.08799
    340.147   0.536987   0.732794
     340.67         0.         0.
    341.193   0.488447    0.69889
    341.717         0.         0.
    342.242   0.415816   0.644838
    342.768   0.775752   0.880768
    343.294   0.806021   0.897787
    343.822         0.         0.
     344.35         0.         0.
    344.879  0.0271271   0.164703
    345.409         0.         0.
    345.939         0.         0.
    346.471    1.12648    1.06136
    347.003   0.418355   0.646803
    347.536   0.422346   0.649882
     348.07  0.0859242   0.293128
    348.605   0.520955   0.721772
     349.14   0.635975   0.797481
    349.677   0.320592   0.566208
    350.214         0.         0.
    350.752   0.130911   0.361817
    351.291    0.44136   0.664349
     351.83   0.413881   0.643336
    352.371   0.380295    0.61668
    352.912  0.0580719   0.240981
    353.454   0.583889   0.764127
    353.997   0.712689   0.844209
    354.541   0.315283   0.561501
    355.086   0.154597   0.393188
    355.631   0.354248   0.595187
    356.178   0.108689    0.32968
    356.725   0.506731    0.71185
    357.273     1.5016     1.2254
    357.822    2.27101    1.50699
    358.371    1.91239    1.38289
    358.922   0.411492   0.641476
    359.473   0.780588   0.883509
    360.026    1.05736    1.02828
    360.579    1.36923    1.17014
    361.133    1.44796    1.20331
    361.688   0.907339   0.952544
    362.243   0.307229   0.554282
      362.8    1.78489      1.336
    363.357    1.81639    1.34773
    363.915   0.301385   0.548985
    364.474    2.51376    1.58548
    365.034    1.76382    1.32809
    365.595   0.342193   0.584973
    366.157    1.78663    1.33665
    366.719     2.1415    1.46339
    367.282    1.94058    1.39305
    367.847    3.21585    1.79328
    368.412    3.71233    1.92674
    368.978    4.27802    2.06834
    369.545    6.56548    2.56232
    370.112    8.62444    2.93674
    370.681    6.33693    2.51733
     371.25    10.8618    3.29572
    371.821    13.3266    3.65056
    372.392    20.9871    4.58117
    372.964    17.9007    4.23092
    373.537    7.34241    2.70969
    374.111    3.01635    1.73676
    374.685    2.23946    1.49648
    375.261    2.59946    1.61228
    375.837     3.2583    1.80508
    376.415    4.88595    2.21042
    376.993    3.86597    1.96621
    377.572    2.95479    1.71895
    378.152    8.47639    2.91142
    378.733    13.8695    3.72418
    379.315     14.502    3.80815
    379.898    22.4331    4.73636
    380.481    30.2493    5.49993
    381.066     35.369    5.94718
    381.651    36.1273     6.0106
    382.238     12.002    3.46439
    382.825    7.72296    2.77902
    383.413   0.763707   0.873903
    384.002  0.0337968   0.183839
    384.592         0.         0.
    385.183   0.247718   0.497712
    385.774         0.         0.
    386.367         0.         0.
    386.961   0.191959   0.438132
    387.555   0.268224   0.517904
     388.15         0.         0.
    388.747         0.         0.
    389.344         0.         0.
    389.942         0.         0.
    390.541         0.         0.
    391.141         0.         0.
    391.742         0.         0.
    392.344         0.         0.
    392.947 0.00477888  0.0691294
     393.55         0.         0.
    394.155   0.225469   0.474835
     394.76  0.0474426   0.217813
    395.367         0.         0.
    395.974     1.3329    1.15451
    396.582   0.282555   0.531559
    397.192   0.941538   0.970329
    397.802   0.284044   0.532958
    398.413   0.227174   0.476627
    399.025   0.291046   0.539487
    399.638   0.228811   0.478341
    400.252  0.0473797   0.217669
    400.867   0.250686   0.500686
    401.483   0.532456   0.729696
    402.099   0.076662   0.276879
    402.717   0.281539   0.530603
    403.336    1.22709    1.10774
    403.955   0.555238   0.745143
    404.576         0.         0.
    405.197    0.90578   0.951725
     405.82 0.00599564  0.0774315
    406.443   0.974218   0.987025
    407.068    1.00943     1.0047
    407.693      1.711    1.30805
     408.32    1.72059    1.31171
    408.947    1.57918    1.25666
    409.575    1.08143    1.03992
    410.204    2.07777    1.44145
    410.834    1.40117    1.18371
    411.466    3.04657    1.74544
    412.098     3.0406    1.74373
    412.731    2.49923    1.58089
    413.365    2.77982    1.66728
       414.    3.42541    1.85079
    414.636     4.1571     2.0389
    415.273    9.11751    3.01952
    415.911    13.2882    3.64529
     416.55    16.8409    4.10377
     417.19    15.9535    3.99418
    417.831    9.55286    3.09077
    418.472    4.51428    2.12468
    419.115    1.73263    1.31629
    419.759   0.594106   0.770783
    420.404   0.204488   0.452203
     421.05   0.964524   0.982102
    421.697   0.807911   0.898839
    422.344   0.822326   0.906822
    422.993    1.21468    1.10212
    423.643    1.77975    1.33407
    424.294    1.55468    1.24687
    424.946    1.35856    1.16557
    425.599    2.54484    1.59526
    426.252    3.41225    1.84723
    426.907    2.17993    1.47646
    427.563    3.11115    1.76385
     428.22    5.21852    2.28441
    428.878    3.18058    1.78342
    429.537    6.17998    2.48596
    430.196    12.2802    3.50432
    430.857    11.9264    3.45346
    431.519     18.786    4.33428
    432.182    19.1533    4.37644
    432.846    23.4802    4.84564
    433.511    12.6137    3.55158
    434.177    9.65435    3.10715
    434.844    2.77113    1.66467
    435.512    2.97692    1.72538
    436.181    2.44838    1.56473
    436.851    3.37087    1.83599
    437.522    4.92533    2.21931
    438.194    5.77161    2.40242
    438.868    4.81823    2.19505
    439.542    9.21812    3.03614
    440.217    16.5728    4.07098
    440.893    17.5368     4.1877
    441.571    22.9035    4.78576
    442.249    21.1234    4.59602
    442.928    17.1015    4.13539
    443.609    11.3657     3.3713
     444.29    3.72486    1.92999
    444.973    1.93322     1.3904
    445.656   0.461231    0.67914
    446.341   0.669506   0.818233
    447.027 0.00399222  0.0631841
    447.713   0.271185   0.520755
    448.401    1.04597    1.02273
     449.09   0.527681   0.726417
     449.78   0.222947   0.472172
    450.471    1.56267    1.25007
    451.163         0.         0.
    451.856   0.791417   0.889616
     452.55   0.266542   0.516277
    453.245   0.476093   0.689995
    453.942   0.958778   0.979172
    454.639   0.743304   0.862151
    455.338    1.28079    1.13172
    456.037   0.405426   0.636731
    456.738   0.893068   0.945023
    457.439   0.225823   0.475209
    458.142    1.13949    1.06747
    458.846   0.403401   0.635139
    459.551    1.38109     1.1752
    460.257     1.4176    1.19063
    460.964    1.14207    1.06868
    461.672     2.2041    1.48462
    462.381    0.87364   0.934687
    463.091    3.88978    1.97225
    463.803    4.38465    2.09396
    464.515    4.97517    2.23051
    465.229    4.04248    2.01059
    465.944     5.4592    2.33649
    466.659    6.97005    2.64009
    467.376    10.9167    3.30405
    468.094    7.37474    2.71565
    468.813    5.67784    2.38282
    469.534   0.597238   0.772812
    470.255   0.520842   0.721694
    470.977    1.64375    1.28209
    471.701    1.21299    1.10136
    472.426    1.40102    1.18365
    473.151    2.12383    1.45734
    473.878    1.80179    1.34231
    474.606     1.9622    1.40079
    475.335       2.56        1.6
    476.066    2.77427    1.66561
    476.797    3.80839    1.95151
    477.529    5.62728    2.37219
    478.263    8.28887    2.87904
    478.998    11.6229    3.40923
    479.734    12.6786     3.5607
    480.471    15.1951    3.89809
    481.209    12.4106    3.52287
    481.948    5.92413    2.43395
    482.688    1.78668    1.33667
     483.43   0.235566   0.485352
    484.173         0.         0.
    484.916   0.453794   0.673642
    485.661   0.483862   0.695602
    486.407   0.238468   0.488332
    487.155   0.448493   0.669696
    487.903         0.         0.
    488.653         0.         0.
    489.403  0.0132985   0.115319
    490.155   0.759395   0.871433
    490.908   0.293049    0.54134
    491.662   0.786867   0.887055
    492.417   0.311536   0.558154
    493.174   0.320436   0.566071
    493.932   0.744394   0.862782
     494.69    1.25335    1.11953
     495.45    1.45252    1.20521
    496.211    1.01549    1.00771
    496.974    1.11045    1.05378
    497.737   0.493573   0.702548
    498.502    1.23847    1.11286
    499.268   0.983431   0.991681
    500.035    2.04509    1.43007
    500.803    3.16708    1.77963
    501.572    4.02555    2.00638
    502.343    3.08274    1.75577
    503.114    3.92309    1.98068
    503.887    1.97688    1.40602
    504.661    3.52923    1.87862
    505.437    5.23174     2.2873
    506.213    3.09731    1.75992
    506.991    6.37951    2.52577
     507.77    7.00572    2.64683
     508.55    9.33223    3.05487
    509.331    11.4317    3.38107
    510.113    9.54868    3.09009
    510.897    1.35901    1.16576
    511.682   0.730587   0.854744
    512.468   0.784642     0.8858
    513.255   0.183447   0.428307
    514.044         0.         0.
    514.833  0.0518524   0.227711
    515.624         0.         0.
    516.417   0.263668   0.513486
     517.21   0.321382   0.566905
    518.004         0.         0.
      518.8         0.         0.
    519.597    0.54871    0.74075
    520.395 0.00202706  0.0450229
    521.195    1.44643    1.20267
    521.996   0.988635   0.994301
    522.797   0.507289   0.712242
    523.601    0.25273   0.502722
    524.405   0.682267   0.825995
    525.211   0.493187   0.702273
    526.017   0.643392   0.802117
    526.826   0.673374   0.820593
    527.635   0.234188    0.48393
    528.445   0.354137   0.595094
    529.257   0.771175   0.878166
     530.07    2.00779    1.41696
    530.885    1.24891    1.11755
      531.7    1.45781     1.2074
    532.517   0.735038   0.857343
    533.335    2.12888    1.45907
    534.154    2.96085    1.72071
    534.975    4.13259    2.03288
    535.797    4.67459    2.16208
     536.62    6.61082    2.57115
    537.444    8.26265    2.87448
     538.27    10.7919    3.28511
    539.097    8.76507    2.96059
    539.925    4.12934    2.03208
    540.754    3.65138    1.91086
    541.585    1.51311    1.23009
    542.417     2.4649       1.57
     543.25     2.3885    1.54548
    544.085    3.56653    1.88853
    544.921     4.2868    2.07046
    545.758    6.01613    2.45278
    546.596    3.77683    1.94341
    547.436     1.0859    1.04207
    548.277   0.949672   0.974511
    549.119   0.488717   0.699083
    549.963    0.81839   0.904649
    550.808    0.63146   0.794645
    551.654   0.796794   0.892633
    552.502   0.606332   0.778673
     553.35   0.824211   0.907861
      554.2    1.04596    1.02272
    555.052    1.02315    1.01151
    555.904    1.26913    1.12655
    556.758    3.57853     1.8917
    557.614    1.57184    1.25373
     558.47     1.9858    1.40919
    559.328    3.04763    1.74575
    560.188    3.32788    1.82425
    561.048    3.63689    1.90706
     561.91    4.59355    2.14326
    562.773     6.1254    2.47495
    563.638    10.7654    3.28107
    564.504    12.2736    3.50337
    565.371    19.5528    4.42186
    566.239    12.8129    3.57951
    567.109    11.9948    3.46336
    567.981    5.04655    2.24645
    568.853    1.81805    1.34835
    569.727    1.96347    1.40124
    570.602    1.35651    1.16469
    571.479     1.7243    1.31313
    572.357    4.66561       2.16
    573.236    2.13726    1.46194
    574.117    4.18555    2.04586
    574.999    3.85725    1.96399
    575.882    9.38697    3.06382
    576.767    10.8209    3.28952
    577.653    17.2688    4.15558
     578.54    14.7949    3.84641
    579.429    13.6475    3.69426
    580.319    8.42088    2.90187
    581.211   0.729736   0.854246
    582.103    1.55632    1.24753
    582.998   0.405919   0.637118
    583.893    1.03123     1.0155
     584.79         0.         0.
    585.689         0.         0.
    586.588   0.236239   0.486044
    587.489    0.64137   0.800856
    588.392    0.21648   0.465274
    589.296   0.485135   0.696517
    590.201   0.211887   0.460311
    591.108         0.         0.
    592.016   0.966492   0.983103
    592.926   0.502511    0.70888
    593.836   0.841304   0.917226
    594.749   0.281758   0.530809
    595.662  0.0300606    0.17338
    596.577   0.420522   0.648477
    597.494         0.         0.
    598.412   0.775449   0.880596
    599.331         0.         0.
    600.252    2.03249    1.42565
    601.174   0.548556   0.740646
    602.097   0.935809   0.967372
    603.022    1.80783    1.34456
    603.949    1.69031    1.30012
    604.877    1.98791    1.40993
    605.806    3.07786    1.75438
    606.736    3.51455    1.87471
    607.669    5.88812    2.42655
    608.602    8.01119     2.8304
    609.537    8.21461    2.86612
    610.473    3.89286    1.97303
    611.411    2.57417    1.60442
    612.351    3.54871     1.8838
    613.291    1.13934     1.0674
    614.233    1.46933    1.21216
    615.177    2.08615    1.44435
    616.122     4.5188    2.12575
    617.069    5.16481    2.27262
    618.017     3.9232    1.98071
    618.966    8.71563    2.95222
    619.917    10.1023    3.17842
    620.869    11.8152    3.43732
    621.823    5.52417    2.35035
    622.778    1.44193     1.2008
    623.735    1.16485    1.07928
    624.693    0.52809   0.726698
    625.653  0.0601464   0.245248
    626.614         0.         0.
    627.577   0.237229   0.487061
    628.541    1.47567    1.21477
    629.506   0.657317   0.810751
    630.473    1.09447    1.04617
    631.442    1.71294    1.30879
    632.412    1.54591    1.24335
    633.384    2.78971    1.67024
    634.357    3.76801    1.94114
    635.331    4.12774    2.03168
    636.307    4.55977    2.13536
    637.285    5.79934    2.40818
    638.264    6.20154    2.49029
    639.244    10.6641     3.2656
    640.226    12.2436    3.49908
     641.21     9.1024    3.01702
    642.195    7.16757    2.67723
    643.181    2.89866    1.70254
    644.169    2.30927    1.51963
    645.159    1.07709    1.03783
     646.15   0.789503    0.88854
    647.143    1.39033    1.17912
    648.137    3.18392    1.78435
    649.133    3.64105    1.90815
     650.13    5.24909    2.29109
    651.129    4.52542     2.1273
    652.129    5.82323    2.41314
    653.131    2.59786    1.61179
    654.134    5.38819    2.32125
    655.139    4.71459    2.17131
    656.145    6.60233     2.5695
    657.153    8.24858    2.87203
    658.163    7.50877    2.74021
    659.174    11.3132    3.36351
    660.187    7.40943    2.72203
    661.201    3.08116    1.75532
    662.217   0.779611   0.882956
    663.234 0.00929117  0.0963907
    664.253         0.         0.
    665.273     1.1567     1.0755
    666.295    1.34814    1.16109
    667.319   0.736032   0.857923
    668.344    1.61824     1.2721
    669.371    2.62798    1.62111
    670.399    0.46067   0.678726
    671.429    1.45648    1.20685
    672.461    4.90314     2.2143
    673.494    6.28511    2.50701
    674.528    6.34382     2.5187
    675.564     5.2402    2.28915
    676.602    6.62289     2.5735
    677.642    7.05898    2.65687
    678.683    4.44732    2.10887
    679.725    2.06188    1.43592
     680.77   0.519849   0.721006
    681.815   0.847185   0.920427
    682.863   0.997691   0.998845
    683.912    0.69035   0.830873
    684.962   0.805202    0.89733
    686.015   0.659074   0.811834
    687.069    1.11487    1.05588
    688.124     1.8101     1.3454
    689.181     3.1567    1.77671
     690.24    3.82013    1.95452
      691.3    5.01546    2.23952
    692.362    5.92674    2.43449
    693.426    6.49889    2.54929
    694.491    7.69565     2.7741
    695.558    4.18208    2.04501
    696.627    4.72453     2.1736
    697.697   0.822048   0.906669
    698.769   0.503704   0.709721
    699.842   0.828507   0.910224
    700.917    1.53961    1.24081
    701.994   0.535845   0.732015
    703.073    2.24989    1.49996
    704.153    1.60767    1.26794
    705.234    4.14757    2.03656
    706.318    5.75856     2.3997
    707.403    5.89375     2.4277
     708.49     9.6179    3.10127
    709.578    9.21609     3.0358
    710.668    3.56427    1.88793
     711.76    3.63485    1.90653
    712.853    2.41315    1.55343
    713.948   0.434608   0.659248
    715.045    1.59381    1.26246
    716.144    2.63054    1.62189
    717.244    2.62369    1.61978
    718.346    3.67595    1.91728
    719.449    4.76818    2.18362
    720.554    6.55288    2.55986
    721.661    9.40548    3.06684
     722.77    6.14151    2.47821
     723.88    7.00753    2.64717
    724.992    3.30962    1.81924
    726.106    4.35771    2.08751
    727.222     2.3423    1.53046
    728.339    1.53665    1.23962
    729.458   0.796565   0.892505
    730.578   0.945162   0.972194
    731.701  0.0663934   0.257669
    732.825   0.393254     0.6271
    733.951  0.0638058   0.252598
    735.078     1.5326    1.23798
    736.207   0.730725   0.854825
    737.338   0.543381   0.737144
    738.471   0.925221   0.961884
    739.605         0.         0.
    740.742    1.90857    1.38151
     741.88   0.801496   0.895263
    743.019    3.41876    1.84899
    744.161    2.61896    1.61832
    745.304    1.83724    1.35545
    746.449     2.2246    1.49151
    747.596    3.26824    1.80783
    748.744    3.37589    1.83736
    749.894    1.48956    1.22048
    751.046    1.13321    1.06452
      752.2    2.56423    1.60132
    753.356    2.08363    1.44348
    754.513    2.81723    1.67846
    755.672   0.554196   0.744444
    756.833   0.878191   0.937119
    757.996   0.523348   0.723428
     759.16     1.5034    1.22613
    760.327   0.212466    0.46094
    761.495   0.979971   0.989935
    762.664    1.34219    1.15853
    763.836   0.950101   0.974731
    765.009    2.55324    1.59789
    766.185    1.84965    1.36002
    767.362    2.02249    1.42214
    768.541    3.30274    1.81734
    769.721    5.43653    2.33164
    770.904    4.96388    2.22798
    772.088    6.57425    2.56403
    773.274    5.41164    2.32629
    774.462    10.4074    3.22605
    775.652     4.4392    2.10694
    776.843    3.47862    1.86511
    778.037    2.12824    1.45885
    779.232    1.59037     1.2611
    780.429   0.467177   0.683504
    781.628    1.10216    1.04984
    782.829   0.106924   0.326992
    784.031    1.69836    1.30321
    785.236   0.306182   0.553337
    786.442    2.30792    1.51918
     787.65    3.80622    1.95095
     788.86    6.97051    2.64017
    790.072    5.97127    2.44362
    791.286    4.96908    2.22914
    792.502    8.90444    2.98403
    793.719      4.093    2.02312
    794.938    3.13405    1.77033
     796.16    1.29548    1.13819
    797.383   0.823371   0.907398
    798.608    1.32736    1.15211
    799.834    3.33909    1.82732
    801.063    1.44666    1.20277
    802.294    2.16193    1.47035
    803.526    2.56018    1.60006
    804.761    1.16702    1.08029
    805.997    3.89715    1.97412
    807.235    4.03584    2.00894
    808.475    4.54846    2.13271
    809.717    5.17051    2.27388
    810.961    4.58874    2.14214
    812.207     3.4381    1.85421
    813.455    3.29502    1.81522
    814.705    1.14613    1.07058
    815.956    1.79798    1.34089
     817.21   0.985409   0.992678
    818.465    1.52593    1.23528
    819.722    2.13058    1.45965
    820.982    1.20136    1.09607
    822.243    3.41521    1.84803
    823.506    2.72561    1.65094
    824.771    3.80828    1.95148
    826.038    3.03582    1.74236
    827.307    4.34777    2.08513
    828.578    3.34756    1.82963
    829.851    7.64042    2.76413
    831.126    9.02543    3.00424
    832.403    5.12659     2.2642
    833.681    6.06583    2.46289
    834.962    1.84496    1.35829
    836.245    1.33586    1.15579
     837.53   0.519106    0.72049
    838.816   0.568638   0.754081
    840.105   0.460828   0.678843
    841.395   0.236528   0.486342
    842.688    1.29849    1.13951
    843.983   0.383131   0.618976
    845.279    0.78793   0.887654
    846.578         0.         0.
    847.878    2.23682     1.4956
    849.181   0.492147   0.701532
    850.485    1.22254    1.10569
    851.792   0.184739   0.429813
      853.1   0.801596   0.895319
    854.411   0.959716   0.979651
    855.724   0.652792   0.807956
    857.038   0.458676   0.677256
    858.355    0.93421   0.966546
    859.673   0.211198   0.459563
    860.994   0.544743   0.738067
    862.317   0.768132   0.876431
    863.641     1.1437    1.06944
    864.968    2.84979    1.68813
    866.297    3.09178    1.75835
    867.628    1.24346    1.11511
    868.961     1.7349    1.31716
    870.296    3.95691     1.9892
    871.633   0.815103   0.902831
    872.972   0.621529   0.788371
    874.313   0.760848   0.872266
    875.656   0.500517   0.707472
    877.001   0.943828   0.971508
    878.348   0.563658   0.750772
    879.698   0.221711   0.470861
    881.049   0.261235   0.511111
    882.403    1.03502    1.01736
    883.758   0.823475   0.907455
    885.116    1.05859    1.02888
    886.476    2.06238     1.4361
    887.837    1.02332     1.0116
    889.201   0.722227   0.849839
    890.567    4.12059    2.02992
    891.936    2.12272    1.45696
    893.306    1.51807     1.2321
    894.678   0.540571   0.735235
    896.053    1.35424    1.16372
    897.429    2.77429    1.66562
    898.808   0.290367   0.538857
    900.188    0.17826   0.422208
    901.571   0.870314   0.932906
    902.956   0.754087   0.868382
    904.344    1.56874    1.25249
    905.733   0.543507   0.737229
    907.124   0.362177   0.601811
    908.518   0.326435   0.571345
    909.914   0.130584   0.361364
    911.311         0.         0.
    912.711    0.23832    0.48818
    914.113   0.658709   0.811609
    915.518   0.268501   0.518171
    916.924   0.915324   0.956726
    918.333    1.10138    1.04947
    919.744   0.533213   0.730214
    921.157   0.530394   0.728282
    922.572  0.0588863   0.242665
    923.989    1.13803    1.06678
    925.408    1.26718    1.12569
     926.83   0.208989   0.457154
    928.254    1.31872    1.14835
     929.68    1.85618    1.36242
    931.108    1.42186    1.19242
    932.539    4.68339    2.16411
    933.971     2.7458    1.65704
    935.406    3.01761    1.73713
    936.843    1.58893    1.26053
    938.282    2.03397    1.42617
    939.724    3.88418    1.97083
    941.167    1.44938     1.2039
    942.613    1.87265    1.36845
    944.061    1.19782    1.09445
    945.511     2.1623    1.47048
    946.964    4.86475    2.20562
    948.419    2.86557     1.6928
    949.876    9.84524    3.13771
    951.335    7.55414    2.74848
    952.796    7.92459    2.81507
     954.26     7.6793    2.77115
    955.726    6.08124    2.46602
    957.194    4.11926     2.0296
    958.665    4.05165    2.01287
    960.138    3.83313    1.95784
    961.613    2.53573     1.5924
     963.09    1.57417    1.25466
    964.569     1.6707    1.29256
    966.051    2.91682    1.70787
    967.535    4.38798    2.09475
    969.022    3.72321    1.92956
     970.51    2.61977    1.61857
    972.001    4.37522     2.0917
    973.494     6.6794    2.58445
     974.99    4.80009    2.19091
    976.488    4.67704    2.16265
    977.988    2.53782    1.59306
     979.49    1.38342    1.17619
    980.995      1.072    1.03538
    982.502    1.36005    1.16621
    984.011     2.5317    1.59113
    985.523    2.74523    1.65687
    987.037   0.262816   0.512656
    988.553    1.34676     1.1605
    990.072    2.79794     1.6727
    991.593    1.57436    1.25474
    993.116    2.16031     1.4698
    994.642    5.76403    2.40084
     996.17     4.2293    2.05653
      997.7    7.27684    2.69756
    999.233    7.63077    2.76239
    1000.77         0.         0.
    1075.73    3.42402  0.0355878
     1235.1    1.94918  0.0225589
    1418.08    3.35661  0.0359937
    1628.18    1.99808  0.0250467
     1869.4    2.10211  0.0265905
    2146.36    1.97654  0.0279877
    2464.35    1.69358  0.0249851
    2829.45    1.44694  0.0225422
    3248.64    1.43046  0.0229415
    3729.94    1.51696  0.0242892
    4282.55     1.3364  0.0220242
    4917.02    1.26344  0.0219996
    5645.49    1.22106  0.0239173
     6481.9    1.17853  0.0227868
    7442.21   0.996706  0.0205803
     8544.8    0.91633   0.019949
    9810.74   0.890059  0.0195604
    11264.2   0.829934  0.0196398
    12933.1   0.773557  0.0189981
    14849.2   0.781996  0.0192596
    17049.1   0.704075  0.0181331
     19575.    0.67156  0.0176998
    22475.1   0.678542  0.0177952
    25804.9   0.640452  0.0170774
     29628.   0.572408  0.0135417
    34017.5   0.551564  0.0329638
    39057.3   0.553734  0.0277353
    44843.8   0.487927  0.0179473
    51487.5   0.465537  0.0160726
    59115.6   0.390588  0.0139177
    67873.8   0.377057  0.0121309
    77929.5   0.323037  0.0118578
    89475.1   0.328105   0.032134
    102731.   0.283162  0.0147033
    117951.   0.249536  0.0118274
    135426.   0.217367  0.0108137
    155490.   0.218581  0.0212067
    178526.   0.239462  0.0123463
    204976.   0.212455  0.0134105
    235343.   0.173721  0.0105583
    270210.   0.166671 0.00884975
    310243.   0.189595 0.00989879
    356207.   0.179089 0.00889226
    408980.   0.143858  0.0102825
    469572.   0.178901  0.0110968
    539141.   0.139236 0.00925976
    619016.   0.147656 0.00833799
    710726.   0.133105 0.00589074
ENDDATA           3051
ENDSUBENT         3060
SUBENT        14481003   20171008   20180402   20180328       1438
BIB                  4         14
REACTION  1(92-U-236(N,0),,EN)
          2(92-U-236(N,G),,WID)
          3(92-U-236(N,EL),,WID)
STATUS     (TABLE) Data taken from tab.2 of the reference
           (DEP,14481002)
ANALYSIS   Resonance parameters were obtained by cross section
           analysis using code SAMMY
ERR-ANALYS (DATA-ERR)Total uncertainty,the components of resonance
           parameter uncertainty were experimental, resolution
           function, time zero, sample thickness, burst width,
           and flight path length. They were propagated into
           resonance energy and neutron width uncertainties
           through use of the propagated uncertainty parameters
             (PUP) feature in SAMMY.
ENDBIB              14
NOCOMMON             0          0
DATA                 6         59
DATA      1DATA-ERR  1DATA      2DATA-ERR  2DATA      3DATA-ERR  3
EV         EV         MILLI-EV   MILLI-EV   MILLI-EV   MILLI-EV
     29.865      0.002       18.6        1.7       0.52      0.03
     34.133      0.002       21.8        1.6       1.63      0.03
     43.891      0.002       14.6        0.1       27.0       1.4
      63.51       0.05       19.8        1.0     0.0364    0.0006
     71.439      0.003       17.4        1.5       14.4       1.1
      76.85       0.04       19.1        1.7      0.329     0.009
     86.457      0.004       15.7        0.9       24.8       2.2
    102.203      0.003       18.2        1.2       0.55      0.06
    120.847      0.003       16.6        1.6       47.7       4.2
    124.817      0.004       17.8        1.2       15.3       2.0
    134.450      0.002       19.5        1.8       0.90      0.09
    137.646      0.003       19.4        1.8       0.49      0.05
    164.617      0.004       19.5        1.8        1.8       0.2
    192.594      0.002       19.1        1.8        3.6       0.4
    194.166      0.006       20.4        2.0        46.       4.0
     212.57       0.02       18.9        1.7        73.       7.0
     230.09       0.01       19.3        1.9        1.7       0.2
     272.79       0.03       14.4        1.2       22.4       2.3
    288.519      0.004       24.9        2.5       10.7       1.1
     302.96       0.04       21.5        1.7       72.3       7.1
    320.309      0.002       19.3        1.9        4.6       0.5
    334.695      0.002       19.5        2.0        5.0       0.5
    370.828      0.004       24.0        2.4       12.7       1.3
     379.46       0.01       19.6        1.9       88.3       8.8
    415.117      0.004       16.6        1.7       15.4       1.6
     430.59       0.02       19.6        2.0       56.2       5.6
    440.021      0.007       22.0        2.1       59.7       5.9
    464.575      0.005       17.0        1.7       14.1       1.4
     478.15       0.01       19.5        1.9       37.4       3.6
     500.43       0.04       19.5        1.9       2.15       2.2
    506.581      0.005       16.1        1.6       17.6       2.0
     536.11       0.01       17.4        1.8       29.1       2.9
    542.652      0.003       13.6        1.4       9.16      0.92
    563.215      0.009       20.9        2.1       76.5       7.7
     575.53       0.03       22.2        2.2      148.6       9.8
    606.144      0.003       15.4        1.5       13.1       1.3
    616.819      0.007       20.5        2.1       42.1       4.2
     637.19       0.01       20.8        2.1       64.8       6.4
     646.90       0.01       18.7        1.9        6.0       0.6
     654.45       0.01       21.8        2.2       88.4       9.0
     673.13       0.02       19.5        2.0       48.3       4.8
     690.58       0.03       18.8        1.9       29.1       2.9
    705.105      0.008       21.0        2.1       28.8       2.9
     719.87       0.01       20.1        2.0       97.4       9.7
    745.485      0.007       17.5        1.8       20.1       2.0
     769.65       0.03       21.7        2.2      182.0       9.8
     788.28       0.02       20.6        2.1       80.7       8.1
    805.692      0.008       20.0        2.0       37.0       0.4
    820.156      0.006       12.3        1.2        7.4       0.7
     826.93       0.07       27.9        2.8      109.2       8.4
     864.11       0.01       17.1        1.7       16.5       1.6
    883.570      0.005       19.5        2.0       8.15      0.81
     899.19       0.02       19.5        2.0       6.33      0.63
    929.471      0.005       15.7        1.6       7.31      0.73
     945.99       0.02       24.0        2.4       157.      15.0
     953.60       0.02       18.8        1.9       36.3       3.6
     968.11       0.02       23.2        2.2       317.      31.0
      993.5        0.1       22.0        2.2       152.      15.0
     998.69       0.01       13.7        1.4        9.0       0.9
ENDDATA             61
ENDSUBENT           80
ENDENTRY             3
