ENTRY            F0602   20040413
SUBENT        F0602001   20040413
BIB                 12         25
TITLE      Backangle anomaly in scattering of alpha particles
           from 28Si at low energies.
AUTHOR     (A.Coban,F.Z.Khiari,M.S.Abdelmonem,A.Aksoy,A.A.Naqvi)
INSTITUTE  (3SARDHA)
REFERENCE  (J,NP/A,678,3,2000)
FACILITY   (ACCEL)  KFUPM Tandetron Accelerator
DETECTOR   (SIBAR) An ORTEC 76 scattering chamber was used with
           six 100 micron detectors on its rotating table.
SAMPLE     A 200-900 nm thick layer of natural silicon was
           evaporated on a carbon foil a 40 mu-g/cm2 thickness.
           The silicon layer was  then coated with a layer
           of gold with a thickness of about 6 nm.
METHOD     (TTM)
MONITOR    The data was recorded as the yield-ratio of silicon
           scattered alpha-particles to those scattered from
           gold (Ysi/Yau). The differential cross sections were
           determined by normalilising the yield ratio (Ysi/Yau)
           data to a similar data at 3.0 MeV where the scatterings
           of alpha-particles on 28Si were verified by an angular
           distribution to be pure Rutherford.
ANALYSIS   Regge-pole method.
ERR-ANALYS (ERR-S)  Statistical uncerrtainty
           (ERR-DIG)   Digitizing error
           (DATA-ERR1)  Errors from the graphic bars
HISTORY    (20031022C)
ENDBIB              25
COMMON               3          3
EN-NRM     EN-RSL     ERR-S
MEV        KEV        PER-CENT
 3.0        2.         7.
ENDCOMMON            3
ENDSUBENT           32
SUBENT        F0602002   20040413
BIB                  3          3
REACTION   (14-SI-28(A,EL)14-SI-28,,DA,,RTH)
ERR-ANALYS (EN-ERR-DIG) Digitizing error
STATUS     (CURVE)Fig.2
ENDBIB               3
COMMON               2          3
EN-ERR-DIG ERR-DIG
MEV        NO-DIM
 0.01       0.01
ENDCOMMON            3
DATA                 4        632
ANG        EN         DATA       DATA-ERR1
ADEG       MEV        NO-DIM     NO-DIM
 130.00     3.0260     1.1190    0.11110
 130.00     3.0650     1.1340    0.10320
 130.00     3.1610     1.1250    0.63490E-01
 130.00     3.2080     1.1400    0.55560E-01
 130.00     3.2500     1.1230    0.71430E-01
 130.00     3.3540     1.1380    0.63490E-01
 130.00     3.4160     1.0730    0.47620E-01
 130.00     3.4630     1.1360    0.47620E-01
 130.00     3.5130     1.0800    0.39680E-01
 130.00     3.5570     1.1350    0.55520E-01
 130.00     3.6090     1.0940    0.39680E-01
 130.00     3.6510     1.1090    0.71430E-01
 130.00     3.7050     1.0690    0.47620E-01
 130.00     3.7390     1.0840    0.55560E-01
 130.00     3.7890     1.0910    0.47620E-01
 130.00     3.8620     1.0820    0.47620E-01
 130.00     3.9060     1.0740    0.47620E-01
 130.00     3.9500     1.1440    0.47620E-01
 130.00     4.0000     1.0800    0.39680E-01
 130.00     4.0520     1.1750    0.55560E-01
 130.00     4.1010     1.0940    0.47620E-01
 130.00     4.1410     1.1020    0.55560E-01
 130.00     4.1980     1.1170    0.63490E-01
 130.00     4.2370     1.0920    0.47580E-01
 130.00     4.2730     1.0920    0.47620E-01
 130.00     4.2990     1.0920    0.55560E-01
 130.00     4.3230     1.0750    0.63490E-01
 130.00     4.3520     1.0670    0.47620E-01
 130.00     4.3980     1.0110    0.55560E-01
 130.00     4.4500     1.0260    0.47620E-01
 130.00     4.5130     1.0410    0.39680E-01
 130.00     4.5470     1.0400    0.55560E-01
 130.00     4.5700     1.0400    0.47620E-01
 130.00     4.5990     1.0230    0.47620E-01
 130.00     4.6350     1.0230    0.47620E-01
 130.00     4.6950     1.0220    0.47620E-01
 130.00     4.7500    0.91010    0.47620E-01
 130.00     4.8020     1.1160    0.47660E-01
 130.00     4.8520     1.2100    0.71430E-01
 130.00     4.8990     1.1300    0.55560E-01
 130.00     4.9540     1.2640    0.63490E-01
 130.00     4.9850     1.1920    0.55560E-01
 130.00     5.0030     1.1520    0.71390E-01
 130.00     5.0550     1.1360    0.47580E-01
 130.00     5.1020     1.1910    0.87300E-01
 130.00     5.2010     1.0460    0.71470E-01
 130.00     5.2420     1.1410    0.47620E-01
 130.00     5.2790     1.0930    0.87300E-01
 130.00     5.3000     1.0130    0.63490E-01
 130.00     5.3280     1.1080    0.95280E-01
 130.00     5.3540     1.1070    0.10320
 130.00     5.3810     1.2100    0.87340E-01
 130.00     5.3910     1.0590    0.11110
 130.00     5.4190    0.97140    0.95240E-01
 130.00     5.4530     1.0660    0.11910
 130.00     5.4660    0.97860    0.10320
 130.00     5.5000    0.92260    0.71430E-01
 130.00     5.5500    0.91390    0.63450E-01
 130.00     5.5970     1.0000    0.63490E-01
 130.00     5.6490     1.0950    0.71430E-01
 130.00     5.6980     1.0310    0.63490E-01
 130.00     5.7510     1.2440    0.95280E-01
 130.00     5.8000     1.1240    0.71430E-01
 130.00     5.8390     1.1790    0.47620E-01
 130.00     5.8990     1.0510    0.71430E-01
 130.00     5.9400     1.0510    0.71430E-01
 130.00     5.9480    0.90790    0.39680E-01
 130.00     5.9710    0.39960    0.31750E-01
 130.00     5.9950    0.74840    0.47660E-01
 130.00     6.0240     1.2880    0.55590E-01
 130.00     6.0420    0.86680    0.47620E-01
 130.00     6.0710     1.4140    0.63490E-01
 130.00     6.0880     1.8420    0.71470E-01
 130.00     6.1010     1.6600    0.11910
 130.00     6.1100     1.0720    0.55560E-01
 130.00     6.1220    0.80200    0.47620E-01
 130.00     6.1470     1.1830    0.10320
 130.00     6.1690    0.85690    0.39680E-01
 130.00     6.1950    0.80890    0.55560E-01
 130.00     6.2500    0.68110    0.47660E-01
 130.00     6.2970    0.95820    0.87340E-01
 130.00     6.3430     1.7270    0.71430E-01
 130.00     6.4010    0.71850    0.79360E-01
 130.00     6.4490     1.2260    0.63530E-01
 130.00     6.4980    0.95510    0.79400E-01
 130.00     6.5500    0.91470    0.21430
 130.00     6.5990    0.68370    0.55590E-01
 130.00     6.6280    0.79440    0.55560E-01
 130.00     6.6530     1.7780    0.11910
 130.00     6.6780     1.4520    0.95280E-01
 130.00     6.6980    0.87270    0.87260E-01
 130.00     6.7220    0.76920    0.39680E-01
 130.00     6.7310     1.5710    0.11910
 130.00     6.7420    0.62600    0.39680E-01
 130.00     6.7790    0.79210    0.87300E-01
 130.00     6.7890    0.70470    0.39640E-01
 130.00     6.7920    0.48240    0.55560E-01
 130.00     6.8380    0.45790    0.10320
 130.00     6.8430    0.28320    0.63530E-01
 130.00     6.8570    0.94170    0.63490E-01
 130.00     6.8620    0.45750    0.55560E-01
 130.00     6.8780    0.63990    0.79370E-01
 130.00     6.8980    0.59190    0.71390E-01
 130.00     6.9170    0.71070    0.87340E-01
 130.00     6.9380    0.91670    0.63530E-01
 130.00     6.9480    0.64670    0.47580E-01
 130.00     6.9590     1.1940    0.71430E-01
 130.00     6.9900    0.47150    0.47620E-01
 130.00     7.0520    0.48640    0.55560E-01
 130.00     7.0910    0.63660    0.55670E-01
 130.00     7.1020    0.71580    0.47620E-01
 130.00     7.1460    0.66750    0.47620E-01
 130.00     7.1930    0.78590    0.63490E-01
 130.00     7.3040    0.16510    0.47620E-01
 130.00     7.4040    0.36210    0.23810E-01
 130.00     7.5020    0.20980    0.39680E-01
 130.00     7.6060    0.20030    0.71430E-01
 130.00     7.7080    0.17490    0.55560E-01
 140.00     3.0590     1.1850    0.55420E-01
 140.00     3.1650     1.1120    0.94970E-01
 140.00     3.2040     1.0640    0.63340E-01
 140.00     3.2620     1.1420    0.79130E-01
 140.00     3.2670     1.0710    0.63250E-01
 140.00     3.3110     1.0860    0.79180E-01
 140.00     3.3580     1.1410    0.47510E-01
 140.00     3.4130     1.0370    0.47510E-01
 140.00     3.4130     1.1400    0.63340E-01
 140.00     3.4630     1.1150    0.47510E-01
 140.00     3.5120     1.0510    0.55470E-01
 140.00     3.5620     1.1530    0.63390E-01
 140.00     3.6110     1.0330    0.63340E-01
 140.00     3.6580     1.1040    0.55420E-01
 140.00     3.7050     1.0000    0.63340E-01
 140.00     3.7550     1.0710    0.47510E-01
 140.00     3.7960     1.0860    0.55420E-01
 140.00     3.8090     1.0220    0.55470E-01
 140.00     3.8490    0.98990    0.55420E-01
 140.00     3.9010     1.0920    0.79090E-01
 140.00     3.9090     1.1550    0.87090E-01
 140.00     3.9530     1.1150    0.55420E-01
 140.00     4.0020     1.0030    0.55420E-01
 140.00     4.0550     1.1290    0.63340E-01
 140.00     4.1020     1.0170    0.71260E-01
 140.00     4.1560     1.0560    0.63340E-01
 140.00     4.2030     1.1420    0.10300
 140.00     4.2450     1.0310    0.63340E-01
 140.00     4.2990    0.82400    0.47510E-01
 140.00     4.3470     1.1480    0.55420E-01
 140.00     4.3990     1.0360    0.63340E-01
 140.00     4.4510     1.0190    0.55420E-01
 140.00     4.5010     1.0740    0.63390E-01
 140.00     4.5480     1.0890    0.71260E-01
 140.00     4.5970     1.0330    0.63300E-01
 140.00     4.6440     1.0000    0.55420E-01
 140.00     4.6960    0.69870    0.47460E-01
 140.00     4.7480     1.0460    0.55420E-01
 140.00     4.8010     1.4170    0.79180E-01
 140.00     4.8530     1.2660    0.47510E-01
 140.00     4.8970     1.1700    0.63340E-01
 140.00     4.9020     1.0750    0.39590E-01
 140.00     4.9550     1.2800    0.55470E-01
 140.00     4.9990     1.2160    0.71260E-01
 140.00     5.0560     1.1520    0.47460E-01
 140.00     5.1060     1.1120    0.71300E-01
 140.00     5.2080     1.1410    0.71260E-01
 140.00     5.2570     1.1410    0.63340E-01
 140.00     5.3010     1.1000    0.47460E-01
 140.00     5.3020     1.2030    0.63340E-01
 140.00     5.3400     1.0280    0.95010E-01
 140.00     5.3790     1.0040    0.11090
 140.00     5.4000    0.92450    0.12670
 140.00     5.4550     1.0340    0.63340E-01
 140.00     5.4760    0.86780    0.39590E-01
 140.00     5.4940    0.95460    0.55420E-01
 140.00     5.5000     1.0570    0.55470E-01
 140.00     5.5470     1.1040    0.55470E-01
 140.00     5.5960    0.96080    0.55470E-01
 140.00     5.6430     1.1500    0.55420E-01
 140.00     5.6950    0.89580    0.55470E-01
 140.00     5.7480     1.2830    0.55420E-01
 140.00     5.7970     1.0920    0.71300E-01
 140.00     5.8460    0.98830    0.39590E-01
 140.00     5.8960     1.0670    0.63390E-01
 140.00     5.9170     1.0820    0.63340E-01
 140.00     5.9450    0.97880    0.47510E-01
 140.00     5.9730    0.36070    0.79220E-01
 140.00     5.9940    0.36830    0.63340E-01
 140.00     5.9970    0.61370    0.39630E-01
 140.00     6.0240     1.1750    0.63390E-01
 140.00     6.0500     1.1350    0.47510E-01
 140.00     6.0710     1.3880    0.55560E-01
 140.00     6.0880     1.6890    0.87140E-01
 140.00     6.0980     1.4670    0.79220E-01
 140.00     6.1030     1.7760    0.11090
 140.00     6.1070    0.84940    0.55470E-01
 140.00     6.1200    0.76210    0.55420E-01
 140.00     6.1430    0.80130    0.39590E-01
 140.00     6.1750    0.91950    0.71350E-01
 140.00     6.2010    0.82410    0.39590E-01
 140.00     6.2010    0.91910    0.79220E-01
 140.00     6.2420    0.67300    0.55420E-01
 140.00     6.2950    0.89380    0.71260E-01
 140.00     6.2950     1.2180    0.55470E-01
 140.00     6.3430     1.6770    0.71300E-01
 140.00     6.3980    0.55950    0.95010E-01
 140.00     6.4460     1.1450    0.47510E-01
 140.00     6.4960    0.99340    0.71260E-01
 140.00     6.4980    0.88250    0.11860
 140.00     6.5910    0.56420    0.63340E-01
 140.00     6.6560     2.9700    0.13470
 140.00     6.6970     1.0220    0.15050
 140.00     6.6990    0.94250    0.47420E-01
 140.00     6.7200    0.84710    0.47460E-01
 140.00     6.7430    0.79130    0.39590E-01
 140.00     6.7850    0.79850    0.71300E-01
 140.00     6.8010     1.1630    0.63340E-01
 140.00     6.8080    0.80610    0.47460E-01
 140.00     6.8190    0.94050    0.39590E-01
 140.00     6.8470    0.36990    0.47510E-01
 140.00     6.8760    0.87620    0.63340E-01
 140.00     6.9210    0.86750    0.71350E-01
 140.00     6.9470     1.0490    0.79180E-01
 140.00     6.9930    0.25670    0.39540E-01
 140.00     7.0530    0.36650    0.39590E-01
 140.00     7.0970    0.55580    0.47510E-01
 140.00     7.1940    0.41960    0.47510E-01
 140.00     7.1950    0.91050    0.79180E-01
 140.00     7.2900    0.22800    0.39590E-01
 140.00     7.3940    0.29750    0.39590E-01
 140.00     7.4970    0.53330    0.47510E-01
 140.00     7.5980    0.62660    0.47510E-01
 140.00     7.7060    0.81490    0.55470E-01
 150.00     3.0400    0.99960    0.72230E-01
 150.00     3.1000    0.98270    0.40130E-01
 150.00     3.1580     1.0060    0.10430
 150.00     3.2100     1.0940    0.12040
 150.00     3.2570     1.0210    0.12040
 150.00     3.3090    0.89160    0.11230
 150.00     3.3620     1.0110    0.56180E-01
 150.00     3.4090    0.97050    0.11230
 150.00     3.4540     1.0100    0.64200E-01
 150.00     3.5110    0.88890    0.80260E-01
 150.00     3.5610     1.0010    0.64200E-01
 150.00     3.6080    0.95180    0.96310E-01
 150.00     3.6550    0.98330    0.64200E-01
 150.00     3.7020    0.88630    0.88250E-01
 150.00     3.7540    0.99800    0.56210E-01
 150.00     3.7990     1.1180    0.72230E-01
 150.00     3.8010    0.80480    0.72300E-01
 150.00     3.8510    0.86030    0.56180E-01
 150.00     3.9040     1.0360    0.96340E-01
 150.00     3.9060     1.1080    0.88320E-01
 150.00     3.9450     1.0200    0.64200E-01
 150.00     4.0000    0.92250    0.56180E-01
 150.00     4.0500     1.0340    0.56180E-01
 150.00     4.1000    0.96130    0.64200E-01
 150.00     4.1440     1.0010    0.64200E-01
 150.00     4.1990     1.1530    0.11240
 150.00     4.2490    0.91910    0.80260E-01
 150.00     4.2510    0.85490    0.56180E-01
 150.00     4.2980    0.74990    0.48150E-01
 150.00     4.3480     1.1590    0.64200E-01
 150.00     4.3980    0.86900    0.64200E-01
 150.00     4.4450    0.90850    0.72230E-01
 150.00     4.4950    0.94790    0.72260E-01
 150.00     4.5440    0.92320    0.64200E-01
 150.00     4.6040    0.85010    0.64240E-01
 150.00     4.6490    0.85760    0.72230E-01
 150.00     4.7010    0.69640    0.56210E-01
 150.00     4.7460     1.1370    0.80260E-01
 150.00     4.7990     1.2730    0.88280E-01
 150.00     4.8480     1.3360    0.88280E-01
 150.00     4.8980     1.0390    0.72230E-01
 150.00     4.9500     1.1510    0.80290E-01
 150.00     4.9790     1.0380    0.72230E-01
 150.00     5.0020     1.1260    0.48150E-01
 150.00     5.0420     1.0610    0.64240E-01
 150.00     5.0940     1.0200    0.48190E-01
 150.00     5.1990     1.2030    0.80260E-01
 150.00     5.2670     1.0900    0.88320E-01
 150.00     5.2930     1.2180    0.64170E-01
 150.00     5.2960     1.2660    0.72230E-01
 150.00     5.3190     1.0730    0.72230E-01
 150.00     5.3390    0.75200    0.40160E-01
 150.00     5.3500    0.88830    0.56210E-01
 150.00     5.3770     1.1450    0.72230E-01
 150.00     5.3950     1.4170    0.17660
 150.00     5.4060     1.4090    0.13650
 150.00     5.4160    0.95960    0.56180E-01
 150.00     5.4700    0.87060    0.14440
 150.00     5.4970     1.0550    0.80290E-01
 150.00     5.5410     1.1180    0.64200E-01
 150.00     5.5900    0.66840    0.56180E-01
 150.00     5.6430    0.90840    0.64200E-01
 150.00     5.6920    0.67500    0.48150E-01
 150.00     5.7450     1.0760    0.72230E-01
 150.00     5.7950     1.0910    0.64240E-01
 150.00     5.8440    0.75320    0.40160E-01
 150.00     5.8970    0.92910    0.80290E-01
 150.00     5.9200     1.0250    0.64240E-01
 150.00     5.9440    0.93650    0.64200E-01
 150.00     5.9720    0.75150    0.40130E-01
 150.00     5.9940    0.87160    0.64200E-01
 150.00     5.9960    0.69500    0.56180E-01
 150.00     6.0200     1.0640    0.64200E-01
 150.00     6.0510    0.95910    0.40130E-01
 150.00     6.0720    0.84650    0.56180E-01
 150.00     6.0960    0.94250    0.64240E-01
 150.00     6.1350    0.82160    0.64200E-01
 150.00     6.1640    0.94960    0.64200E-01
 150.00     6.1920    0.91710    0.80290E-01
 150.00     6.1950    0.72440    0.96340E-01
 150.00     6.2440    0.57930    0.40160E-01
 150.00     6.2840    0.86770    0.12030
 150.00     6.2970    0.93980    0.96270E-01
 150.00     6.3420     1.0600    0.64240E-01
 150.00     6.3980    0.40870    0.56180E-01
 150.00     6.4460    0.88960    0.48150E-01
 150.00     6.4910    0.91310    0.72230E-01
 150.00     6.4980    0.80870    0.56180E-01
 150.00     6.5970    0.39800    0.48150E-01
 150.00     6.6480     1.0070    0.64240E-01
 150.00     6.7000     1.0870    0.56180E-01
 150.00     6.7400     1.1990    0.64200E-01
 150.00     6.7770     1.8960    0.88280E-01
 150.00     6.7970     2.6590    0.12040
 150.00     6.8150     2.6580    0.12840
 150.00     6.8340     1.3180    0.72230E-01
 150.00     6.8570    0.98040    0.56180E-01
 150.00     6.8790     1.6060    0.96340E-01
 150.00     6.8940     1.6060    0.96310E-01
 150.00     6.9150     1.2680    0.88280E-01
 150.00     6.9380    0.97130    0.72230E-01
 150.00     6.9530    0.73830    0.48150E-01
 150.00     6.9920    0.40880    0.40130E-01
 150.00     7.0500    0.63270    0.56180E-01
 150.00     7.0970    0.65610    0.48150E-01
 150.00     7.1940    0.50240    0.48150E-01
 150.00     7.2800    0.38890    0.32100E-01
 150.00     7.2960    0.38060    0.40130E-01
 150.00     7.3240    0.38020    0.48190E-01
 150.00     7.3770    0.37950    0.40130E-01
 150.00     7.4030    0.38720    0.40130E-01
 150.00     7.4980     1.1890    0.88280E-01
 150.00     7.5990     2.3750    0.14440
 150.00     7.7000     3.0400    0.18460
 160.00     3.0440     1.0260
 160.00     3.1310    0.99080
 160.00     3.1550    0.99000
 160.00     3.1830    0.97310
 160.00     3.2070    0.97240
 160.00     3.2310     1.0040
 160.00     3.2540     1.0030
 160.00     3.2780     1.0180
 160.00     3.3070    0.93720
 160.00     3.3490     1.0480
 160.00     3.3730     1.0150
 160.00     3.3940    0.99840
 160.00     3.4150    0.99770
 160.00     3.4360     1.0130
 160.00     3.4570     1.0280
 160.00     3.4800     1.0120
 160.00     3.5040    0.97880
 160.00     3.5330    0.99390
 160.00     3.5560     1.0090
 160.00     3.5800     1.0240
 160.00     3.6060     1.0080
 160.00     3.6330     1.0390
 160.00     3.6640     1.0380
 160.00     3.6800    0.97320
 160.00     3.7060    0.97240
 160.00     3.7350    0.97140
 160.00     3.7670    0.97040
 160.00     3.7900    0.92170
 160.00     3.8140    0.93690
 160.00     3.8320    0.84030
 160.00     3.8580    0.85550
 160.00     3.9010     1.0940
 160.00     3.9270     1.0450
 160.00     3.9510     1.0280
 160.00     3.9690     1.0120
 160.00     3.9980    0.93100
 160.00     4.0450     1.0410
 160.00     4.0770     1.0080
 160.00     4.0980    0.99180
 160.00     4.1240    0.99100
 160.00     4.1500    0.97420
 160.00     4.1740    0.98940
 160.00     4.1980     1.1010    0.79990E-01
 160.00     4.2390    0.84330
 160.00     4.2920    0.80960
 160.00     4.3450     1.0480
 160.00     4.3680     1.0790
 160.00     4.4000     1.0780    0.95990E-01
 160.00     4.4310    0.90120
 160.00     4.4500    0.90060
 160.00     4.4780    0.93160
 160.00     4.5020    0.94690
 160.00     4.5260    0.91410
 160.00     4.5470    0.88150
 160.00     4.5990    0.87980
 160.00     4.6280    0.84690
 160.00     4.6490    0.84620
 160.00     4.6940    0.82880
 160.00     4.7490     1.2270    0.80070E-01
 160.00     4.8050     1.3370    0.11200
 160.00     4.8540     1.2080    0.95990E-01
 160.00     4.8960     1.1580
 160.00     4.9490     1.1730
 160.00     4.9780     1.1080
 160.00     5.0170     1.0900
 160.00     5.0510     1.0570
 160.00     5.0750     1.0720
 160.00     5.1070     1.0870    0.95990E-01
 160.00     5.2010     1.3400    0.95990E-01
 160.00     5.2460     1.0030    0.79900E-01
 160.00     5.2850     1.0980    0.79990E-01
 160.00     5.2990     1.4010    0.14400
 160.00     5.3220     1.3370    0.11200
 160.00     5.3450    0.80790    0.14390
 160.00     5.3780     1.7510    0.95990E-01
 160.00     5.3970     2.9820    0.22410
 160.00     5.3980     3.5100    0.17600
 160.00     5.4020     2.6140    0.16000
 160.00     5.4170     1.2060    0.79990E-01
 160.00     5.4430    0.85280
 160.00     5.4710    0.89990
 160.00     5.4980    0.94700
 160.00     5.5190     1.0900
 160.00     5.5500     1.0890    0.95990E-01
 160.00     5.5970    0.59190
 160.00     5.6420    0.79840    0.79990E-01
 160.00     5.6950    0.70070
 160.00     5.7500    0.84290    0.11210
 160.00     5.7950     1.4010    0.12810
 160.00     5.8520    0.59970
 160.00     5.8890    0.80650
 160.00     5.9180    0.85360
 160.00     5.9470     1.0930    0.79990E-01
 160.00     5.9690     1.6200    0.12800
 160.00     5.9970     1.6190    0.12790
 160.00     6.0230     1.2180    0.95990E-01
 160.00     6.0470    0.83350    0.80070E-01
 160.00     6.0750    0.48060
 160.00     6.0890     1.2640    0.11200
 160.00     6.1020     1.6160    0.24000
 160.00     6.1050     1.9350    0.14400
 160.00     6.1230     1.3910    0.11200
 160.00     6.1490     1.2140    0.95990E-01
 160.00     6.1700     1.0210    0.79990E-01
 160.00     6.1940    0.84470    0.95990E-01
 160.00     6.2460    0.60310
 160.00     6.2960    0.93740    0.12800
 160.00     6.3410    0.69600
 160.00     6.3960    0.45430
 160.00     6.4460    0.64470
 160.00     6.4990    0.89900    0.14400
 160.00     6.5950    0.49590    0.79990E-01
 160.00     6.6510    0.94210    0.80070E-01
 160.00     6.6850    0.90900
 160.00     6.7010     1.1640    0.11200
 160.00     6.7250     1.3560
 160.00     6.7410     1.6430    0.95900E-01
 160.00     6.7820     3.2100    0.14410
 160.00     6.8010     3.8970    0.25600
 160.00     6.8070     4.6810    0.24000
 160.00     6.8230     4.8560    0.17600
 160.00     6.8390     2.9680    0.33590
 160.00     6.8580     3.6550    0.19200
 160.00     6.8740     3.5750    0.12800
 160.00     6.8950     3.3180    0.22410
 160.00     6.8990     2.1820    0.12800
 160.00     6.9120     1.6380    0.95990E-01
 160.00     6.9380     1.1730    0.79990E-01
 160.00     6.9690    0.75590
 160.00     6.9950    0.94710
 160.00     7.0010     1.0910    0.79990E-01
 160.00     7.0510     1.5690    0.11200
 160.00     7.0950     1.2800    0.11200
 160.00     7.0980     1.0560    0.11200
 160.00     7.1970    0.65260    0.95990E-01
 160.00     7.1970    0.82860    0.79990E-01
 160.00     7.2890    0.77770
 160.00     7.3210    0.77670
 160.00     7.4020    0.69410
 160.00     7.5010     3.1230    0.16010
 160.00     7.6060     5.4230    0.22400
 160.00     7.7090     6.0760    0.32000
 170.00     3.0240     1.0250
 170.00     3.0530     1.0240
 170.00     3.1550     1.0200
 170.00     3.2050    0.99470
 170.00     3.2560    0.96900
 170.00     3.3030    0.99120
 170.00     3.3350    0.99000
 170.00     3.3560     1.0130
 170.00     3.3850     1.0360
 170.00     3.4060    0.96350
 170.00     3.4530    0.98570
 170.00     3.5110    0.98360
 170.00     3.5580     1.0300
 170.00     3.5850    0.95700
 170.00     3.6060    0.90850
 170.00     3.6290    0.95540
 170.00     3.6530    0.95460
 170.00     3.6720    0.95390
 170.00     3.6950    0.95300
 170.00     3.7080    0.90470
 170.00     3.7240    0.95200
 170.00     3.7510    0.95100
 170.00     3.7720    0.95030
 170.00     3.8030    0.90130
 170.00     3.8240    0.87660
 170.00     3.8510    0.80390
 170.00     3.8930     1.1850    0.95740E-01
 170.00     3.9190     1.1600    0.95650E-01
 170.00     3.9530     1.0870
 170.00     3.9960    0.94210
 170.00     4.0270    0.98880
 170.00     4.0510     1.0360
 170.00     4.0690     1.0110
 170.00     4.0980    0.96230
 170.00     4.1220    0.96140
 170.00     4.1480     1.0080
 170.00     4.2010     1.1260    0.11970
 170.00     4.2480    0.78950
 170.00     4.3010    0.81150
 170.00     4.3300     1.1210
 170.00     4.3510     1.1200
 170.00     4.4010     1.3100    0.95740E-01
 170.00     4.4480    0.83000
 170.00     4.5010    0.89990
 170.00     4.5510    0.87410
 170.00     4.6040    0.87220
 170.00     4.6250    0.84750
 170.00     4.6480    0.79880
 170.00     4.6770    0.89340
 170.00     4.7070    0.98800
 170.00     4.7360     1.2740
 170.00     4.7510     1.2730
 170.00     4.7800     1.3200
 170.00     4.8010     1.3430
 170.00     4.8200     1.3190
 170.00     4.8380     1.2700
 170.00     4.8570     1.2220
 170.00     4.8860     1.2210
 170.00     4.9200     1.1480
 170.00     4.9490     1.1470
 170.00     4.9780     1.1460
 170.00     4.9990     1.0730
 170.00     5.0490     1.0950
 170.00     5.0750     1.0940
 170.00     5.1020     1.1410
 170.00     5.1230     1.1400
 170.00     5.2020     1.5440    0.95650E-01
 170.00     5.2460     1.1120
 170.00     5.2890     1.5890    0.11960
 170.00     5.3280     1.6110    0.95650E-01
 170.00     5.3380    0.67810
 170.00     5.3570    0.91660
 170.00     5.3790     2.4700    0.95650E-01
 170.00     5.3930     5.2440    0.16750
 170.00     5.4010     5.9600    0.26300
 170.00     5.4060     4.5020    0.21520
 170.00     5.4060     4.9080    0.16740
 170.00     5.4180     1.7750    0.95740E-01
 170.00     5.4310    0.96170
 170.00     5.4730    0.98410
 170.00     5.4890     1.1990
 170.00     5.5310     1.1970
 170.00     5.5570     1.1480    0.11960
 170.00     5.5940    0.45360
 170.00     5.6310    0.73930
 170.00     5.6490    0.78640
 170.00     5.6700    0.85740
 170.00     5.6990     1.0240    0.95650E-01
 170.00     5.7490    0.73500
 170.00     5.7940     1.9530    0.14350
 170.00     5.8440    0.54020
 170.00     5.8760    0.75430
 170.00     5.8970    0.80130
 170.00     5.9260    0.82420
 170.00     5.9420     1.1820    0.95650E-01
 170.00     5.9610     2.7360    0.16740
 170.00     6.0000     2.6630    0.11960
 170.00     6.0100     1.7780    0.71740E-01
 170.00     6.0390     1.7770    0.95650E-01
 170.00     6.0490    0.77190
 170.00     6.0760    0.46000
 170.00     6.0900     3.5680    0.16750
 170.00     6.1040     4.4520    0.28700
 170.00     6.1110     4.2370    0.21520
 170.00     6.1240     2.1800    0.11960
 170.00     6.1470     1.8210    0.71830E-01
 170.00     6.1760     1.2220    0.95650E-01
 170.00     6.1940    0.86220    0.71740E-01
 170.00     6.2230    0.69380
 170.00     6.2440    0.62130
 170.00     6.2730    0.73980
 170.00     6.2970    0.88240
 170.00     6.3290    0.92910
 170.00     6.3470     1.0240
 170.00     6.4000    0.78310    0.95650E-01
 170.00     6.4500    0.56600
 170.00     6.4760    0.89990
 170.00     6.5020    0.94670
 170.00     6.5970    0.63240
 170.00     6.6510     4.3610    0.16740
 170.00     6.6950     1.2030    0.95650E-01
 170.00     6.7050     1.5610
 170.00     6.7290     1.6080    0.71740E-01
 170.00     6.7420     2.0620    0.71740E-01
 170.00     6.7830     4.7860    0.21510
 170.00     6.8050     5.9810    0.28690
 170.00     6.8260     7.1280    0.28690
 170.00     6.8390     4.9520    0.19130
 170.00     6.8640     7.7010    0.35860
 170.00     6.8840     5.8110    0.23900
 170.00     6.8960     3.9690    0.19130
 170.00     6.9160     2.1030    0.14350
 170.00     6.9400     1.5290    0.95650E-01
 170.00     6.9580     1.2890
 170.00     6.9820     1.5750
 170.00     7.0030     1.6220    0.11960
 170.00     7.0540     2.6250    0.14350
 170.00     7.1010     1.8340    0.11960
 170.00     7.1980     1.4710    0.14350
 170.00     7.3030     1.2050
 170.00     7.4060     1.2250
 170.00     7.5030     6.4100    0.23910
 170.00     7.6090     8.9410    0.33470
 170.00     7.7120     9.7260    0.45430
ENDDATA            634
ENDSUBENT          646
SUBENT        F0602003   20040413
BIB                  4          5
REACTION   (14-SI-28(A,EL)14-SI-28,,DA)
ERR-ANALYS (ANG-ERR-D)    Digitizing error
FLAG       (1.) Thin target
           (2.) Thick target
STATUS     (CURVE)Fig.3
ENDBIB               5
COMMON               2          3
ANG-ERR-D  ERR-DIG
ADEG       PER-CENT
 0.3        0.02
ENDCOMMON            3
DATA                 5        280
EN         ANG        DATA       DATA-ERR1  FLAG
MEV        ADEG       MB/SR      MB/SR      NO-DIM
 5.9600     33.510     7554.0     469.90     1.0000
 5.9600     39.050     3632.0     204.80     1.0000
 5.9600     44.290     1824.0     123.90     1.0000
 5.9600     49.880     1147.0     71.260     1.0000
 5.9600     52.700     1087.0     67.630     1.0000
 5.9600     55.050     733.30     41.350     1.0000
 5.9600     57.860     955.00     53.930     2.0000
 5.9600     57.980     754.80     42.560     1.0000
 5.9600     60.280     620.20     27.820     1.0000
 5.9600     62.210     650.80     44.400     2.0000
 5.9600     63.120     523.90     29.500     1.0000
 5.9600     65.840     428.20     26.600     1.0000
 5.9600     65.980     506.00     28.570     2.0000
 5.9600     68.560     350.00     19.740     1.0000
 5.9600     71.250     303.90     18.900     1.0000
 5.9600     73.980     241.60     15.030     1.0000
 5.9600     74.610     335.80     11.240     2.0000
 5.9600     76.560     194.30     13.220     1.0000
 5.9600     79.110     176.20     14.060     1.0000
 5.9600     80.610     230.20     9.0260     2.0000
 5.9600     81.400     146.40     9.1050     1.0000
 5.9600     83.940     135.00     7.6110     1.0000
 5.9600     84.640     203.10     9.1260     2.0000
 5.9600     86.520     109.10     6.1530     1.0000
 5.9600     88.970     143.90     7.2860     2.0000
 5.9600     89.250     135.30     7.6300     1.0000
 5.9600     91.530     114.90     7.1550     1.0000
 5.9600     92.570     137.00     6.1570     2.0000
 5.9600     94.170     123.60     6.9670     1.0000
 5.9600     96.600     117.00     4.5860     2.0000
 5.9600     96.720     108.50     6.7450     1.0000
 5.9600     100.80     99.860     5.0610     2.0000
 5.9600     101.60     106.30     7.2360     1.0000
 5.9600     104.40     96.180     5.4310     2.0000
 5.9600     106.40     104.30     8.3160     1.0000
 5.9600     108.70     73.560     3.7280     2.0000
 5.9600     109.00     110.90     6.2610     1.0000
 5.9600     111.30     102.20     6.3600     1.0000
 5.9600     112.40     74.040     3.3260     2.0000
 5.9600     113.60     105.20     7.7770     1.0000
 5.9600     116.10     87.410     6.4480     1.0000
 5.9600     116.40     76.600     3.8820     2.0000
 5.9600     118.50     80.160     6.8740     1.0000
 5.9600     120.20     75.420     8.7590     2.0000
 5.9600     120.60     65.140     4.4270     1.0000
 5.9600     123.20     64.510     5.1440     1.0000
 5.9600     123.90     69.520     7.6510     2.0000
 5.9600     125.50     46.470     3.9850     1.0000
 5.9600     127.70     58.050     2.6080     2.0000
 5.9600     127.90     38.390     3.2950     1.0000
 5.9600     130.30     33.690     2.6900     1.0000
 5.9600     131.50     53.510     1.7910     2.0000
 5.9600     132.70     25.220     2.7700     1.0000
 5.9600     135.00     20.610     1.2820     1.0000
 5.9600     135.10     47.200     2.1210     2.0000
 5.9600     136.80     45.690     2.8450     2.0000
 5.9600     137.30     14.600     1.0780     1.0000
 5.9600     139.40     12.680     1.3920     1.0000
 5.9600     140.80     43.530     2.7120     2.0000
 5.9600     141.80     8.0040    0.73420     1.0000
 5.9600     143.90     11.140    0.95500     1.0000
 5.9600     144.30     43.090     2.1840     2.0000
 5.9600     146.80     42.650     2.9050     2.0000
 5.9600     148.40     18.080     1.5510     1.0000
 5.9600     149.50     46.090     2.8710     2.0000
 5.9600     152.60     39.280     2.6720     1.0000
 5.9600     154.20     49.840     2.5260     2.0000
 5.9600     157.10     55.000     4.0650     1.0000
 5.9600     158.20     55.990     3.4880     2.0000
 5.9600     161.20     79.590     5.8830     1.0000
 5.9600     161.60     61.190     3.0990     2.0000
 5.9600     165.40     78.860     3.9970     2.0000
 5.9600     165.50     110.80     8.1930     1.0000
 5.9600     170.00     133.90     7.5480     1.0000
 5.9600     170.30     82.960     4.2050     2.0000
 5.9600     174.00     96.320     4.8850     2.0000
 5.9600     174.30     141.70     7.1610     1.0000
 6.8000     50.090     955.20     53.580     1.0000
 6.8000     50.670     890.00     70.660     1.0000
 6.8000     55.680     563.90     31.630     1.0000
 6.8000     56.210     702.20     35.370     2.0000
 6.8000     58.560     694.90     35.000     2.0000
 6.8000     60.520     564.90     25.200     2.0000
 6.8000     61.110     359.30     18.060     1.0000
 6.8000     62.750     493.00     19.210     2.0000
 6.8000     64.700     421.00     23.620     2.0000
 6.8000     66.560     209.80     9.3480     1.0000
 6.8000     66.650     367.40     14.310     2.0000
 6.8000     70.570     249.50     12.570     2.0000
 6.8000     72.040     111.60     5.6130     1.0000
 6.8000     72.800     216.60     10.910     2.0000
 6.8000     75.180     159.60     7.1270     2.0000
 6.8000     76.850     143.90     8.9060     2.0000
 6.8000     77.070     66.240     3.3310     1.0000
 6.8000     79.070     137.10     8.4900     2.0000
 6.8000     81.020     119.00     7.3700     2.0000
 6.8000     81.970     61.830     2.4080     1.0000
 6.8000     83.110     103.90     7.0300     2.0000
 6.8000     84.810     73.650     5.4180     2.0000
 6.8000     87.120     67.610     3.0170     1.0000
 6.8000     87.190     59.880     3.7070     2.0000
 6.8000     89.250     62.580     4.9710     2.0000
 6.8000     91.190     62.610     6.0890     2.0000
 6.8000     91.970     77.230     4.3310     1.0000
 6.8000     93.120     62.290     4.2200     2.0000
 6.8000     95.200     60.310     5.5030     2.0000
 6.8000     97.000     58.070     3.2590     2.0000
 6.8000     97.350     101.70     4.5250     1.0000
 6.8000     99.070     56.530     4.8240     2.0000
 6.8000     101.30     65.530     5.5910     2.0000
 6.8000     102.10     107.60     4.8010     1.0000
 6.8000     103.30     68.490     6.6590     2.0000
 6.8000     105.00     73.150     7.9940     2.0000
 6.8000     106.90     98.790     4.9730     1.0000
 6.8000     110.90     79.050     4.4340     2.0000
 6.8000     111.80     85.420     3.8120     1.0000
 6.8000     113.10     75.710     2.5190     2.0000
 6.8000     115.20     70.550     5.1900     2.0000
 6.8000     116.20     60.680     3.4030     1.0000
 6.8000     116.70     69.050     4.6750     2.0000
 6.8000     118.80     67.950     4.6010     2.0000
 6.8000     120.50     61.280     3.7910     2.0000
 6.8000     121.10     39.510     2.2130     1.0000
 6.8000     122.70     55.570     3.1170     2.0000
 6.8000     124.40     46.420     2.8730     2.0000
 6.8000     125.80     21.480     1.4520     1.0000
 6.8000     126.20     40.730     2.0530     2.0000
 6.8000     127.90     30.840     1.5540     2.0000
 6.8000     128.40     34.220     1.7220     2.0000
 6.8000     129.00     27.810     1.4010     2.0000
 6.8000     129.80     26.190     1.3190     2.0000
 6.8000     130.50     23.490     1.3170     2.0000
 6.8000     130.80     9.3390    0.74200     1.0000
 6.8000     131.90     20.950     1.2970     2.0000
 6.8000     133.70     18.990     1.3970     2.0000
 6.8000     135.50     10.780    0.72980     1.0000
 6.8000     135.60     15.870    0.98320     2.0000
 6.8000     137.60     17.420    0.87680     2.0000
 6.8000     138.50     16.320     1.2010     2.0000
 6.8000     139.20     22.160     2.9640     2.0000
 6.8000     140.00     20.800     1.1650     1.0000
 6.8000     140.00     16.770    0.65350     2.0000
 6.8000     141.20     22.780     1.8090     2.0000
 6.8000     143.00     25.140     2.4440     2.0000
 6.8000     144.40     42.120     2.3620     1.0000
 6.8000     144.70     31.800     1.7840     2.0000
 6.8000     146.10     36.470     2.8970     2.0000
 6.8000     146.50     38.720     2.8470     2.0000
 6.8000     147.30     45.880     2.8400     2.0000
 6.8000     148.20     68.940     3.8710     1.0000
 6.8000     148.50     47.940     2.6890     2.0000
 6.8000     150.20     55.260     2.7820     2.0000
 6.8000     151.50     64.060     3.9670     2.0000
 6.8000     152.90     109.80     6.8020     1.0000
 6.8000     153.40     74.670     4.1900     2.0000
 6.8000     154.90     88.950     6.0230     2.0000
 6.8000     156.50     94.490     3.6760     2.0000
 6.8000     156.90     137.60     10.930     1.0000
 6.8000     157.40     103.10     2.8510     2.0000
 6.8000     158.70     107.20     7.2510     2.0000
 6.8000     160.30     127.70     7.9070     2.0000
 6.8000     161.80     168.70     8.4940     1.0000
 6.8000     161.90     137.90     6.9440     2.0000
 6.8000     163.20     156.40     10.590     2.0000
 6.8000     163.70     132.00     7.4090     2.0000
 6.8000     164.10     151.40     10.260     2.0000
 6.8000     165.80     206.80     11.590     1.0000
 6.8000     167.20     158.20     7.9640     2.0000
 6.8000     169.00     160.00     10.830     2.0000
 6.8000     170.60     250.90     11.210     1.0000
 6.8000     170.80     171.80     7.6670     2.0000
 6.8000     171.90     183.50     10.300     2.0000
 6.8000     173.10     185.60     8.2850     2.0000
 6.8000     174.30     234.70     20.040     2.0000
 6.8000     174.90     251.30     19.940     1.0000
 6.8500     33.730     5179.0     320.00     1.0000
 6.8500     39.260     2529.0     156.10     1.0000
 6.8500     44.620     1362.0     91.960     1.0000
 6.8500     49.950     836.00     46.710     1.0000
 6.8500     50.670     770.70     38.640     1.0000
 6.8500     55.530     545.00     24.290     1.0000
 6.8500     56.390     774.40     34.510     2.0000
 6.8500     58.530     443.60     22.300     1.0000
 6.8500     58.630     626.20     31.520     2.0000
 6.8500     60.570     586.80     46.610     2.0000
 6.8500     61.270     342.00     19.130     1.0000
 6.8500     62.800     517.80     20.160     2.0000
 6.8500     64.770     405.20     13.490     2.0000
 6.8500     66.570     220.40     9.8250     1.0000
 6.8500     66.870     333.10     14.860     2.0000
 6.8500     70.920     232.60     14.380     2.0000
 6.8500     72.010     149.30     7.5050     1.0000
 6.8500     73.010     208.60     10.500     2.0000
 6.8500     75.390     161.50     7.2070     2.0000
 6.8500     77.280     108.50     6.7030     1.0000
 6.8500     77.350     140.20     7.0530     2.0000
 6.8500     79.270     152.20     11.200     2.0000
 6.8500     81.390     108.00     15.110     2.0000
 6.8500     83.210     90.710     7.2020     2.0000
 6.8500     84.740     90.460     6.1140     1.0000
 6.8500     85.590     73.760     4.9920     2.0000
 6.8500     87.230     98.290     5.4990     1.0000
 6.8500     87.670     67.260     4.1610     2.0000
 6.8500     89.720     79.250     7.2310     2.0000
 6.8500     91.520     78.860     10.060     2.0000
 6.8500     92.330     121.20     6.0850     1.0000
 6.8500     93.480     64.820     5.5290     2.0000
 6.8500     95.400     70.380     5.1740     2.0000
 6.8500     97.340     66.670     4.5100     2.0000
 6.8500     97.360     122.20     6.1420     1.0000
 6.8500     99.550     65.620     7.9650     2.0000
 6.8500     101.60     74.830     12.350     2.0000
 6.8500     102.30     111.00     6.2180     1.0000
 6.8500     103.40     74.050     4.5790     2.0000
 6.8500     105.20     74.480     5.0410     2.0000
 6.8500     107.20     98.150     6.0580     1.0000
 6.8500     109.80     83.450     7.1090     1.0000
 6.8500     111.30     77.490     10.360     2.0000
 6.8500     113.20     66.900     4.9160     2.0000
 6.8500     114.70     68.000     6.1860     1.0000
 6.8500     115.30     68.030     5.0040     2.0000
 6.8500     117.00     68.440     5.8260     1.0000
 6.8500     117.10     67.690     4.1880     2.0000
 6.8500     119.20     71.130     6.0680     2.0000
 6.8500     119.50     68.150     5.8010     1.0000
 6.8500     120.80     55.970     4.4440     2.0000
 6.8500     121.70     66.750     5.6870     1.0000
 6.8500     122.90     48.580     4.1430     2.0000
 6.8500     123.80     58.950     5.3760     1.0000
 6.8500     124.80     42.640     4.1450     2.0000
 6.8500     126.30     39.950     2.0110     2.0000
 6.8500     126.70     50.400     3.6970     1.0000
 6.8500     128.00     34.300     2.3210     2.0000
 6.8500     128.80     44.990     4.9020     1.0000
 6.8500     128.80     31.960     3.1060     2.0000
 6.8500     128.90     30.760     3.1740     2.0000
 6.8500     130.40     24.740     2.1100     2.0000
 6.8500     130.90     43.590     4.4960     1.0000
 6.8500     133.40     38.290     3.0360     1.0000
 6.8500     133.90     22.930     2.3680     2.0000
 6.8500     135.80     28.090     2.0590     1.0000
 6.8500     135.80     21.370     1.5710     2.0000
 6.8500     137.70     19.810     3.1450     2.0000
 6.8500     138.00     21.300     1.6870     1.0000
 6.8500     139.60     20.250     1.4890     2.0000
 6.8500     140.30     19.430     2.0030     1.0000
 6.8500     141.40     18.170     2.4290     2.0000
 6.8500     142.60     14.810     1.2620     1.0000
 6.8500     143.10     22.480     3.0080     2.0000
 6.8500     144.80     28.750     1.7790     2.0000
 6.8500     145.10     9.3830     1.6670     1.0000
 6.8500     146.20     32.430     3.3520     2.0000
 6.8500     147.20     10.760     1.3040     1.0000
 6.8500     147.60     36.180     3.5150     2.0000
 6.8500     148.10     40.580     2.9840     2.0000
 6.8500     148.70     14.780     1.7920     1.0000
 6.8500     148.80     38.220     3.4870     2.0000
 6.8500     149.90     50.220     3.9880     2.0000
 6.8500     151.80     60.490     6.2420     2.0000
 6.8500     153.40     72.850     4.5070     2.0000
 6.8500     153.50     39.290     5.0090     1.0000
 6.8500     154.80     76.540     5.1830     2.0000
 6.8500     155.90     95.760     9.8740     2.0000
 6.8500     156.80     98.430     6.0830     2.0000
 6.8500     157.40     81.290     8.8750     1.0000
 6.8500     157.50     108.00     9.2140     2.0000
 6.8500     158.90     106.30     10.970     2.0000
 6.8500     160.40     132.30     12.080     2.0000
 6.8500     162.10     150.80     15.550     1.0000
 6.8500     163.10     152.50     5.9390     2.0000
 6.8500     164.20     165.60     10.240     2.0000
 6.8500     165.30     169.30     16.440     2.0000
 6.8500     166.20     248.20     15.330     1.0000
 6.8500     166.20     197.20     15.650     2.0000
 6.8500     167.60     201.70     14.820     2.0000
 6.8500     169.40     220.10     17.470     2.0000
 6.8500     170.80     317.90     21.510     1.0000
 6.8500     170.90     214.30     15.760     2.0000
 6.8500     172.20     228.90     16.830     2.0000
 6.8500     174.70     381.20     25.740     1.0000
ENDDATA            282
ENDSUBENT          296
ENDENTRY             3
