ENTRY            F0629   20050615   20050831                  F022
SUBENT        F0629001   20050615   20050831                  F022
BIB                 10         24
TITLE      Anomalies in alpha-scattering and (3He,alpha) reactions
           on 40,41Ca and the effect of cluster exchange.
AUTHOR     (H.J.Apell,W.Gemeinhardt,R.Stock,R.R.Betts,O.Hansen,
           A.Sperduto,H.Fuchs,R.Santo)
INSTITUTE  (2GERMBG,2DENNBI,2GERBER,2GERMST)
REFERENCE  (J,NP/A,246,477,1975)
FACILITY   (VDGT,2DENNBI)
SAMPLE     The target was evaporated from CaCO3 onto a thin carbon
           foil and had a Ca thickness of about 20 mu-g/cm2 with
           an isotopic abundance of 81% 41Ca and 18% 40Ca.
DETECTOR   (SOLST)Scattering chamber was equipped with four cooled
           solid state detectors.
MONITOR    The data for the angles more than 75 deg. were
           normalized to the 41Ca target abundance and matched to
           the 41Ca data at larger angles.
           The absolute cross section scale was established a) by
           Rutherford scattering determination of the total Ca
           thickness of the target, and b) by matching the elastic
           3He and alpha scattering yields to optical model
           calculations.
ERR-ANALYS (ANG-ERR-D)  Digitizing error
           (ERR-DIG)    Digitizing error
           (DATA-ERR)  Error from the graphic bars
HISTORY    (20031003C)
ENDBIB              24
NOCOMMON             0          0
ENDSUBENT           27
SUBENT        F0629002   20050615   20050831                  F022
BIB                  2          2
REACTION   (20-CA-40(A,EL)20-CA-40,,DA,,RTH)
STATUS     (CURVE)Fig.1,2
ENDBIB               2
COMMON               2          3
ANG-ERR-D  ERR-DIG
ADEG       PER-CENT
 0.6        0.03
ENDCOMMON            3
DATA                 4         96
EN         ANG-CM     DATA-CM    DATA-ERR
MEV        ADEG       NO-DIM     NO-DIM
 19.000     83.543    0.15701
 19.000     85.955    0.98408E-01
 19.000     87.829    0.41856E-01
 19.000     90.179    0.94444E-02
 19.000     92.932    0.87220E-02
 19.000     96.125    0.24871E-01
 19.000     98.357    0.61580E-01
 19.000     100.56    0.87653E-01
 19.000     103.64    0.13257
 19.000     106.15    0.18310    0.14363E-01
 19.000     108.60    0.18051
 19.000     111.24    0.18435
 19.000     113.62    0.14711
 19.000     115.89    0.12596
 19.000     118.32    0.71389E-01
 19.000     120.74    0.42334E-01
 19.000     122.49    0.10145E-01
 19.000     124.74    0.10677E-01
 19.000     127.48    0.47880E-01
 19.000     132.46    0.24370
 19.000     134.90    0.26039    0.21824E-01
 19.000     137.03    0.30766
 19.000     139.61    0.24307
 19.000     141.51    0.17894
 19.000     143.29    0.75344E-01
 19.000     145.67    0.27422E-01
 19.000     147.66    0.21770E-01
 19.000     150.16    0.68982E-01
 19.000     152.59    0.15919
 19.000     157.23    0.25205
 19.000     159.84    0.16531
 19.000     161.47    0.99493E-01
 19.000     163.52    0.49217E-01
 24.100     83.454    0.13110E-01
 24.100     86.280    0.11018E-02
 24.100     88.847    0.15859E-01
 24.100     90.737    0.47017E-01
 24.100     93.499    0.40710E-01
 24.100     98.598    0.11958E-01
 24.100     100.92    0.19207E-01
 24.100     103.51    0.53378E-01
 24.100     106.35    0.60491E-01
 24.100     108.80    0.64569E-01
 24.100     110.89    0.47898E-01
 24.100     113.56    0.34661E-01
 24.100     115.06    0.63054E-02
 24.100     120.24    0.38723E-01
 24.100     122.82    0.10870
 24.100     125.34    0.17634    0.22416E-01
 24.100     127.60    0.17730
 24.100     129.69    0.12084
 24.100     132.47    0.83608E-01
 24.100     134.74    0.76465E-01
 24.100     137.00    0.81210E-01
 24.100     139.73    0.11012
 24.100     141.49    0.12415
 24.100     143.72    0.18783
 24.100     148.38    0.25734E-01
 24.100     150.83    0.12312
 24.100     153.22    0.29027
 24.100     155.75    0.43483
 24.100     157.51    0.55252
 24.100     160.45    0.60772    0.70433E-01
 24.100     162.63    0.42677
 24.100     164.91    0.32948
 26.500     83.094    0.47536E-01
 26.500     93.119    0.13067E-01
 26.500     95.418    0.47290E-01
 26.500     98.717    0.96922E-01
 26.500     101.10    0.94897E-01
 26.500     103.68    0.93375E-01
 26.500     106.14    0.14446
 26.500     108.71    0.13518
 26.500     110.83    0.15943
 26.500     113.54    0.18705    0.22921E-01
 26.500     115.71    0.97695E-01
 26.500     117.70    0.29204E-01
 26.500     120.43    0.12921
 26.500     122.52    0.23840
 26.500     125.05    0.32200
 26.500     127.61    0.27523
 26.500     129.58    0.23650
 26.500     131.79    0.83871E-01
 26.500     134.50    0.28279E-01
 26.500     136.58    0.92557E-01
 26.500     138.79    0.10971
 26.500     141.29    0.21825
 26.500     143.55    0.18103
 26.500     145.65    0.19602
 26.500     148.05    0.34555E-01
 26.500     150.70    0.53457E-01
 26.500     151.99    0.17154
 26.500     156.95    0.29911
 26.500     159.05    0.32226    0.48698E-01
 26.500     161.58    0.23570
 26.500     164.58    0.26162
ENDDATA             98
ENDSUBENT          109
SUBENT        F0629003   20050615   20050831                  F022
BIB                  2          2
REACTION   (20-CA-41(A,EL)20-CA-41,,DA,,RTH)
STATUS     (CURVE)Fig.1,2
ENDBIB               2
COMMON               2          3
ANG-ERR-D  ERR-DIG
ADEG       PER-CENT
 0.6        0.03
ENDCOMMON            3
DATA                 4        154
EN         ANG-CM     DATA-CM    DATA-ERR
MEV        ADEG       NO-DIM     NO-DIM
 19.000     18.486    0.82030
 19.000     24.339    0.46781
 19.000     29.258    0.39491
 19.000     34.554    0.37621
 19.000     39.776    0.13985
 19.000     45.125    0.18759
 19.000     50.205    0.20782
 19.000     55.286    0.10714
 19.000     58.181    0.70629E-01
 19.000     60.739    0.64895E-100.50906E-02
 19.000     65.698    0.85736E-01
 19.000     71.076    0.43543E-01
 19.000     76.224    0.60500E-01
 19.000     78.457    0.70413E-01
 19.000     80.884    0.82786E-01
 19.000     83.319    0.91629E-01
 19.000     86.291    0.71318E-01
 19.000     88.345    0.34230E-01
 19.000     88.622    0.39216E-01
 19.000     90.035    0.13432E-01
 19.000     92.500    0.56004E-02
 19.000     95.563    0.96544E-02
 19.000     97.956    0.31212E-01
 19.000     100.43    0.53795E-01
 19.000     103.23    0.71737E-01
 19.000     105.47    0.79394E-100.62250E-02
 19.000     107.63    0.77479E-01
 19.000     110.39    0.68730E-01
 19.000     113.05    0.62520E-01
 19.000     115.70    0.59506E-01
 19.000     118.01    0.37483E-01
 19.000     120.19    0.15238E-01
 19.000     122.17    0.12722E-01
 19.000     124.54    0.22259E-01
 19.000     127.23    0.70536E-01
 19.000     129.72    0.11502
 19.000     132.33    0.14956
 19.000     134.18    0.16140
 19.000     136.03    0.16898    0.16967E-01
 19.000     138.69    0.15217
 19.000     140.79    0.11259
 19.000     143.31    0.63176E-01
 19.000     145.23    0.19472E-01
 19.000     150.19    0.51780E-01
 19.000     152.27    0.91505E-01
 19.000     155.26    0.13563
 19.000     156.71    0.15390
 19.000     159.36    0.15404
 19.000     161.43    0.13188
 19.000     164.00    0.11236
 24.100     19.918    0.37468
 24.100     22.386    0.31958
 24.100     27.587    0.36233
 24.100     33.650    0.13793
 24.100     41.019    0.14590
 24.100     43.497    0.10716
 24.100     45.989    0.65785E-01
 24.100     48.859    0.49543E-01
 24.100     52.055    0.98119E-01
 24.100     57.137    0.15076
 24.100     59.446    0.75067E-01
 24.100     61.812    0.16671E-01
 24.100     64.483    0.13000E-01
 24.100     67.499    0.83887E-01
 24.100     70.425    0.11604
 24.100     73.085    0.10613
 24.100     75.661    0.79132E-01
 24.100     77.057    0.59876E-01
 24.100     79.775    0.23826E-01
 24.100     82.775    0.27823E-02
 24.100     85.531    0.10798E-01
 24.100     87.333    0.27844E-01
 24.100     92.641    0.28009E-01
 24.100     95.362    0.10551E-01
 24.100     97.946    0.70497E-02
 24.100     100.70    0.67438E-02
 24.100     103.11    0.14463E-01
 24.100     105.52    0.27383E-01
 24.100     108.76    0.27536E-01
 24.100     110.47    0.17328E-01
 24.100     112.83    0.40651E-02
 24.100     115.66    0.56232E-02
 24.100     120.47    0.24000E-01
 24.100     123.37    0.49958E-01
 24.100     125.31    0.67730E-01
 24.100     128.23    0.10560    0.99106E-02
 24.100     130.13    0.67789E-01
 24.100     132.11    0.53920E-01
 24.100     134.60    0.31648E-01
 24.100     136.76    0.33612E-01
 24.100     139.47    0.66231E-01
 24.100     141.61    0.89796E-01
 24.100     144.15    0.11758
 24.100     146.22    0.10385
 24.100     148.52    0.57698E-01
 24.100     150.87    0.70106E-01
 24.100     153.00    0.10141
 24.100     155.62    0.16784
 24.100     157.46    0.25015
 24.100     160.30    0.29649    0.37665E-01
 24.100     162.46    0.29220
 24.100     165.04    0.20624
 26.500     19.803    0.33827
 26.500     22.574    0.31333
 26.500     27.956    0.34396
 26.500     32.919    0.98148E-01
 26.500     40.576    0.10032
 26.500     42.866    0.30595E-100.27327E-02
 26.500     45.836    0.28480E-01
 26.500     48.757    0.12103
 26.500     52.318    0.19880
 26.500     55.162    0.15756
 26.500     57.056    0.89198E-01
 26.500     59.700    0.20836E-01
 26.500     61.819    0.75395E-02
 26.500     64.752    0.62847E-01
 26.500     67.943    0.12311
 26.500     70.692    0.99561E-01
 26.500     75.306    0.20909E-01
 26.500     76.577    0.54861E-02
 26.500     79.910    0.13887E-01
 26.500     82.623    0.30392E-01
 26.500     83.457    0.38481E-01
 26.500     85.397    0.28868E-01
 26.500     88.051    0.13161E-01
 26.500     88.178    0.15536E-01
 26.500     89.488    0.51628E-02
 26.500     91.495    0.10587E-01
 26.500     95.554    0.32269E-01
 26.500     98.847    0.63850E-01
 26.500     103.93    0.69051E-01
 26.500     105.88    0.55024E-01
 26.500     108.62    0.75823E-01
 26.500     111.05    0.99374E-100.13304E-01
 26.500     113.08    0.73064E-01
 26.500     115.69    0.83596E-01
 26.500     118.01    0.31330E-01
 26.500     120.80    0.10565
 26.500     123.11    0.12649
 26.500     125.49    0.21533
 26.500     127.85    0.19356
 26.500     130.18    0.13600
 26.500     132.04    0.62649E-01
 26.500     134.31    0.57174E-01
 26.500     136.71    0.60364E-01
 26.500     139.06    0.93395E-01
 26.500     141.54    0.16139
 26.500     146.40    0.15240
 26.500     148.19    0.83295E-01
 26.500     152.22    0.64346E-01
 26.500     157.65    0.16521
 26.500     159.88    0.21438    0.29927E-01
 26.500     162.06    0.21204
 26.500     164.23    0.10270
ENDDATA            156
ENDSUBENT          167
SUBENT        F0629004   20050615   20050831                  F022
BIB                  2          2
REACTION   (20-CA-41(HE3,A)20-CA-40,PAR,DA)
STATUS     (CURVE)Fig.3,4
ENDBIB               2
COMMON               2          3
ANG-ERR-D  ERR-DIG
ADEG       PER-CENT
 0.1        0.02
ENDCOMMON            3
DATA                 5        192
E-LVL      EN         ANG-CM     DATA-CM    DATA-ERR
MEV        MEV        ADEG       MB/SR      MB/SR
 0.0000     16.000     16.529    0.28226    0.48681E-01
 0.0000     16.000     22.305    0.18752    0.18713E-01
 0.0000     16.000     27.678    0.20000    0.21836E-01
 0.0000     16.000     33.374    0.17192    0.18775E-01
 0.0000     17.000     16.736    0.33218    0.46949E-01
 0.0000     17.000     22.300    0.15766    0.16483E-01
 0.0000     17.000     27.836    0.23049    0.21894E-01
 0.0000     17.000     33.478    0.17836    0.19478E-01
 0.0000     18.000     16.651    0.38306    0.38145E-01
 0.0000     18.000     22.407    0.18114    0.22265E-01
 0.0000     18.000     27.973    0.19725    0.17763E-01
 0.0000     18.000     33.476    0.16611    0.20413E-01
 0.0000     19.000     16.791    0.48826    0.53267E-01
 0.0000     19.000     22.465    0.27878    0.22464E-01
 0.0000     19.000     27.873    0.23604    0.20157E-01
 0.0000     19.000     33.577    0.23514    0.34257E-01
 0.0000     20.000     16.767    0.51191    0.55952E-01
 0.0000     20.000     22.489    0.29652    0.26782E-01
 0.0000     20.000     27.897    0.25360    0.26534E-01
 0.0000     20.000     33.496    0.21346    0.18275E-01
 0.0000     21.000     16.687    0.53298    0.45347E-01
 0.0000     21.000     22.412    0.33145    0.26599E-01
 0.0000     21.000     27.912    0.26502    0.23806E-01
 0.0000     21.000     33.498    0.17923    0.20317E-01
 0.0000     22.000     16.579    0.63265    0.62882E-01
 0.0000     22.000     22.479    0.35133    0.28221E-01
 0.0000     22.000     28.034    0.29343    0.33325E-01
 0.0000     22.000     33.384    0.18366    0.15648E-01
 0.0000     23.000     16.639    0.92502    0.78811E-01
 0.0000     23.000     22.366    0.43657    0.37165E-01
 0.0000     23.000     27.940    0.31488    0.28333E-01
 0.0000     23.000     33.622    0.20780    0.20668E-01
 0.0000     24.000     16.767    0.73819    0.93738E-01
 0.0000     24.000     22.465    0.30495    0.31664E-01
 0.0000     24.000     27.960    0.27562    0.29885E-01
 0.0000     24.000     33.597    0.17932    0.16082E-01
 0.0000     25.000     16.997    0.86774    0.86516E-01
 0.0000     25.000     22.537    0.39438    0.46638E-01
 0.0000     25.000     28.120    0.26705    0.30378E-01
 0.0000     25.000     33.657    0.17706    0.24191E-01
 0.0000     26.000     16.672    0.84721    0.10861
 0.0000     26.000     22.501    0.38964    0.49979E-01
 0.0000     26.000     27.928    0.28488    0.40421E-01
 0.0000     26.000     33.449    0.14942    0.20503E-01
 0.0000     27.000     16.753    0.79473    0.12287
 0.0000     27.000     22.518    0.40763    0.46370E-01
 0.0000     27.000     27.973    0.24204    0.26405E-01
 0.0000     27.000     33.675    0.19902    0.21699E-01
 3.7300     16.000     16.506    0.16237    0.42341E-01
 3.7300     16.000     22.104    0.16848    0.21688E-01
 3.7300     16.000     27.841    0.99690E-010.15999E-01
 3.7300     16.000     33.379    0.63856E-010.39372E-02
 3.7300     17.000     16.635    0.13837    0.30323E-01
 3.7300     17.000     22.210    0.10413    0.10895E-01
 3.7300     17.000     27.765    0.10088    0.20856E-01
 3.7300     17.000     33.462    0.54493E-010.30651E-02
 3.7300     18.000     16.598    0.17284    0.30740E-01
 3.7300     18.000     22.312    0.13986    0.16031E-01
 3.7300     18.000     27.931    0.11021    0.20556E-01
 3.7300     18.000     33.503    0.86387    0.99015E-02
 3.7300     19.000     16.822    0.37058    0.40956E-01
 3.7300     19.000     22.437    0.16321    0.21864E-01
 3.7300     19.000     27.817    0.12503    0.20700E-01
 3.7300     19.000     33.390    0.95790E-010.11937E-01
 3.7300     20.000     16.790    0.24628    0.37386E-01
 3.7300     20.000     22.365    0.18483    0.22988E-01
 3.7300     20.000     27.990    0.13365    0.17855E-01
 3.7300     20.000     33.527    0.86439E-010.99395E-02
 3.7300     21.000     16.708    0.29896    0.41322E-01
 3.7300     21.000     22.152    0.18529    0.19570E-01
 3.7300     21.000     27.770    0.14743    0.13448E-01
 3.7300     21.000     33.180    0.75470E-010.93869E-02
 3.7300     22.000     16.847    0.33713    0.38781E-01
 3.7300     22.000     22.475    0.19476    0.20563E-01
 3.7300     22.000     28.154    0.13196    0.16415E-01
 3.7300     22.000     33.637    0.78288E-010.97390E-02
 3.7300     23.000     16.843    0.30820    0.40954E-01
 3.7300     23.000     22.373    0.16332    0.17145E-01
 3.7300     23.000     27.915    0.16225    0.17798E-01
 3.7300     23.000     33.539    0.79008E-010.94054E-02
 3.7300     24.000     16.892    0.32500    0.50957E-01
 3.7300     24.000     22.519    0.17867    0.20613E-01
 3.7300     24.000     27.961    0.14190    0.18362E-01
 3.7300     24.000     33.640    0.99153E-010.16433E-01
 3.7300     25.000     16.798    0.32005    0.38725E-01
 3.7300     25.000     22.476    0.20134    0.19544E-01
 3.7300     25.000     28.156    0.13953    0.18842E-01
 3.7300     25.000     33.686    0.75114E-010.10143E-01
 3.7300     26.000     16.864    0.36889    0.35410E-01
 3.7300     26.000     22.389    0.16783    0.16109E-01
 3.7300     26.000     27.927    0.13990    0.22492E-01
 3.7300     26.000     33.360    0.77062E-010.92231E-02
 3.7300     27.000     16.859    0.31708    0.40896E-01
 3.7300     27.000     22.386    0.15213    0.18917E-01
 3.7300     27.000     27.974    0.14028    0.18739E-01
 3.7300     27.000     33.500    0.65537E-010.10828E-01
 4.4900     16.000     16.567    0.25940    0.48145E-01
 4.4900     16.000     22.196    0.18940    0.18927E-01
 4.4900     16.000     27.608    0.11566    0.16897E-01
 4.4900     16.000     33.151    0.13076    0.13684E-01
 4.4900     17.000     16.546    0.38826    0.38780E-01
 4.4900     17.000     22.077    0.19723    0.17822E-01
 4.4900     17.000     27.568    0.15106    0.22077E-01
 4.4900     17.000     33.091    0.14583    0.19312E-01
 4.4900     18.000     16.605    0.37738    0.42785E-01
 4.4900     18.000     22.287    0.19959    0.16971E-01
 4.4900     18.000     27.781    0.15634    0.18448E-01
 4.4900     18.000     33.167    0.15995    0.15891E-01
 4.4900     19.000     16.673    0.35733    0.43603E-01
 4.4900     19.000     22.272    0.20927    0.16733E-01
 4.4900     19.000     27.728    0.17653    0.19942E-01
 4.4900     19.000     33.287    0.15685    0.18431E-01
 4.4900     20.000     16.676    0.41125    0.55748E-01
 4.4900     20.000     22.236    0.25920    0.26826E-01
 4.4900     20.000     27.587    0.20547    0.19339E-01
 4.4900     20.000     33.182    0.11791    0.18602E-01
 4.4900     21.000     16.626    0.48956    0.39137E-01
 4.4900     21.000     22.324    0.14506    0.17018E-01
 4.4900     21.000     27.760    0.21468    0.19207E-01
 4.4900     21.000     33.167    0.12649    0.21604E-01
 4.4900     22.000     16.835    0.37546    0.26803E-01
 4.4900     22.000     22.496    0.24209    0.18488E-01
 4.4900     22.000     27.857    0.20028    0.17226E-01
 4.4900     22.000     33.424    0.95026E-010.12655E-01
 4.4900     23.000     16.679    0.33493    0.34912E-01
 4.4900     23.000     22.369    0.26326    0.21163E-01
 4.4900     23.000     27.873    0.21586    0.20447E-01
 4.4900     23.000     33.249    0.76158E-010.11074E-01
 4.4900     24.000     16.971    0.47378    0.51509E-01
 4.4900     24.000     22.406    0.24775    0.19914E-01
 4.4900     24.000     27.826    0.22094    0.17742E-01
 4.4900     24.000     33.429    0.98719E-010.84009E-02
 4.4900     25.000     16.972    0.48617    0.55020E-01
 4.4900     25.000     22.535    0.23149    0.19678E-01
 4.4900     25.000     27.976    0.23525    0.21120E-01
 4.4900     25.000     33.532    0.78918E-010.10385E-01
 4.4900     26.000     16.917    0.40861    0.46227E-01
 4.4900     26.000     22.559    0.23620    0.21183E-01
 4.4900     26.000     28.033    0.21852    0.20650E-01
 4.4900     26.000     33.374    0.45896E-010.97972E-02
 4.4900     27.000     16.842    0.38785    0.34751E-01
 4.4900     27.000     22.453    0.25020    0.16415E-01
 4.4900     27.000     27.956    0.20526    0.17413E-01
 4.4900     27.000     33.261    0.86792E-010.11008E-01
 5.6100     16.000     16.620    0.36853    0.50257E-01
 5.6100     16.000     22.098    0.20751    0.20610E-01
 5.6100     16.000     27.800    0.14475    0.19698E-01
 5.6100     16.000     33.226    0.15431    0.13128E-01
 5.6100     17.000     16.540    0.41341    0.53342E-01
 5.6100     17.000     22.188    0.19567    0.15938E-01
 5.6100     17.000     27.719    0.15839    0.18929E-01
 5.6100     17.000     33.262    0.13958    0.14064E-01
 5.6100     18.000     16.640    0.49526    0.58936E-01
 5.6100     18.000     22.080    0.20730    0.18830E-01
 5.6100     18.000     27.698    0.15600    0.16390E-01
 5.6100     18.000     33.206    0.15133    0.15888E-01
 5.6100     19.000     16.722    0.50645    0.62593E-01
 5.6100     19.000     22.412    0.22857    0.20699E-01
 5.6100     19.000     27.926    0.16328    0.15579E-01
 5.6100     19.000     33.415    0.13882    0.18433E-01
 5.6100     20.000     16.822    0.64082    0.58350E-01
 5.6100     20.000     22.309    0.27308    0.27484E-01
 5.6100     20.000     27.947    0.16866    0.17765E-01
 5.6100     20.000     33.306    0.11345    0.15145E-01
 5.6100     21.000     16.798    0.51018    0.33992E-01
 5.6100     21.000     22.346    0.23664    0.20386E-01
 5.6100     21.000     27.733    0.19267    0.21206E-01
 5.6100     21.000     33.348    0.14252    0.19006E-01
 5.6100     22.000     16.856    0.44226    0.46680E-01
 5.6100     22.000     22.192    0.24587    0.18825E-01
 5.6100     22.000     27.800    0.20147    0.15425E-01
 5.6100     22.000     33.324    0.12066    0.86422E-02
 5.6100     23.000     16.773    0.43660    0.41874E-01
 5.6100     23.000     22.343    0.28640    0.23308E-01
 5.6100     23.000     27.867    0.18006    0.12889E-01
 5.6100     23.000     33.536    0.10851    0.83004E-02
 5.6100     24.000     16.721    0.53586    0.43551E-01
 5.6100     24.000     22.162    0.24395    0.21016E-01
 5.6100     24.000     27.818    0.20214    0.16438E-01
 5.6100     24.000     33.451    0.91547E-010.78868E-02
 5.6100     25.000     16.869    0.45148    0.47633E-01
 5.6100     25.000     22.355    0.21521    0.15423E-01
 5.6100     25.000     27.920    0.16114    0.14689E-01
 5.6100     25.000     33.514    0.58277E-010.88486E-02
 5.6100     26.000     16.619    0.48801    0.44437E-01
 5.6100     26.000     22.450    0.19138    0.16505E-01
 5.6100     26.000     28.095    0.20673    0.16824E-01
 5.6100     26.000     33.496    0.78514E-010.86512E-02
 5.6100     27.000     16.768    0.39692    0.43708E-01
 5.6100     27.000     22.113    0.19039    0.15495E-01
 5.6100     27.000     27.760    0.19924    0.14258E-01
 5.6100     27.000     33.069    0.71384E-010.85344E-02
ENDDATA            194
ENDSUBENT          205
SUBENT        F0629005   20050615   20050831                  F022
BIB                  2          2
REACTION   (20-CA-40(HE3,A)20-CA-39,PAR,DA)
STATUS     (CURVE)Fig.5
ENDBIB               2
COMMON               2          3
ANG-ERR-D  ERR-DIG
ADEG       PER-CENT
 0.04       0.004
ENDCOMMON            3
DATA                 5         96
E-LVL      EN         ANG-CM     DATA-CM    DATA-ERR
MEV        MEV        ADEG       MB/SR      MB/SR
 0.0000     16.000     16.875     7.1070    0.55697
 0.0000     16.000     22.381     2.5131    0.18341
 0.0000     16.000     28.165     1.5192    0.11087
 0.0000     16.000     33.491     1.6262    0.14479
 0.0000     17.000     16.697     5.8648    0.54879
 0.0000     17.000     22.212     2.9432    0.27531
 0.0000     17.000     27.940     1.5557    0.12916
 0.0000     17.000     33.424     1.7032    0.14140
 0.0000     18.000     16.811     6.4010    0.56387
 0.0000     18.000     22.211     2.4399    0.21493
 0.0000     18.000     27.952     2.0600    0.18147
 0.0000     18.000     33.485     1.9631    0.12060
 0.0000     19.000     16.840     7.2231    0.52205
 0.0000     19.000     22.346     2.7500    0.24255
 0.0000     19.000     28.086     2.2426    0.20952
 0.0000     19.000     33.620     2.1620    0.15619
 0.0000     20.000     16.767     7.2470    0.48311
 0.0000     20.000     22.329     2.9163    0.25630
 0.0000     20.000     28.170     2.0853    0.20497
 0.0000     20.000     33.552     2.4876    0.16579
 0.0000     21.000     16.808     7.0348    0.58263
 0.0000     21.000     22.265     2.9922    0.27922
 0.0000     21.000     27.953     2.4691    0.21751
 0.0000     21.000     33.483     2.0851    0.20547
 0.0000     22.000     16.689     7.5635    0.59180
 0.0000     22.000     22.445     2.7140    0.25563
 0.0000     22.000     28.156     2.4002    0.20064
 0.0000     22.000     33.547     2.0860    0.17437
 0.0000     23.000     16.719     8.6723    0.72253
 0.0000     23.000     22.208     3.1592    0.32964
 0.0000     23.000     27.972     2.3900    0.23693
 0.0000     23.000     33.520     1.5370    0.16037
 0.0000     24.000     16.814     7.9399    0.78429
 0.0000     24.000     22.461     2.4696    0.21805
 0.0000     24.000     28.120     2.3292    0.24217
 0.0000     24.000     33.557     1.1239    0.12266
 0.0000     25.000     16.905     7.3835    0.87422
 0.0000     25.000     22.552     2.6463    0.18989
 0.0000     25.000     28.210     2.3580    0.21876
 0.0000     25.000     33.752     1.0327    0.10648
 0.0000     26.000     16.973     6.3539    0.69258
 0.0000     26.000     22.516     2.6412    0.20498
 0.0000     26.000     28.228     2.4066    0.18678
 0.0000     26.000     33.505    0.99463    0.98132E-01
 0.0000     27.000     16.781     5.7124    0.53827
 0.0000     27.000     22.220     2.3294    0.19479
 0.0000     27.000     28.040     2.3147    0.16871
 0.0000     27.000     33.638    0.80654    0.71737E-01
 2.4700     16.000     16.626     6.1813    0.80676
 2.4700     16.000     22.251     4.2891    0.28964
 2.4700     16.000     27.665     2.3710    0.13417
 2.4700     16.000     33.540    0.40167    0.22734E-01
 2.4700     17.000     16.481     4.7586    0.73480
 2.4700     17.000     22.153     4.1528    0.26487
 2.4700     17.000     27.464     1.8524    0.10772
 2.4700     17.000     33.388    0.35084    0.20403E-01
 2.4700     18.000     16.498     6.0098    0.96437
 2.4700     18.000     22.178     4.1454    0.25754
 2.4700     18.000     27.607     1.3875    0.86200E-01
 2.4700     18.000     33.466    0.50396    0.31309E-01
 2.4700     19.000     16.471     5.9981    0.78487
 2.4700     19.000     22.144     5.2240    0.32532
 2.4700     19.000     27.647     1.1122    0.69260E-01
 2.4700     19.000     33.387    0.67028    0.41741E-01
 2.4700     20.000     16.238     5.0644    0.66320
 2.4700     20.000     21.969     3.9692    0.24730
 2.4700     20.000     27.646    0.47874    0.29828E-01
 2.4700     20.000     33.085    0.78390    0.48842E-01
 2.4700     21.000     16.455     6.4555     1.0102
 2.4700     21.000     22.256     2.9816    0.18643
 2.4700     21.000     27.543    0.61262    0.38295E-01
 2.4700     21.000     33.354     1.1707    0.73180E-01
 2.4700     22.000     16.710     6.7459
 2.4700     22.000     22.597     2.0645
 2.4700     22.000     28.002    0.52420
 2.4700     22.000     33.668     1.1259
 2.4700     23.000     16.950     5.3525    0.65911
 2.4700     23.000     22.891     2.2388    0.12981
 2.4700     23.000     28.084    0.90339    0.57450E-01
 2.4700     23.000     33.698    0.99442    0.57664E-01
 2.4700     24.000     17.032     5.8367    0.73824
 2.4700     24.000     22.495    0.98891    0.56468E-01
 2.4700     24.000     27.897    0.72865    0.45634E-01
 2.4700     24.000     33.669     1.5023    0.94084E-01
 2.4700     25.000     16.902     6.0678    0.80072
 2.4700     25.000     22.683    0.77509    0.52951E-01
 2.4700     25.000     28.190     1.0472    0.65770E-01
 2.4700     25.000     33.857     1.4066    0.80543E-01
 2.4700     26.000     16.846     4.7042    0.49220
 2.4700     26.000     22.579    0.35979    0.22300E-01
 2.4700     26.000     27.814     1.2351    0.83271E-01
 2.4700     26.000     33.696     1.2070    0.74812E-01
 2.4700     27.000     16.899     5.0448    0.66466
 2.4700     27.000     22.429    0.18904    0.10807E-01
 2.4700     27.000     27.816     1.5196    0.95273E-01
 2.4700     27.000     33.486     1.1194    0.70184E-01
ENDDATA             98
ENDSUBENT          109
ENDENTRY             5
