ENTRY            F0620   20040202   20040519
SUBENT        F0620001   20040202   20040519
BIB                  9         16
TITLE      Production of short-lived positron sources for
           spin-polarized positron beams using a 35 MeV
           alpha-beam.
AUTHOR     (Y.ITOH, Z.L.PENG, A.GOTO, N.NAKANISHI, M.KASE,
           K.H.LEE, Y.ITO)
INSTITUTE  (2JPNIPC,3KORKOR,2JPNTOK)
REFERENCE  (J,NIM/A,383,272,1996)
FACILITY   (ISOCY,2JPNIPC)
DETECTOR   (BGO) Two detectors were aligned collinearly to measure
           the intensity of slow positron beam.
           (MCPLT) A microchannel plate assembly is placed between
           the detectors to monitor the beam profile.
ERR-ANALYS (EN-ERR-DIG)     Digitizing error
           (ERR-DIG)   Digitizing error
ADD-RES    (DECAY)
HISTORY    (20031104C)
ENDBIB              16
NOCOMMON
ENDSUBENT           19
SUBENT        F0620002   20040202   20040519
BIB                  4          6
REACTION   ((13-AL-27(A,N)15-P-30,,SIG)+
           (13-AL-27(A,N+A)13-AL-26,,SIG))
SAMPLE     Thin target plates of aluminum (550 mu-m) were used.
DECAY-DATA (15-P-30,2.50MIN,B+)
           (13-AL-26,6.37SEC,B+)
STATUS     (CURVE)Fig.3
ENDBIB               6
COMMON               2          3
EN-ERR-DIG ERR-DIG
MEV        MB
 0.01       0.2
ENDCOMMON            3
DATA                 2         33
EN         DATA
MEV        MB
 2.9736     2.9714
 4.0000     45.777
 4.9795     136.52
 5.9176     285.63
 6.9078     408.10
 7.8869     497.82
 8.8567     559.89
 9.8855     615.81
 10.897     619.52
 11.892     487.08
 12.886     440.63
 13.858     330.72
 14.927     233.06
 15.944     164.08
 16.915     141.19
 17.910     96.786
 18.975     81.024
 19.952     72.463
 20.962     73.102
 21.942     75.800
 22.959     98.958
 23.949     131.34
 24.900     138.14
 25.944     146.96
 26.929     166.04
 27.917     189.21
 28.896     188.83
 29.968     192.52
 30.948     195.22
 31.900     206.12
 32.935     190.37
 33.975     187.92
 35.012     177.29
ENDDATA             35
ENDSUBENT           50
SUBENT        F0620003   20040202   20040519
BIB                  4          6
REACTION   ((14-SI-28(A,N)16-S-31,,SIG)+
           (14-SI-28(A,N+P)15-P-30,,SIG))
SAMPLE     Thin target plates of silicon (600 mu-m) were used.
DECAY-DATA (16-S-31,2.72SEC,B+)
           (15-P-30,2.50MIN,B+)
STATUS     (CURVE)Fig.3
ENDBIB               6
COMMON               2          3
EN-ERR-DIG ERR-DIG
MEV        MB
 0.01       0.3
ENDCOMMON            3
DATA                 2         27
EN         DATA
MEV        MB
 8.9473     1.8818
 9.9897     4.8763
 10.948     33.139
 11.935     57.300
 12.977     62.014
 13.963     83.108
 14.977     98.057
 15.989     105.85
 16.968     105.47
 17.917     108.18
 18.964     127.20
 19.956     166.70
 20.954     222.55
 21.931     303.98
 22.924     347.56
 23.923     405.46
 24.914     438.83
 25.908     483.43
 26.894     505.55
 27.879     521.53
 28.889     525.24
 29.927     518.70
 30.930     499.92
 31.930     471.93
 32.902     452.13
 33.960     415.93
 34.960     386.92
ENDDATA             29
ENDSUBENT           44
SUBENT        F0620004   20040202   20040519
BIB                  4          6
REACTION   ((28-NI-58(A,N+P)29-CU-60,,SIG)+
           (28-NI-58(A,P)29-CU-61,,SIG))
SAMPLE     Thin target plates of nickel (200 mu-m) were used.
DECAY-DATA (29-CU-60,23.4MIN,B+)
           (29-CU-61,3.32HR,B+)
STATUS     (CURVE)Fig.3
ENDBIB               6
COMMON               2          3
EN-ERR-DIG ERR-DIG
MEV        MB
 0.01       0.3
ENDCOMMON            3
DATA                 2         31
EN         DATA
MEV        MB
 4.9739     1.6993
 5.9850     3.0306
 6.9662     9.8195
 7.9555     40.151
 8.8991     115.55
 9.9207     240.05
 10.911     361.49
 11.923     459.38
 12.871     548.09
 13.899     599.90
 14.944     614.86
 15.937     566.36
 16.914     471.80
 17.877     425.36
 18.949     342.02
 19.924     329.36
 20.916     367.88
 21.868     468.87
 22.865     519.67
 23.908     618.57
 24.909     681.66
 25.904     728.37
 26.933     785.31
 27.886     799.27
 28.894     795.81
 29.935     797.46
 30.930     757.15
 31.890     701.50
 32.855     660.18
 33.946     630.07
 34.939     583.62
ENDDATA             33
ENDSUBENT           48
ENDENTRY             4
