ENTRY            F0645   20040611
SUBENT        F0645001   20040611
BIB                  9         14
TITLE      Large-angle alpha scattering from 40Ca is not anomalous
AUTHOR     (H.P.Gubler,U.Kiebele,H.O.Meyer,G.R.Plattner,I.Sick)
INSTITUTE  (2SWTBAS)
REFERENCE  (J,PL/B,74,202,1978)
FACILITY   (CYCLO)
ANALYSIS   (WSP)
SAMPLE     The targets were natural Ca of 0.2-0.4 mg/cm2 thickness
           evaporated onto a thin carbon foil.
ERR-ANALYS (DATA-ERR1) Overall normalization uncertainty.
           (DATA-ERR2)Errors from the graphic bars. The errors
           shown include statistical as well as systematic
           contributions.
           (ERR-DIG)Digitizing error
HISTORY    (20040218C)
ENDBIB              14
COMMON               3          3
ANG-RSL    E-ERR      DATA-ERR1
ADEG       KEV        PER-CENT
 0.6        50.0       10.0
ENDCOMMON            3
ENDSUBENT           21
SUBENT        F0645002   20040611
BIB                  3          3
REACTION   (20-CA-40(A,EL)20-CA-40,,DA,,RTH)
ERR-ANALYS (ANG-ERR-D)Digitizing error
STATUS     (CURVE)Fig.1
ENDBIB               3
COMMON               2          3
ANG-ERR-D  ERR-DIG
ADEG       PER-CENT
 0.14       0.2
ENDCOMMON            3
DATA                 4        761
EN         ANG-CM     DATA-CM    DATA-ERR2
MEV        ADEG       NO-DIM     NO-DIM
 26.100     34.628    0.11961    0.13958E-01
 26.100     35.651    0.14571    0.19011E-01
 26.100     36.679    0.16291    0.23528E-01
 26.100     37.546    0.19125    0.30322E-01
 26.100     38.816    0.19629    0.25610E-01
 26.100     39.614    0.18253    0.21067E-01
 26.100     40.654    0.15968    0.16688E-01
 26.100     42.736    0.11494    0.21531E-01
 26.100     43.708    0.78678E-010.14737E-01
 26.100     44.843    0.49433E-010.71392E-02
 26.100     45.819    0.31436E-010.49593E-02
 26.100     46.626    0.24320E-010.38560E-02
 26.100     47.804    0.32688E-010.61229E-02
 26.100     48.732    0.55448E-010.64707E-02
 26.100     49.737    0.98793E-010.14269E-01
 26.100     50.756    0.13440    0.13855E-01
 26.100     51.859    0.16374    0.19109E-01
 26.100     52.885    0.18761    0.16818E-01
 26.100     53.837    0.19486    0.25424E-01
 26.100     54.716    0.17682    0.23072E-01
 26.100     55.754    0.16247    0.15184E-01
 26.100     57.674    0.12432    0.14520E-01
 26.100     58.796    0.10106    0.18006E-01
 26.100     59.848    0.69178E-010.12325E-01
 26.100     60.839    0.31591E-010.11865E-01
 26.100     61.999    0.11859E-010.44536E-02
 26.100     62.939    0.30428E-020.19022E-02
 26.100     63.851    0.71874E-020.33245E-02
 26.100     64.828    0.23356E-010.47170E-02
 26.100     65.910    0.44249E-010.76480E-02
 26.100     66.924    0.65593E-010.11337E-01
 26.100     67.942    0.90333E-010.11786E-01
 26.100     68.965    0.11140    0.13001E-01
 26.100     69.915    0.12004    0.14008E-01
 26.100     70.868    0.12017    0.10773E-01
 26.100     71.983    0.11598    0.11956E-01
 26.100     72.940    0.10787    0.96697E-02
 26.100     73.908    0.80455E-010.12756E-01
 26.100     75.038    0.55760E-010.52107E-02
 26.100     76.085    0.42105E-010.39347E-02
 26.100     77.140    0.26452E-010.49779E-02
 26.100     78.281    0.14701E-010.37494E-02
 26.100     79.277    0.60863E-020.27901E-02
 26.100     80.104    0.31415E-020.10751E-02
 26.100     81.202    0.42220E-020.85315E-03
 26.100     81.217    0.31455E-020.52854E-03
 26.100     82.366    0.76167E-020.16513E-02
 26.100     83.309    0.96258E-020.12559E-02
 26.100     83.319    0.77191E-020.89091E-03
 26.100     84.410    0.12167E-010.14043E-02
 26.100     84.484    0.13756E-010.25766E-02
 26.100     85.360    0.13272E-010.12403E-02
 26.100     85.433    0.15005E-010.28107E-02
 26.100     86.386    0.15395E-010.24408E-02
 26.100     87.418    0.15796E-010.25043E-02
 26.100     88.374    0.14872E-010.30053E-02
 26.100     88.384    0.12223E-010.11422E-02
 26.100     89.353    0.87868E-020.12949E-02
 26.100     89.419    0.11651E-010.18473E-02
 26.100     90.403    0.61644E-020.13364E-02
 26.100     90.990    0.32599E-020.10096E-02
 26.100     91.436    0.12078E-020.69371E-03
 26.100     91.987    0.13496E-020.10231E-02
 26.100     92.528    0.35473E-030.46206E-03
 26.100     93.366    0.74114E-030.42568E-03
 26.100     94.035    0.19544E-020.13063E-02
 26.100     94.418    0.26245E-020.85523E-03
 26.100     94.531    0.68321E-020.20452E-02
 26.100     95.475    0.83224E-020.35546E-02
 26.100     96.560    0.15013E-010.30320E-02
 26.100     97.487    0.25780E-010.40899E-02
 26.100     98.430    0.32183E-010.33176E-02
 26.100     99.534    0.38732E-010.39928E-02
 26.100     100.48    0.45476E-010.42496E-02
 26.100     100.55    0.52049E-010.46654E-02
 26.100     101.42    0.56079E-010.73168E-02
 26.100     102.53    0.62703E-010.64639E-02
 26.100     103.48    0.69242E-010.71380E-02
 26.100     103.49    0.62006E-010.57944E-02
 26.100     104.51    0.74618E-010.87078E-02
 26.100     105.54    0.81403E-010.76074E-02
 26.100     105.61    0.90910E-010.93717E-02
 26.100     106.49    0.92124E-010.94969E-02
 26.100     106.57    0.83523E-010.78050E-02
 26.100     107.52    0.99276E-010.12953E-01
 26.100     108.55    0.10062    0.11742E-01
 26.100     109.58    0.10198    0.91419E-02
 26.100     110.69    0.10857    0.14165E-01
 26.100     111.64    0.11003    0.12840E-01
 26.100     114.45    0.67585E-010.97612E-02
 26.100     115.65    0.51044E-010.59564E-02
 26.100     116.45    0.51090E-010.66659E-02
 26.100     116.46    0.41988E-010.43879E-02
 26.100     117.65    0.42045E-010.54857E-02
 26.100     118.60    0.42091E-010.43984E-02
 26.100     119.46    0.55863E-010.52203E-02
 26.100     120.56    0.81806E-010.95467E-02
 26.100     120.57    0.66411E-010.10477E-01
 26.100     121.50    0.10088    0.10399E-01
 26.100     122.69    0.12142    0.14170E-01
 26.100     123.63    0.14790    0.29871E-01
 26.100     124.50    0.17153    0.14110E-01
 26.100     124.57    0.19156    0.22355E-01
 26.100     125.67    0.23627    0.24356E-01
 26.100     129.65    0.21782    0.22453E-01
 26.100     129.66    0.18572    0.15278E-01
 26.100     130.54    0.17701    0.18246E-01
 26.100     131.57    0.16464    0.14758E-01
 26.100     131.58    0.14564    0.13610E-01
 26.100     132.70    0.12282    0.12661E-01
 26.100     133.58    0.99807E-010.11647E-01
 26.100     134.71    0.73547E-010.75813E-02
 26.100     135.75    0.61261E-010.63153E-02
 26.100     136.79    0.55602E-010.57319E-02
 26.100     137.73    0.73802E-010.86126E-02
 26.100     137.74    0.59913E-010.49286E-02
 26.100     138.83    0.89916E-010.92692E-02
 26.100     139.78    0.99294E-010.10236E-01
 26.100     141.75    0.14555    0.13602E-01
 26.100     143.73    0.15896    0.14856E-01
 26.100     144.85    0.16113    0.15044E-01
 26.100     145.72    0.15546    0.22452E-01
 26.100     145.81    0.12935    0.10642E-01
 26.100     146.85    0.12180    0.14214E-01
 26.100     147.89    0.98998E-010.10345E-01
 26.100     148.77    0.83464E-010.96329E-02
 26.100     149.82    0.62257E-010.71853E-02
 26.100     150.78    0.56500E-010.58245E-02
 26.100     151.81    0.57972E-010.91911E-02
 26.100     152.60    0.65595E-010.75706E-02
 26.100     153.14    0.91402E-010.10667E-01
 26.100     153.93    0.97271E-010.11351E-01
 26.100     154.40    0.11988    0.13990E-01
 26.100     154.94    0.14777    0.27695E-01
 26.100     155.97    0.17782    0.20751E-01
 26.100     156.68    0.19156    0.17901E-01
 26.100     157.07    0.22477    0.29326E-01
 26.100     158.10    0.25130    0.29325E-01
 26.100     159.13    0.27415    0.39593E-01
 26.100     160.00    0.27108    0.46883E-01
 26.100     161.03    0.27814    0.32457E-01
 26.100     162.07    0.27507    0.39727E-01
 26.100     163.02    0.25900    0.33793E-01
 26.100     165.12    0.13225    0.13810E-01
 26.100     166.03    0.60388E-010.13711E-01
 26.100     167.09    0.37475E-010.13450E-01
 26.100     167.60    0.19101E-010.69684E-02
 26.100     168.30    0.54714E-020.42665E-02
 26.100     169.09    0.54764E-020.36907E-02
 26.100     169.75    0.17147E-010.65194E-02
 26.100     170.43    0.36707E-010.14508E-01
 26.100     171.19    0.72125E-010.20331E-01
 26.100     171.88    0.11789    0.28983E-01
 26.100     172.34    0.17680    0.57378E-01
 26.100     173.20    0.22896    0.31333E-01
 26.100     174.06    0.30018    0.37881E-01
 26.100     174.21    0.37901    0.82168E-01
 26.100     175.15    0.49088    0.72340E-01
 26.100     175.71    0.52870    0.72351E-01
 26.100     175.86    0.59779    0.94776E-01
 26.100     176.40    0.77388    0.11176
 31.000     34.756    0.27158    0.35889E-01
 31.000     35.789    0.27191    0.32134E-01
 31.000     36.825    0.25585    0.26708E-01
 31.000     37.793    0.18781    0.22195E-01
 31.000     38.774    0.10623    0.17072E-01
 31.000     39.836    0.57893E-010.12711E-01
 31.000     40.774    0.14796E-010.92123E-02
 31.000     42.802    0.62203E-020.35120E-02
 31.000     43.767    0.26279E-010.53774E-02
 31.000     44.838    0.63514E-010.13952E-01
 31.000     45.765    0.11254    0.13300E-01
 31.000     46.780    0.16554    0.21876E-01
 31.000     47.802    0.20723    0.24491E-01
 31.000     48.913    0.21537    0.25453E-01
 31.000     49.949    0.20265    0.21155E-01
 31.000     50.910    0.17480    0.28073E-01
 31.000     51.958    0.12674    0.13395E-01
 31.000     52.851    0.85284E-010.10079E-01
 31.000     53.916    0.43683E-010.13007E-01
 31.000     54.924    0.13960E-010.62978E-02
 31.000     55.759    0.11108E-020.26850E-02
 31.000     57.809    0.84201E-020.32310E-02
 31.000     58.792    0.24513E-010.57611E-02
 31.000     60.032    0.47394E-010.62629E-02
 31.000     60.812    0.64696E-010.67535E-02
 31.000     61.837    0.77065E-010.80447E-02
 31.000     62.869    0.78121E-010.81549E-02
 31.000     63.819    0.85305E-010.10082E-01
 31.000     64.787    0.62618E-010.65366E-02
 31.000     65.522    0.41095E-010.47967E-02
 31.000     66.893    0.26989E-010.67024E-02
 31.000     67.968    0.11194E-010.40727E-02
 31.000     68.902    0.31991E-020.16795E-02
 31.000     69.921    0.42611E-020.20777E-02
 31.000     70.736    0.15127E-010.37903E-02
 31.000     71.884    0.37952E-010.50192E-02
 31.000     72.982    0.52474E-010.62015E-02
 31.000     73.917    0.77183E-010.80571E-02
 31.000     75.016    0.10410    0.10867E-01
 31.000     75.890    0.10420    0.10878E-01
 31.000     77.079    0.10966    0.84782E-02
 31.000     78.111    0.11395    0.11896E-01
 31.000     79.148    0.10460    0.10919E-01
 31.000     80.981    0.94910E-010.99075E-02
 31.000     82.178    0.84996E-010.80339E-02
 31.000     83.219    0.72417E-010.84527E-02
 31.000     83.773    0.75212E-010.78514E-02
 31.000     84.332    0.70732E-010.66858E-02
 31.000     85.290    0.64918E-010.67767E-02
 31.000     86.243    0.65801E-010.69492E-02
 31.000     87.115    0.70084E-010.81746E-02
 31.000     88.302    0.77507E-010.70353E-02
 31.000     89.246    0.95820E-010.86972E-02
 31.000     90.276    0.10082    0.95294E-02
 31.000     91.149    0.10345    0.10934E-01
 31.000     92.258    0.11299    0.13353E-01
 31.000     93.287    0.12339    0.12881E-01
 31.000     94.320    0.12354    0.14600E-01
 31.000     95.429    0.13326    0.19494E-01
 31.000     96.148    0.12227    0.14451E-01
 31.000     97.416    0.13357    0.17651E-01
 31.000     98.290    0.13370    0.15801E-01
 31.000     99.486    0.12428    0.14688E-01
 31.000     100.36    0.12135    0.16037E-01
 31.000     101.24    0.11276    0.11771E-01
 31.000     103.24    0.77882E-010.70691E-02
 31.000     104.30    0.51770E-010.61183E-02
 31.000     105.41    0.48717E-010.44220E-02
 31.000     105.42    0.43568E-010.46048E-02
 31.000     106.46    0.33612E-010.30508E-02
 31.000     107.43    0.26912E-010.31805E-02
 31.000     108.37    0.30883E-010.52461E-02
 31.000     109.32    0.34144E-010.61497E-02
 31.000     110.34    0.43276E-010.45176E-02
 31.000     111.44    0.56235E-010.74313E-02
 31.000     112.39    0.68664E-010.81148E-02
 31.000     113.42    0.69604E-010.72659E-02
 31.000     114.38    0.69681E-010.72739E-02
 31.000     115.40    0.76096E-010.89932E-02
 31.000     117.33    0.51266E-010.60587E-02
 31.000     118.37    0.43140E-010.45034E-02
 31.000     119.19    0.25638E-010.41175E-02
 31.000     119.67    0.26297E-010.57769E-02
 31.000     120.23    0.22117E-010.20905E-02
 31.000     120.73    0.13808E-010.41116E-02
 31.000     121.31    0.85152E-020.16159E-02
 31.000     122.36    0.59483E-020.87016E-03
 31.000     122.37    0.50620E-020.14860E-02
 31.000     123.11    0.29343E-020.12194E-02
 31.000     123.45    0.19489E-020.64412E-03
 31.000     124.27    0.98564E-030.37563E-03
 31.000     124.93    0.57130E-030.34041E-03
 31.000     125.55    0.90495E-030.39218E-03
 31.000     126.25    0.12200E-020.55037E-03
 31.000     127.09    0.25086E-020.71413E-03
 31.000     127.63    0.31777E-020.69807E-03
 31.000     128.42    0.38794E-020.12060E-02
 31.000     129.19    0.59954E-020.16899E-02
 31.000     129.73    0.94959E-020.16637E-02
 31.000     130.46    0.73232E-020.27872E-02
 31.000     131.23    0.11894E-010.17713E-02
 31.000     131.77    0.15255E-010.24483E-02
 31.000     132.32    0.18618E-010.35311E-02
 31.000     132.70    0.26041E-010.30776E-02
 31.000     133.41    0.26718E-010.24252E-02
 31.000     134.51    0.35591E-010.42062E-02
 31.000     134.52    0.29180E-010.30841E-02
 31.000     135.46    0.37911E-010.35834E-02
 31.000     136.50    0.38910E-010.45985E-02
 31.000     137.45    0.35712E-010.37279E-02
 31.000     138.41    0.31972E-010.37786E-02
 31.000     139.46    0.26573E-010.45139E-02
 31.000     141.46    0.37474E-020.29680E-02
 31.000     142.20    0.19427E-020.15020E-03
 31.000     143.51    0.26043E-010.65223E-02
 31.000     144.52    0.42309E-010.10591E-01
 31.000     145.29    0.69573E-010.16343E-01
 31.000     145.99    0.99796E-010.11794E-01
 31.000     146.77    0.12335    0.12877E-01
 31.000     147.55    0.18140    0.21439E-01
 31.000     148.58    0.21609    0.22557E-01
 31.000     149.60    0.24191    0.25253E-01
 31.000     150.72    0.24222    0.25286E-01
 31.000     151.75    0.24554    0.22287E-01
 31.000     151.83    0.21158    0.15184E-01
 31.000     152.72    0.18249    0.16564E-01
 31.000     153.44    0.15542    0.27214E-01
 31.000     154.01    0.10326    0.21130E-01
 31.000     154.60    0.57657E-010.11799E-01
 31.000     155.67    0.26741E-010.83958E-02
 31.000     156.72    0.16706E-010.29251E-02
 31.000     157.43    0.22243E-010.45517E-02
 31.000     158.02    0.56466E-010.14142E-01
 31.000     158.70    0.11046    0.11532E-01
 31.000     159.79    0.17947    0.18735E-01
 31.000     160.72    0.29154    0.34455E-01
 31.000     161.82    0.39321    0.30399E-01
 31.000     162.76    0.51723    0.46947E-01
 31.000     164.82    0.58698    0.53280E-01
 31.000     165.94    0.52562    0.54868E-01
 31.000     166.82    0.48236    0.91757E-01
 31.000     167.70    0.37206    0.59755E-01
 31.000     167.95    0.29036    0.38370E-01
 31.000     168.85    0.18824    0.50062E-01
 31.000     169.59    0.10129    0.31801E-01
 31.000     169.87    0.46354E-010.21758E-01
 31.000     170.75    0.36201E-010.68700E-02
 31.000     171.69    0.56656E-010.37587E-01
 31.000     172.12    0.15301    0.63583E-01
 31.000     172.96    0.29569    0.97689E-01
 31.000     173.81    0.52387    0.12306
 31.000     174.26    0.84002    0.17190
 31.000     175.04     1.2051    0.15924
 31.000     176.14     1.5854    0.20951
 36.100     34.547    0.28762    0.33992E-01
 36.100     35.442    0.18189    0.32747E-01
 36.100     36.506    0.92010E-010.22850E-01
 36.100     37.592    0.29405E-010.13274E-01
 36.100     38.541    0.57903E-020.41168E-02
 36.100     39.588    0.24162E-010.79830E-02
 36.100     40.574    0.67771E-010.14895E-01
 36.100     42.612    0.12479    0.11327E-01
 36.100     43.554    0.16212    0.21424E-01
 36.100     44.578    0.19552    0.25838E-01
 36.100     45.611    0.19575    0.23135E-01
 36.100     46.495    0.16065    0.18986E-01
 36.100     47.626    0.10679    0.18699E-01
 36.100     48.689    0.56071E-010.14445E-01
 36.100     49.765    0.21856E-010.93556E-02
 36.100     50.639    0.39454E-020.28050E-02
 36.100     51.694    0.13667E-010.43659E-02
 36.100     52.680    0.38812E-010.73656E-02
 36.100     53.598    0.82840E-010.15758E-01
 36.100     54.613    0.12338    0.12879E-01
 36.100     55.638    0.14880    0.17585E-01
 36.100     57.621    0.16266    0.19224E-01
 36.100     58.654    0.16285    0.19247E-01
 36.100     59.616    0.13533    0.12284E-01
 36.100     60.579    0.10971    0.11452E-01
 36.100     61.546    0.82550E-010.86174E-02
 36.100     62.192    0.66894E-010.69833E-02
 36.100     62.756    0.55565E-010.52524E-02
 36.100     63.876    0.47344E-010.42973E-02
 36.100     64.589    0.50416E-010.66625E-02
 36.100     65.608    0.68838E-010.62483E-02
 36.100     66.468    0.92816E-010.96892E-02
 36.100     67.647    0.12365    0.11223E-01
 36.100     68.672    0.14912    0.13535E-01
 36.100     69.541    0.16691    0.15151E-01
 36.100     70.730    0.17783    0.16142E-01
 36.100     71.763    0.17804    0.16160E-01
 36.100     72.562    0.16135    0.19069E-01
 36.100     73.754    0.16359    0.14848E-01
 36.100     74.792    0.14830    0.13460E-01
 36.100     75.833    0.12325    0.11187E-01
 36.100     76.721    0.92730E-010.10959E-01
 36.100     77.764    0.74250E-010.10862E-01
 36.100     78.884    0.63265E-010.12006E-01
 36.100     79.768    0.51280E-010.67767E-02
 36.100     80.876    0.56005E-010.13156E-01
 36.100     80.885    0.46491E-010.88472E-02
 36.100     81.838    0.47122E-010.49805E-02
 36.100     82.947    0.50828E-010.42297E-02
 36.100     83.101    0.57556E-010.60083E-02
 36.100     83.975    0.57612E-010.60892E-02
 36.100     85.950    0.74934E-010.68016E-02
 36.100     86.903    0.75014E-010.12048E-01
 36.100     87.857    0.75094E-010.99237E-02
 36.100     88.890    0.75181E-010.88852E-02
 36.100     89.932    0.62482E-010.56714E-02
 36.100     92.916    0.24106E-010.43419E-02
 36.100     95.895    0.18294E-020.17912E-02
 36.100     96.862    0.13938E-020.11021E-02
 36.100     97.259    0.79264E-020.27293E-02
 36.100     97.808    0.93201E-020.16780E-02
 36.100     98.746    0.13044E-010.18051E-02
 36.100     98.973    0.16518E-010.17243E-02
 36.100     99.844    0.18035E-010.21315E-02
 36.100     100.95    0.21753E-010.28746E-02
 36.100     101.99    0.19476E-010.25738E-02
 36.100     102.86    0.17653E-010.20863E-02
 36.100     103.20    0.12475E-010.31229E-02
 36.100     103.92    0.10236E-010.22487E-02
 36.100     104.91    0.48060E-020.15884E-02
 36.100     105.95    0.43567E-020.89154E-03
 36.100     106.96    0.77201E-020.13905E-02
 36.100     107.50    0.10277E-010.22577E-02
 36.100     108.35    0.18208E-010.34649E-02
 36.100     109.05    0.26443E-010.47627E-02
 36.100     109.83    0.32281E-010.34119E-02
 36.100     110.61    0.41931E-010.48943E-02
 36.100     111.16    0.51813E-010.47030E-02
 36.100     111.88    0.50583E-010.52804E-02
 36.100     112.98    0.55933E-010.58389E-02
 36.100     113.86    0.51329E-010.60664E-02
 36.100     114.98    0.51393E-010.60738E-02
 36.100     117.04    0.50876E-010.60128E-02
 36.100     119.65    0.77816E-010.81232E-02
 36.100     120.11    0.92633E-010.96700E-02
 36.100     120.98    0.10114    0.10558E-01
 36.100     122.01    0.10909    0.14416E-01
 36.100     123.05    0.11058    0.11554E-01
 36.100     124.00    0.12074    0.15956E-01
 36.100     125.03    0.10945    0.11426E-01
 36.100     125.99    0.10298    0.12171E-01
 36.100     126.00    0.89837E-010.74760E-02
 36.100     127.04    0.75594E-010.89341E-02
 36.100     127.75    0.75655E-010.11068E-01
 36.100     128.16    0.61291E-010.64780E-02
 36.100     129.04    0.56948E-010.51690E-02
 36.100     130.07    0.57014E-010.67381E-02
 36.100     131.09    0.77847E-010.99349E-02
 36.100     131.56    0.82875E-010.13310E-01
 36.100     132.42    0.11743    0.24018E-01
 36.100     133.13    0.14878    0.17584E-01
 36.100     134.07    0.17942    0.26247E-01
 36.100     134.78    0.21100    0.24937E-01
 36.100     135.58    0.20096    0.23457E-01
 36.100     136.05    0.21662    0.22613E-01
 36.100     137.00    0.21685    0.22637E-01
 36.100     137.72    0.21434    0.22376E-01
 36.100     138.36    0.19183    0.22671E-01
 36.100     141.09    0.10344    0.79975E-02
 36.100     141.10    0.90242E-010.95379E-02
 36.100     143.10    0.57138E-010.66649E-02
 36.100     143.58    0.61589E-010.72789E-02
 36.100     144.36    0.75186E-010.79466E-02
 36.100     145.06    0.10520    0.95490E-02
 36.100     145.07    0.90644E-010.85680E-02
 36.100     145.77    0.12220    0.11091E-01
 36.100     146.48    0.15291    0.20207E-01
 36.100     147.19    0.16283    0.19244E-01
 36.100     148.06    0.18000    0.18791E-01
 36.100     149.32    0.21715    0.22669E-01
 36.100     150.20    0.21468    0.25372E-01
 36.100     151.23    0.19950    0.18108E-01
 36.100     152.12    0.14462    0.23068E-01
 36.100     153.17    0.11157    0.11646E-01
 36.100     154.22    0.80887E-010.12991E-01
 36.100     154.78    0.71490E-010.91236E-02
 36.100     155.27    0.54437E-010.86789E-02
 36.100     156.22    0.60935E-010.89142E-02
 36.100     157.07    0.84226E-010.76450E-02
 36.100     157.08    0.72570E-010.60389E-02
 36.100     157.70    0.99044E-010.13089E-01
 36.100     158.41    0.12394    0.25362E-01
 36.100     159.19    0.17560    0.20753E-01
 36.100     160.21    0.19658    0.20521E-01
 36.100     160.76    0.26496    0.30927E-01
 36.100     161.39    0.31546    0.32932E-01
 36.100     164.33    0.31260    0.32633E-01
 36.100     166.18    0.17919    0.32261E-01
 36.100     167.07    0.13316    0.15737E-01
 36.100     167.48    0.10138    0.19279E-01
 36.100     168.37    0.68219E-010.11589E-01
 36.100     168.79    0.42060E-010.10050E-01
 36.100     169.14    0.19980E-010.93788E-02
 36.100     169.78    0.17228E-010.37859E-02
 36.100     170.48    0.25333E-010.12848E-01
 36.100     171.32    0.52089E-010.17210E-01
 36.100     171.94    0.81491E-010.29669E-01
 36.100     172.38    0.15938    0.37457E-01
 36.100     173.32    0.22306    0.39082E-01
 36.100     173.86    0.31990    0.54296E-01
 36.100     174.41    0.41542    0.60772E-01
 36.100     175.42    0.57430    0.10925
 42.000     33.385    0.11318    0.19465E-01
 42.000     34.302    0.44092E-010.19681E-01
 42.000     35.567    0.83879E-020.60341E-02
 42.000     36.465    0.29923E-010.10042E-01
 42.000     37.451    0.86199E-010.19223E-01
 42.000     38.379    0.15200    0.24549E-01
 42.000     39.478    0.20845    0.19191E-01
 42.000     40.507    0.22790    0.24134E-01
 42.000     42.418    0.20913    0.25074E-01
 42.000     43.381    0.17118    0.18127E-01
 42.000     44.355    0.10758    0.20733E-01
 42.000     45.340    0.53235E-010.11877E-01
 42.000     46.332    0.22368E-010.75068E-02
 42.000     47.596    0.26714E-010.67929E-02
 42.000     48.431    0.64515E-010.86500E-02
 42.000     49.359    0.11521    0.13813E-01
 42.000     50.375    0.17252    0.23131E-01
 42.000     51.398    0.21391    0.19694E-01
 42.000     52.507    0.23097    0.24458E-01
 42.000     53.462    0.22832    0.27375E-01
 42.000     54.419    0.20929    0.25094E-01
 42.000     55.466    0.15298    0.20512E-01
 42.000     57.386    0.11624    0.15597E-01
 42.000     58.595    0.79800E-010.11845E-01
 42.000     59.482    0.59059E-010.70810E-02
 42.000     60.514    0.60633E-010.72698E-02
 42.000     61.461    0.70590E-010.67593E-02
 42.000     61.533    0.84194E-010.77517E-02
 42.000     62.480    0.96794E-010.75899E-02
 42.000     63.426    0.11702    0.14031E-01
 42.000     64.452    0.13625    0.14429E-01
 42.000     65.326    0.13811    0.16559E-01
 42.000     66.438    0.13828    0.18541E-01
 42.000     67.475    0.12677    0.15200E-01
 42.000     68.517    0.10377    0.12442E-01
 42.000     69.488    0.70333E-010.84327E-02
 42.000     70.534    0.52720E-010.55829E-02
 42.000     71.510    0.32310E-010.48752E-02
 42.000     72.560    0.21900E-010.29363E-02
 42.000     73.758    0.19094E-010.20220E-02
 42.000     74.538    0.27183E-010.32592E-02
 42.000     75.726    0.29725E-010.35639E-02
 42.000     76.591    0.36389E-010.43629E-02
 42.000     77.690    0.49277E-010.59083E-02
 42.000     78.724    0.48717E-010.51590E-02
 42.000     80.795    0.44154E-010.46757E-02
 42.000     81.669    0.43644E-010.58517E-02
 42.000     82.716    0.32306E-010.38734E-02
 42.000     83.752    0.29991E-010.35959E-02
 42.000     84.954    0.24248E-010.33981E-02
 42.000     85.665    0.26837E-010.28419E-02
 42.000     86.687    0.34124E-010.45753E-02
 42.000     87.625    0.48587E-010.51451E-02
 42.000     88.650    0.58747E-010.70436E-02
 42.000     89.670    0.79547E-010.84237E-02
 42.000     89.758    0.65048E-010.76904E-02
 42.000     90.695    0.94978E-010.11388E-01
 42.000     91.728    0.96291E-010.10197E-01
 42.000     92.760    0.98859E-010.11853E-01
 42.000     93.790    0.10540    0.11161E-01
 42.000     94.740    0.11522    0.10609E-01
 42.000     95.856    0.10564    0.97262E-02
 42.000     96.810    0.10575    0.11199E-01
 42.000     97.843    0.10588    0.97478E-02
 42.000     98.793    0.11575    0.12257E-01
 42.000     99.825    0.11883    0.12584E-01
 42.000     100.86    0.12047    0.12758E-01
 42.000     101.81    0.12683    0.13430E-01
 42.000     102.84    0.12697    0.15224E-01
 42.000     103.80    0.12552    0.16829E-01
 42.000     104.67    0.12564    0.15064E-01
 42.000     105.70    0.13911    0.18651E-01
 42.000     106.74    0.12752    0.13504E-01
 42.000     107.76    0.14119    0.16929E-01
 42.000     108.72    0.13783    0.16525E-01
 42.000     109.67    0.13798    0.18499E-01
 42.000     110.70    0.15276    0.20482E-01
 42.000     111.58    0.15291    0.18334E-01
 42.000     112.69    0.14197    0.15034E-01
 42.000     113.65    0.14034    0.14862E-01
 42.000     114.68    0.13875    0.16635E-01
 42.000     115.72    0.11502    0.13790E-01
 42.000     116.68    0.92966E-010.11146E-01
 42.000     117.64    0.87391E-010.10478E-01
 42.000     118.44    0.78103E-010.93644E-02
 42.000     119.64    0.66406E-010.85830E-02
 42.000     120.75    0.67331E-010.11951E-01
 42.000     121.54    0.76426E-010.12456E-01
 42.000     122.49    0.87863E-010.10535E-01
 42.000     123.68    0.94879E-010.21158E-01
 42.000     124.55    0.10636    0.14250E-01
 42.000     125.10    0.11333    0.16823E-01
 42.000     125.74    0.11341    0.15206E-01
 42.000     126.77    0.10397    0.11010E-01
 42.000     127.57    0.95291E-010.11425E-01
 42.000     127.98    0.77950E-010.82545E-02
 42.000     128.78    0.71441E-010.85656E-02
 42.000     129.50    0.57730E-010.94146E-02
 42.000     130.07    0.44914E-010.53851E-02
 42.000     130.71    0.35837E-010.48050E-02
 42.000     131.68    0.26861E-010.36014E-02
 42.000     132.41    0.19876E-010.44204E-02
 42.000     132.95    0.27239E-010.32659E-02
 42.000     133.59    0.26918E-010.43870E-02
 42.000     133.99    0.25932E-010.36341E-02
 42.000     134.54    0.26609E-010.39498E-02
 42.000     135.08    0.38350E-010.65958E-02
 42.000     136.19    0.41409E-010.92124E-02
 42.000     136.74    0.50041E-010.96385E-02
 42.000     137.61    0.49463E-010.59306E-02
 42.000     138.72    0.52740E-010.70713E-02
 42.000     139.68    0.47144E-010.56524E-02
 42.000     140.57    0.37156E-010.66027E-02
 42.000     140.82    0.26461E-010.43153E-02
 42.000     141.46    0.24247E-010.54073E-02
 42.000     142.03    0.17058E-010.35450E-02
 42.000     142.61    0.11269E-010.26875E-02
 42.000     143.51    0.63233E-020.22291E-02
 42.000     143.70    0.29356E-020.15672E-02
 42.000     145.29    0.29781E-020.19494E-02
 42.000     145.96    0.77547E-020.26043E-02
 42.000     146.81    0.15121E-010.33738E-02
 42.000     147.59    0.19961E-010.50736E-02
 42.000     148.13    0.30254E-010.53730E-02
 42.000     148.75    0.39431E-010.47277E-02
 42.000     149.61    0.52715E-010.63205E-02
 42.000     150.72    0.58370E-010.78261E-02
 42.000     151.76    0.54874E-010.76900E-02
 42.000     152.71    0.58499E-010.78434E-02
 42.000     154.46    0.57157E-010.76691E-02
 42.000     154.95    0.39704E-010.76475E-02
 42.000     155.59    0.32487E-010.72483E-02
 42.000     156.58    0.16486E-010.58134E-02
 42.000     157.31    0.11030E-010.14789E-02
 42.000     157.41    0.70132E-020.15640E-02
 42.000     158.48    0.33003E-020.15139E-02
 42.000     159.56    0.58946E-020.22866E-02
 42.000     161.65    0.24488E-010.12143E-01
 42.000     163.80    0.13085    0.16913E-01
 42.000     164.59    0.14124    0.14956E-01
 42.000     165.78    0.13965    0.12858E-01
 42.000     166.18    0.12634    0.13526E-01
 42.000     167.06    0.12646    0.13392E-01
 42.000     167.62    0.10881    0.10018E-01
 42.000     168.11    0.91282E-010.87407E-02
 42.000     168.75    0.68393E-010.62968E-02
 42.000     169.73    0.39858E-010.11405E-01
 42.000     169.92    0.18738E-010.41675E-02
 42.000     170.35    0.99933E-020.26998E-02
 42.000     170.62    0.48794E-020.33653E-02
 42.000     171.62    0.97588E-020.10746E-01
 42.000     172.12    0.39963E-010.19075E-01
 42.000     172.88    0.86172E-010.20551E-01
 42.000     173.81    0.15196    0.31580E-01
 47.000     33.043    0.11595E-010.52854E-02
 47.000     34.337    0.40081E-010.13367E-01
 47.000     35.322    0.11624    0.25766E-01
 47.000     36.329    0.20694    0.24668E-01
 47.000     37.429    0.27286    0.36371E-01
 47.000     38.383    0.27316    0.32561E-01
 47.000     39.261    0.25365    0.30236E-01
 47.000     40.307    0.19044    0.30853E-01
 47.000     42.316    0.11716    0.24190E-01
 47.000     43.219    0.61953E-010.16634E-01
 47.000     44.271    0.40532E-010.89842E-02
 47.000     45.366    0.59814E-010.71300E-02
 47.000     46.214    0.10781    0.12851E-01
 47.000     47.229    0.15908    0.16749E-01
 47.000     48.250    0.20974    0.25001E-01
 47.000     49.359    0.22637    0.23834E-01
 47.000     50.317    0.20503    0.27329E-01
 47.000     51.275    0.18570    0.22136E-01
 47.000     52.242    0.13941    0.18582E-01
 47.000     53.213    0.95878E-010.11429E-01
 47.000     54.192    0.55345E-010.10596E-01
 47.000     55.079    0.41028E-010.48907E-02
 47.000     57.221    0.45457E-010.53466E-02
 47.000     58.166    0.54219E-010.57747E-02
 47.000     59.102    0.79998E-010.84227E-02
 47.000     60.131    0.87423E-010.92044E-02
 47.000     61.081    0.96731E-010.88549E-02
 47.000     62.115    0.94450E-010.99442E-02
 47.000     62.996    0.80350E-010.73553E-02
 47.000     64.123    0.59581E-010.62730E-02
 47.000     65.016    0.39464E-010.47042E-02
 47.000     66.214    0.34007E-010.35805E-02
 47.000     67.253    0.30421E-010.32028E-02
 47.000     68.197    0.37203E-010.39170E-02
 47.000     69.377    0.49059E-010.72394E-02
 47.000     70.392    0.72392E-010.76218E-02
 47.000     71.337    0.88533E-010.10553E-01
 47.000     72.211    0.88620E-010.13077E-01
 47.000     73.157    0.10570    0.12600E-01
 47.000     74.269    0.10583    0.11143E-01
 47.000     75.233    0.85646E-010.13876E-01
 47.000     76.335    0.10742    0.14318E-01
 47.000     77.293    0.98513E-010.11743E-01
 47.000     78.414    0.81756E-010.86078E-02
 47.000     80.397    0.88328E-010.11774E-01
 47.000     81.346    0.97733E-010.11650E-01
 47.000     82.375    0.10680    0.14236E-01
 47.000     83.409    0.10693    0.15779E-01
 47.000     84.348    0.14636    0.17446E-01
 47.000     85.541    0.14473    0.19292E-01
 47.000     86.419    0.13107    0.13800E-01
 47.000     87.524    0.15833    0.18874E-01
 47.000     88.481    0.14704    0.17527E-01
 47.000     89.519    0.13153    0.13848E-01
 47.000     90.394    0.12841    0.15306E-01
 47.000     91.506    0.13019    0.13707E-01
 47.000     92.540    0.12712    0.13383E-01
 47.000     93.500    0.11089    0.14781E-01
 47.000     94.535    0.10693    0.11258E-01
 47.000     95.410    0.10570    0.11129E-01
 47.000     96.379    0.74541E-010.13167E-01
 47.000     97.493    0.72789E-010.76637E-02
 47.000     98.447    0.72868E-010.76718E-02
 47.000     99.477    0.77662E-010.13711E-01
 47.000     100.35    0.78718E-010.10493E-01
 47.000     101.38    0.88203E-010.92866E-02
 47.000     103.37    0.79980E-010.84208E-02
 47.000     105.37    0.60869E-010.55721E-02
 47.000     106.40    0.60182E-010.63363E-02
 47.000     107.44    0.49941E-010.52581E-02
 47.000     108.33    0.39909E-010.47613E-02
 47.000     109.37    0.30722E-010.32346E-02
 47.000     110.42    0.22496E-010.38481E-02
 47.000     111.31    0.18203E-010.24264E-02
 47.000     112.34    0.17119E-010.18024E-02
 47.000     114.39    0.24056E-010.32065E-02
 47.000     115.36    0.18059E-010.26649E-02
 47.000     116.32    0.15364E-010.18330E-02
 47.000     117.21    0.10305E-010.18203E-02
 47.000     117.77    0.93291E-020.22124E-02
 47.000     118.26    0.81338E-020.18029E-02
 47.000     118.99    0.49348E-020.23379E-02
 47.000     119.40    0.41959E-020.10599E-02
 47.000     122.03    0.63604E-030.35406E-03
 47.000     124.16    0.82919E-030.45230E-03
 47.000     126.12    0.14233E-020.65251E-03
 47.000     128.08    0.30603E-020.10209E-02
 47.000     129.17    0.49296E-020.10173E-02
 47.000     129.72    0.53842E-020.80832E-03
 47.000     130.50    0.72767E-020.23060E-02
 47.000     131.28    0.10469E-010.12480E-02
 47.000     132.23    0.11298E-010.11895E-02
 47.000     133.19    0.99796E-020.28618E-02
 47.000     133.91    0.96197E-020.19861E-02
 47.000     134.49    0.52794E-020.31882E-02
 47.000     134.96    0.60617E-020.18217E-02
 47.000     135.54    0.37233E-020.14943E-02
 47.000     137.07    0.21506E-020.14266E-02
 47.000     138.16    0.36879E-020.11678E-02
 47.000     139.02    0.48009E-020.23648E-02
 47.000     140.02    0.10573E-010.37047E-02
 47.000     140.63    0.18580E-010.44724E-02
 47.000     141.09    0.28448E-010.39641E-02
 47.000     142.11    0.33934E-010.43609E-02
 47.000     143.30    0.37557E-010.48294E-02
 47.000     144.10    0.32757E-010.34888E-02
 47.000     144.81    0.36691E-010.38630E-02
 47.000     145.46    0.30817E-010.49928E-02
 47.000     146.03    0.22837E-010.43743E-02
 47.000     146.84    0.16101E-010.26087E-02
 47.000     147.40    0.13865E-010.25157E-02
 47.000     148.05    0.10536E-010.27332E-02
 47.000     148.76    0.10414E-010.17813E-02
 47.000     149.08    0.11229E-010.16571E-02
 47.000     149.46    0.14250E-010.13044E-02
 47.000     150.00    0.23228E-010.27320E-02
 47.000     150.39    0.26668E-010.28403E-02
 47.000     150.70    0.31785E-010.67256E-02
 47.000     151.40    0.40856E-010.10321E-01
 47.000     152.10    0.58045E-010.87142E-02
 47.000     153.20    0.75584E-010.10538E-01
 47.000     154.07    0.84678E-010.14491E-01
 47.000     155.19    0.81660E-010.86973E-02
 47.000     155.98    0.79713E-010.95020E-02
 47.000     156.63    0.59077E-010.95713E-02
 47.000     157.04    0.52152E-010.83766E-02
 47.000     157.53    0.33674E-010.96522E-02
 47.000     158.19    0.22299E-010.51544E-02
 47.000     161.15    0.14081E-010.10297E-01
 47.000     163.82    0.14663    0.18855E-01
 47.000     165.24    0.19100    0.20110E-01
 47.000     166.20    0.19121    0.25487E-01
 47.000     167.24    0.15670    0.20150E-01
 47.000     168.12    0.13165    0.16928E-01
 47.000     168.45    0.91616E-010.14715E-01
 47.000     169.11    0.62987E-010.12070E-01
 47.000     170.10    0.28309E-010.58478E-02
 47.000     170.93    0.11366E-010.54369E-02
 47.000     171.55    0.17625E-010.10027E-01
 47.000     172.29    0.53723E-010.12729E-01
ENDDATA            763
ENDSUBENT          775
SUBENT        F0645003   20040611
BIB                  3          3
REACTION   (20-CA-40(A,EL)20-CA-40,,DA,,RTH)
ERR-ANALYS (EN-ERR-DIG)Digitizing error
STATUS     (CURVE)Fig.2
ENDBIB               3
COMMON               2          3
EN-ERR-DIG ERR-DIG
MEV        PER-CENT
 0.01       0.2
ENDCOMMON            3
DATA                 4         99
ANG-CM     EN-CM      DATA-CM    DATA-ERR2
ADEG       MEV        NO-DIM     NO-DIM
 85.000     26.083    0.18142E-010.28539E-02
 85.000     26.995    0.37772E-010.46820E-02
 85.000     27.998    0.46761E-010.61057E-02
 85.000     29.057    0.51213E-010.91075E-02
 85.000     30.012    0.56070E-010.84424E-02
 85.000     31.023    0.67024E-010.91956E-02
 85.000     31.922    0.81985E-010.12344E-01
 85.000     33.132    0.90358E-010.13605E-01
 85.000     33.864    0.99440E-010.14975E-01
 85.000     34.772    0.97987E-010.12794E-01
 85.000     36.175    0.77445E-010.10630E-01
 85.000     37.077    0.57645E-010.79088E-02
 85.000     38.652    0.20710E-010.45535E-02
 85.000     42.004    0.28357E-010.40788E-02
 85.000     45.009    0.74201E-010.77503E-02
 85.000     46.122    0.11275    0.11776E-01
 85.000     47.093    0.13875    0.20892E-01
 105.00     26.103    0.98121E-010.12151E-01
 105.00     27.012    0.83564E-010.11449E-01
 105.00     28.033    0.68341E-010.98163E-02
 105.00     29.086    0.52421E-010.68369E-02
 105.00     30.042    0.49308E-010.74140E-02
 105.00     31.072    0.34047E-010.51184E-02
 105.00     31.965    0.27351E-010.50450E-02
 105.00     33.192    0.76029E-020.20557E-02
 105.00     33.894    0.63214E-020.23927E-02
 105.00     34.811    0.12013E-020.44506E-03
 105.00     36.213    0.46189E-020.11808E-02
 105.00     37.115    0.14626E-010.33142E-02
 105.00     38.710    0.37397E-010.56220E-02
 105.00     39.878    0.62003E-010.89058E-02
 105.00     41.167    0.88874E-010.13959E-01
 105.00     42.072    0.14383    0.19710E-01
 105.00     45.076    0.11429    0.17950E-01
 105.00     46.177    0.87166E-010.11945E-01
 105.00     47.151    0.59828E-010.62407E-02
 125.00     26.117    0.24586    0.40345E-01
 125.00     26.993    0.23526    0.30719E-01
 125.00     28.007    0.17013    0.18876E-01
 125.00     29.087    0.78920E-010.13491E-01
 125.00     30.008    0.29823E-010.55079E-02
 125.00     31.006    0.12970E-020.69008E-03
 125.00     31.912    0.75971E-020.28186E-02
 125.00     33.090    0.35047E-010.55143E-02
 125.00     33.854    0.39485E-010.62114E-02
 125.00     34.767    0.65070E-010.97975E-02
 125.00     36.190    0.10013    0.12417E-01
 125.00     37.073    0.12464    0.18766E-01
 125.00     38.674    0.14580    0.23925E-01
 125.00     39.821    0.12496    0.20505E-01
 125.00     41.113    0.10714    0.14706E-01
 125.00     42.036    0.11729    0.18451E-01
 125.00     43.059    0.62226E-010.93711E-02
 125.00     44.065    0.41949E-010.74602E-02
 125.00     44.969    0.22118E-010.37809E-02
 125.00     46.059    0.68555E-020.94076E-03
 125.00     47.041    0.11703E-020.44358E-03
 145.00     26.102    0.12985    0.15228E-01
 145.00     27.009    0.14130    0.20296E-01
 145.00     28.038    0.12467    0.21275E-01
 145.00     29.096    0.13733    0.14325E-01
 145.00     30.028    0.13853    0.18985E-01
 145.00     31.056    0.12958    0.17750E-01
 145.00     31.947    0.15480    0.21210E-01
 145.00     33.173    0.17261    0.20248E-01
 145.00     33.875    0.16510    0.24824E-01
 145.00     34.799    0.14477    0.20803E-01
 145.00     36.225    0.14712    0.19184E-01
 145.00     37.111    0.11479    0.17263E-01
 145.00     38.708    0.58959E-010.88650E-02
 145.00     39.866    0.35611E-010.75629E-02
 145.00     41.147    0.10870E-010.27788E-02
 145.00     42.052    0.48714E-020.36101E-02
 145.00     43.106    0.31000E-020.97845E-03
 145.00     44.120    0.83878E-020.25194E-02
 145.00     45.019    0.10139E-010.26667E-02
 145.00     46.160    0.28256E-010.38730E-02
 145.00     47.155    0.33376E-010.45728E-02
 165.00     26.085    0.41107E-010.86224E-02
 165.00     26.986    0.37480E-010.92297E-02
 165.00     28.017    0.83459E-010.12808E-01
 165.00     29.048    0.17407    0.27916E-01
 165.00     29.993    0.30725    0.40900E-01
 165.00     30.993    0.50807    0.54092E-01
 165.00     31.893    0.56711    0.71662E-01
 165.00     33.112    0.51148    0.68070E-01
 165.00     33.814    0.42374    0.65053E-01
 165.00     34.724    0.31187    0.47870E-01
 165.00     36.104    0.20409    0.41332E-01
 165.00     37.007    0.14069    0.25504E-01
 165.00     38.586    0.10073    0.12725E-01
 165.00     39.717    0.10728    0.12127E-01
 165.00     41.023    0.10902    0.13044E-01
 165.00     41.913    0.14036    0.15866E-01
 165.00     42.964    0.15306    0.26677E-01
 165.00     43.984    0.16008    0.21305E-01
 165.00     44.883    0.18964    0.31727E-01
 165.00     45.967    0.17930    0.25079E-01
 165.00     46.962    0.19432    0.28503E-01
ENDDATA            101
ENDSUBENT          113
ENDENTRY             3
