ENTRY            F0647   20040527
SUBENT        F0647001   20040527
BIB                 12         26
TITLE      Backward-angle anomalies in inelastic alpha-particle
           scattering on 40Ca.
AUTHOR     (H.Schmeing,R.Santo)
INSTITUTE  (2GERMPH)
REFERENCE  (J,PL/B,33,219,1970)
FACILITY   (ACCEL)MP Tandem Accelerator
SAMPLE     A mixed target (40Ca,42Ca,44Ca) of about 40
           mu-g/cm**2 was used. For angles smaller than 50
           degrees a single isotopic target was used.
DETECTOR   (SIBAR) 11 detectors were mounted on the movable lid
           of the scattering chamber. The effective aperture of
           the detectors was about 1.5 degree including the
           effect of the finite beam spot on the target.
           To charge collection in a Faraday cup, two monitor
           counters were used to normalize the data for different
           runs.
INC-SOURCE Alpha-particle beam.
METHOD     (BCINT)
ERR-ANALYS (EN-ERR) The energy uncertainty of alpha-particle beam.
           (DATA-ERR1) The relative error of the data points is
           mainly given by the statistics of the counting rate.
           (ANG-ERR-D)  Digitizing error
           (ERR-DIG)    Digitizing error
REL-REF    (N,,G.Gaul+,J,NP/A,137,177,1969) Description of the
           experimental setup  was given.
HISTORY    (20040326C)
ENDBIB              26
COMMON               6          3
EN         EN-ERR     E-RSL      DATA-ERR1  ANG-ERR-D  ERR-DIG
MEV        KEV        KEV        PER-CENT   ADEG       PER-CENT
 29.        5.         60.        10.        0.5        0.1
ENDCOMMON            3
ENDSUBENT           33
SUBENT        F0647002   20040527
BIB                  2          2
REACTION   (20-CA-40(A,EL)20-CA-40,,DA,,RTH)
STATUS     (CURVE)Fig.1
ENDBIB               2
NOCOMMON
DATA                 2         79
ANG-CM     DATA-CM
ADEG       NO-DIM
 15.420     5.1881
 17.291     3.4891
 19.385     3.6236
 22.123     4.5946
 23.893     4.3578
 26.492     2.6786
 28.416     1.5032
 30.574     1.2565
 32.855     2.2873
 35.231     3.0063
 37.379     2.6054
 39.324     1.3600
 41.948    0.23126
 44.419    0.21946
 45.676     1.2041
 47.936     2.3565
 50.020     2.5376
 52.209     1.9028
 54.579    0.77120
 58.930    0.43531E-01
 61.117    0.36244
 62.638    0.80466
 64.711    0.89841
 66.912    0.64972
 69.271    0.27303
 71.357    0.26479E-01
 73.649    0.46490E-01
 75.565    0.29498
 77.112    0.59824
 79.122    0.82994
 81.222    0.84648
 83.385    0.69483
 85.245    0.48450
 87.807    0.33803
 89.477    0.45215
 91.736    0.88489
 93.699     1.4447
 95.384     1.8304
 97.813     2.0076
 99.663     1.4515
 101.86     1.0497
 103.71    0.75892
 105.90    0.57946
 107.57    0.76120
 109.57     1.1149
 111.59     1.4918
 113.69     1.4942
 115.49     1.2946
 117.36    0.85502
 119.61    0.52541
 121.74    0.48075
 123.78    0.60925
 125.44    0.82982
 127.16    0.94317
 129.30    0.84752
 131.17    0.56997
 133.16    0.25743
 135.14    0.35852E-01
 136.97    0.27367E-01
 139.13    0.24943
 140.67    0.51511
 141.96    0.76783
 144.33     1.0276
 146.01     1.3499
 147.83     1.0684
 149.69    0.74500
 151.38    0.27568
 155.00    0.18904
 156.60     1.0565
 158.50     2.1823
 160.14     3.2539
 162.20     3.6993
 163.69     2.8230
 165.98     1.5010
 168.33    0.19450
 171.03     3.0524
 172.50     8.2693
 174.39     17.082
 176.03     25.470
ENDDATA             81
ENDSUBENT           88
SUBENT        F0647003   20040527
BIB                  3          3
REACTION   (20-CA-40(A,INL)20-CA-40,PAR,DA)
ERR-ANALYS (DATA-ERR2) Erors from the graphic bars
STATUS     (CURVE)Fig.1
ENDBIB               3
NOCOMMON
DATA                 4        554
E-LVL      ANG-CM     DATA-CM    DATA-ERR2
MEV        ADEG       MB/SR      MB/SR
 3.3500     24.223    0.38705E-010.10265E-01
 3.3500     33.493    0.23486E-010.67795E-02
 3.3500     35.843    0.33791E-010.59767E-02
 3.3500     40.254    0.17045E-010.45206E-02
 3.3500     42.488    0.36517E-010.88564E-02
 3.3500     51.190    0.46519E-010.12337E-01
 3.3500     53.380    0.34882E-010.69191E-02
 3.3500     55.474    0.36226E-010.41547E-02
 3.3500     57.696    0.24369E-010.37960E-02
 3.3500     63.792    0.15574E-010.34300E-02
 3.3500     65.950    0.13017E-010.17579E-02
 3.3500     67.844    0.26889E-01
 3.3500     70.331    0.24169E-01
 3.3500     72.138    0.20196E-01
 3.3500     74.360    0.13586E-010.12825E-02
 3.3500     76.481    0.12889E-010.96751E-03
 3.3500     78.299    0.10387E-010.20604E-02
 3.3500     80.201    0.62668E-020.16642E-02
 3.3500     82.391    0.46991E-020.63458E-03
 3.3500     84.819    0.15608E-020.37853E-03
 3.3500     86.626    0.13042E-020.37603E-03
 3.3500     88.440    0.35342E-020.55051E-03
 3.3500     90.407    0.56668E-020.76525E-03
 3.3500     92.604    0.13780E-010.10344E-02
 3.3500     94.257    0.19461E-01
 3.3500     94.587    0.20927E-01
 3.3500     96.331    0.21728E-010.20576E-02
 3.3500     98.430    0.22161E-010.20986E-02
 3.3500     100.28    0.16022E-010.25008E-02
 3.3500     102.54    0.93256E-020.18498E-02
 3.3500     104.63    0.98620E-020.17443E-02
 3.3500     106.62    0.14709E-010.22911E-02
 3.3500     108.62    0.21157E-010.24265E-02
 3.3500     110.36    0.22368E-010.30275E-02
 3.3500     112.46    0.22405E-010.21217E-02
 3.3500     114.62    0.19069E-010.21869E-02
 3.3500     116.53    0.10897E-010.19273E-02
 3.3500     118.29    0.10911E-010.19334E-02
 3.3500     120.35    0.12862E-010.17370E-02
 3.3500     122.41    0.14623E-010.19747E-02
 3.3500     124.40    0.21810E-010.20653E-02
 3.3500     126.10    0.26650E-010.25236E-02
 3.3500     127.84    0.28175E-010.26681E-02
 3.3500     129.58    0.29787E-010.30575E-02
 3.3500     131.72    0.25815E-010.24446E-02
 3.3500     133.55    0.20432E-010.19348E-02
 3.3500     135.78    0.13018E-010.23025E-02
 3.3500     137.55    0.12572E-010.17017E-02
 3.3500     141.71    0.14845E-010.26208E-02
 3.3500     143.31    0.25582E-010.39848E-02
 3.3500     145.00    0.31829E-010.36407E-02
 3.3500     147.04    0.39614E-010.29736E-02
 3.3500     148.46    0.36888E-010.27690E-02
 3.3500     150.84    0.14682E-010.25969E-02
 3.3500     152.41    0.83878E-020.20343E-02
 3.3500     153.64    0.14983E-010.46724E-02
 3.3500     155.15    0.34491E-010.29836E-02
 3.3500     157.14    0.51441E-01
 3.3500     158.81    0.68809E-01
 3.3500     160.56    0.70161E-01
 3.3500     162.69    0.64197E-01
 3.3500     164.57    0.41638E-01
 3.3500     166.24    0.16564E-010.22369E-02
 3.3500     168.32    0.55002E-020.15858E-02
 3.3500     170.08    0.17861E-010.24120E-02
 3.3500     171.44    0.69489E-01
 3.3500     173.35    0.13352
 3.3500     174.91    0.26116
 3.3500     177.27    0.36903
 3.7400     15.308     17.659
 3.7400     18.088     19.374
 3.7400     20.177     20.488
 3.7400     22.346     16.516
 3.7400     24.583     10.523
 3.7400     26.576     4.6677
 3.7400     28.813     2.9740
 3.7400     31.152     4.4368
 3.7400     33.136     6.7380
 3.7400     34.832     8.2333
 3.7400     35.895     7.9472
 3.7400     38.037     7.0131
 3.7400     39.557     4.7151
 3.7400     42.171     2.7451
 3.7400     44.058     1.7486
 3.7400     46.477     1.9885
 3.7400     52.803     1.9273
 3.7400     55.045     1.2059
 3.7400     57.320    0.67695
 3.7400     59.499    0.52631
 3.7400     65.597     1.1107
 3.7400     67.638     1.3823
 3.7400     69.786     1.1980
 3.7400     71.986    0.86636
 3.7400     73.878    0.54196
 3.7400     76.398    0.43701
 3.7400     78.492    0.45386
 3.7400     79.784    0.66440
 3.7400     81.868    0.71544
 3.7400     84.282    0.82847
 3.7400     86.062    0.75784
 3.7400     88.178    0.73210
 3.7400     89.974    0.63430
 3.7400     92.079    0.63534
 3.7400     94.222    0.56067
 3.7400     96.337    0.54162
 3.7400     98.076    0.57262
 3.7400     100.17    0.59470
 3.7400     102.62    0.61780
 3.7400     104.36    0.62994
 3.7400     105.78    0.60821
 3.7400     108.27    0.53687
 3.7400     110.04    0.50920
 3.7400     112.16    0.48309
 3.7400     113.54    0.51992
 3.7400     115.63    0.55986
 3.7400     117.35    0.63634
 3.7400     119.44    0.64902
 3.7400     121.19    0.66177
 3.7400     123.33    0.60552
 3.7400     125.46    0.54411
 3.7400     127.29    0.42292
 3.7400     129.06    0.40112
 3.7400     131.16    0.41658
 3.7400     132.87    0.48213
 3.7400     134.92    0.57871
 3.7400     136.64    0.64597
 3.7400     138.77    0.60185
 3.7400     140.56    0.53097
 3.7400     142.40    0.39090
 3.7400     144.56    0.33269
 3.7400     146.32    0.32131
 3.7400     148.06    0.33360
 3.7400     149.77    0.40032
 3.7400     151.80    0.50733
 3.7400     153.47    0.67861
 3.7400     155.54    0.77152
 3.7400     157.64    0.78689
 3.7400     159.04    0.78775
 3.7400     160.82    0.73375
 3.7400     162.25    0.65898
 3.7400     164.75    0.58169
 3.7400     166.19    0.51304
 3.7400     167.98    0.44450
 3.7400     169.78    0.38512
 3.7400     171.54    0.37194
 3.7400     173.71    0.30531
 3.7400     174.80    0.26920
 3.7400     176.63    0.20549
 3.9000     15.526     3.3622
 3.9000     18.009     3.0772
 3.9000     20.255    0.57265    0.65500E-01
 3.9000     22.572    0.27813    0.26255E-01
 3.9000     24.514     1.6121
 3.9000     26.880     2.1969
 3.9000     28.964     2.3657
 3.9000     31.217     1.4277
 3.9000     33.476    0.84611
 3.9000     36.080    0.51076    0.35663E-01
 3.9000     38.062    0.23490    0.12412E-01
 3.9000     40.211    0.67223
 3.9000     42.279    0.76426
 3.9000     44.713    0.82320
 3.9000     46.946    0.53408    0.29795E-01
 3.9000     55.530    0.30678
 3.9000     57.587    0.36164
 3.9000     59.655    0.41115
 3.9000     61.819    0.33749
 3.9000     69.871    0.10858
 3.9000     72.284    0.12574
 3.9000     74.017    0.13536
 3.9000     76.143    0.12612
 3.9000     78.307    0.10352
 3.9000     80.230    0.58096E-010.55015E-02
 3.9000     81.985    0.58176E-010.43841E-02
 3.9000     84.190    0.41318E-010.31016E-02
 3.9000     86.391    0.29881E-010.34269E-02
 3.9000     88.358    0.47910E-010.45226E-02
 3.9000     90.394    0.60716E-010.45578E-02
 3.9000     92.473    0.66575E-010.49975E-02
 3.9000     94.275    0.56647E-010.42522E-02
 3.9000     96.475    0.40966E-010.22854E-02
 3.9000     98.330    0.29087E-010.21835E-02
 3.9000     103.79    0.14684E-010.19830E-02
 3.9000     106.11    0.23981E-010.27503E-02
 3.9000     108.13    0.31511E-010.29840E-02
 3.9000     110.19    0.36479E-010.27384E-02
 3.9000     111.95    0.35874E-010.26929E-02
 3.9000     113.76    0.29977E-010.28387E-02
 3.9000     115.67    0.17761E-010.20370E-02
 3.9000     117.56    0.11313E-010.17658E-02
 3.9000     119.63    0.12405E-010.16752E-02
 3.9000     121.75    0.11984E-010.16183E-02
 3.9000     123.82    0.13624E-010.18399E-02
 3.9000     125.37    0.27631E-010.20742E-02
 3.9000     125.73    0.26657E-010.14085E-02
 3.9000     127.38    0.38333E-010.28775E-02
 3.9000     129.51    0.34445E-010.25857E-02
 3.9000     131.34    0.27262E-010.25816E-02
 3.9000     133.52    0.20816E-010.19712E-02
 3.9000     134.80    0.95679E-020.14904E-02
 3.9000     136.97    0.77130E-020.15325E-02
 3.9000     139.03    0.89291E-020.21655E-02
 3.9000     140.86    0.68158E-020.15011E-02
 3.9000     144.46    0.16895E-010.26317E-02
 3.9000     146.60    0.14909E-010.23177E-02
 3.9000     148.54    0.80697E-020.21402E-02
 3.9000     150.03    0.58327E-020.15489E-02
 3.9000     152.07    0.75267E-020.19962E-02
 3.9000     153.51    0.65194E-020.14359E-02
 3.9000     155.51    0.93778E-020.16587E-02
 3.9000     157.26    0.95620E-020.18968E-02
 3.9000     159.31    0.11687E-010.15783E-02
 3.9000     161.03    0.13045E-010.20362E-02
 3.9000     162.72    0.15940E-010.21526E-02
 3.9000     164.83    0.15680E-010.17983E-02
 3.9000     166.56    0.17502E-010.23635E-02
 3.9000     168.31    0.17846E-010.24100E-02
 3.9000     170.01    0.21031E-010.28401E-02
 3.9000     171.51    0.15479E-010.20903E-02
 3.9000     173.19    0.19611E-010.18571E-02
 3.9000     175.01    0.15805E-010.18126E-02
 3.9000     176.49    0.12281E-010.21762E-02
 4.4900     15.001     1.7204
 4.4900     17.335     2.6135
 4.4900     19.748     3.0264
 4.4900     21.487     3.1996
 4.4900     23.942     3.2057
 4.4900     26.419     2.9876
 4.4900     28.546     2.7835
 4.4900     30.363     2.2433
 4.4900     32.511     1.9441
 4.4900     35.062     1.4064
 4.4900     36.986    0.78924
 4.4900     39.563    0.52154
 4.4900     41.349    0.46852
 4.4900     43.731    0.60476
 4.4900     45.788    0.71289
 4.4900     47.909    0.67633
 4.4900     50.073    0.55516    0.41674E-01
 4.4900     52.603    0.43175
 4.4900     58.710    0.26611    0.23020E-01
 4.4900     60.496    0.23905    0.18015E-01
 4.4900     63.218    0.32003
 4.4900     65.323    0.32055
 4.4900     67.120    0.27773
 4.4900     73.705    0.11091
 4.4900     75.517    0.91013E-010.50774E-02
 4.4900     77.957    0.96274E-01
 4.4900     80.015    0.11349
 4.4900     82.019    0.16032
 4.4900     84.098    0.17579
 4.4900     85.836    0.18585
 4.4900     88.318    0.17010
 4.4900     89.764    0.14733
 4.4900     91.911    0.12768
 4.4900     94.069    0.10672
 4.4900     96.004    0.57764E-010.43361E-02
 4.4900     97.779    0.53804E-01
 4.4900     99.842    0.62287E-010.46756E-02
 4.4900     101.91    0.70814E-01
 4.4900     103.62    0.81956E-01
 4.4900     105.73    0.82091E-01
 4.4900     108.22    0.72462E-010.54182E-02
 4.4900     109.63    0.69963E-01
 4.4900     110.01    0.63928E-01
 4.4900     111.43    0.60617E-01
 4.4900     113.59    0.50666E-01
 4.4900     115.66    0.56569E-01
 4.4900     117.39    0.62011E-010.34594E-02
 4.4900     119.09    0.74413E-01
 4.4900     120.14    0.75834E-01
 4.4900     121.14    0.89320E-01
 4.4900     123.26    0.84739E-01
 4.4900     125.42    0.72122E-01
 4.4900     126.93    0.50276E-010.28048E-02
 4.4900     129.10    0.39089E-010.29343E-02
 4.4900     130.86    0.38440E-010.36402E-02
 4.4900     132.97    0.37813E-010.28385E-02
 4.4900     135.03    0.45388E-01
 4.4900     136.37    0.56457E-01
 4.4900     138.41    0.70265E-010.39199E-02
 4.4900     140.16    0.70361E-01
 4.4900     142.26    0.71763E-01
 4.4900     144.36    0.73193E-010.69312E-02
 4.4900     146.12    0.71979E-01
 4.4900     147.92    0.61245E-01
 4.4900     151.57    0.37676E-010.35678E-02
 4.4900     155.09    0.37102E-010.32095E-02
 4.4900     156.83    0.38522E-010.29030E-02
 4.4900     158.86    0.49710E-010.47074E-02
 4.4900     160.58    0.56500E-010.42412E-02
 4.4900     162.67    0.59750E-01
 4.4900     162.69    0.55578E-01
 4.4900     164.50    0.46441E-01
 4.4900     165.94    0.40226E-010.38093E-02
 4.4900     168.03    0.42540E-010.31933E-02
 4.4900     169.41    0.45783E-01
 4.4900     171.47    0.54955E-01
 4.4900     173.20    0.59161E-01
 4.4900     174.58    0.64834E-01
 4.4900     176.67    0.68563E-01
 5.9100     72.145    0.44677E-01
 5.9100     73.926    0.40868E-01
 5.9100     75.839    0.23780E-01
 5.9100     78.087    0.14613E-010.25846E-02
 5.9100     80.442    0.20648E-01
 5.9100     80.484    0.17865E-01
 5.9100     85.833    0.44346E-01
 5.9100     88.044    0.30930E-01
 5.9100     90.313    0.17680E-010.16742E-02
 5.9100     92.491    0.41626E-020.56212E-03
 5.9100     94.547    0.14860E-020.49898E-03
 5.9100     96.451    0.29604E-020.78515E-03
 5.9100     98.323    0.65743E-020.10241E-02
 5.9100     100.36    0.83316E-020.18350E-02
 5.9100     102.39    0.10751E-010.21327E-02
 5.9100     104.46    0.12223E-010.24246E-02
 5.9100     106.16    0.14405E-010.19453E-02
 5.9100     108.42    0.86931E-020.17244E-02
 5.9100     110.27    0.62850E-020.18121E-02
 5.9100     112.07    0.53478E-020.11778E-02
 5.9100     114.22    0.46346E-020.12292E-02
 5.9100     116.32    0.46422E-020.12312E-02
 5.9100     118.03    0.53726E-020.11851E-02
 5.9100     120.29    0.10515E-010.18597E-02
 5.9100     122.07    0.96182E-020.14982E-02
 5.9100     124.34    0.18154E-010.20766E-02
 5.9100     125.76    0.17214E-010.19795E-02
 5.9100     127.86    0.17878E-010.27847E-02
 5.9100     129.63    0.16956E-010.19498E-02
 5.9100     131.83    0.12263E-010.19101E-02
 5.9100     133.66    0.95312E-020.14847E-02
 5.9100     135.39    0.10261E-010.15983E-02
 5.9100     137.44    0.12316E-010.21784E-02
 5.9100     139.12    0.16179E-010.25201E-02
 5.9100     141.12    0.23272E-010.36251E-02
 5.9100     142.80    0.29485E-010.27921E-02
 5.9100     146.65    0.31223E-010.35810E-02
 5.9100     148.49    0.22986E-010.31112E-02
 5.9100     150.09    0.11569E-010.20500E-02
 5.9100     152.14    0.14141E-010.31144E-02
 5.9100     154.17    0.18581E-010.25092E-02
 5.9100     155.82    0.26241E-010.24849E-02
 5.9100     157.51    0.32649E-010.24508E-02
 5.9100     159.20    0.40623E-010.30494E-02
 5.9100     160.94    0.42948E-010.32239E-02
 5.9100     162.76    0.33992E-010.25516E-02
 5.9100     164.25    0.25474E-010.29216E-02
 5.9100     166.23    0.11716E-010.18249E-02
 5.9100     168.29    0.13811E-010.18650E-02
 5.9100     169.91    0.21741E-010.29359E-02
 5.9100     171.79    0.47415E-010.35592E-02
 5.9100     173.36    0.89447E-01
 5.9100     174.93    0.16571
 5.9100     176.61    0.21769
 6.2900     17.451     4.2503
 6.2900     19.907     4.2584
 6.2900     21.741     3.2506
 6.2900     24.281     2.4381
 6.2900     26.912     1.3444
 6.2900     28.793    0.87201
 6.2900     30.819     1.1458    0.86012E-01
 6.2900     33.164     1.6787
 6.2900     37.804     1.2842
 6.2900     39.983    0.99846
 6.2900     42.289    0.50281
 6.2900     43.910    0.23970
 6.2900     46.366    0.24016    0.18028E-01
 6.2900     48.322    0.39926
 6.2900     50.736    0.46234
 6.2900     52.836    0.47155
 6.2900     55.004    0.38013
 6.2900     56.886    0.24656
 6.2900     59.208    0.11760
 6.2900     61.611    0.14120
 6.2900     63.700    0.14932
 6.2900     65.667    0.23942
 6.2900     71.982    0.24060
 6.2900     74.124    0.21232
 6.2900     76.362    0.13528
 6.2900     78.132    0.12831
 6.2900     80.248    0.12395
 6.2900     82.305    0.14611
 6.2900     84.325    0.19550
 6.2900     86.393    0.22226
 6.2900     92.118    0.15266
 6.2900     93.914    0.13227
 6.2900     96.162    0.81279E-01
 6.2900     98.587    0.90774E-01
 6.2900     100.02    0.83013E-01
 6.2900     102.44    0.94403E-01
 6.2900     104.50    0.10929
 6.2900     106.26    0.10747
 6.2900     108.11    0.76309E-010.57283E-02
 6.2900     110.29    0.60412E-01
 6.2900     112.05    0.58345E-01
 6.2900     113.83    0.53370E-010.40063E-02
 6.2900     115.94    0.53458E-010.40129E-02
 6.2900     118.02    0.58616E-01
 6.2900     120.08    0.67858E-01
 6.2900     121.85    0.63206E-01
 6.2900     123.62    0.59948E-01
 6.2900     125.46    0.45760E-010.34350E-02
 6.2900     127.33    0.30774E-010.23101E-02
 6.2900     129.43    0.31387E-010.23469E-02
 6.2900     131.16    0.34407E-010.25828E-02
 6.2900     133.15    0.49491E-010.37151E-02
 6.2900     135.15    0.72490E-01
 6.2900     137.21    0.85451E-01
 6.2900     138.63    0.79571E-010.59731E-02
 6.2900     140.76    0.72807E-01
 6.2900     142.55    0.64233E-010.35833E-02
 6.2900     144.31    0.63167E-01
 6.2900     145.71    0.65567E-01
 6.2900     146.39    0.69262E-010.38640E-02
 6.2900     148.48    0.73246E-010.40862E-02
 6.2900     149.83    0.87871E-010.65962E-02
 6.2900     151.86    0.11339
 6.2900     153.54    0.14628
 6.2900     155.60    0.17244
 6.2900     157.35    0.17583
 6.2900     158.76    0.16977
 6.2900     160.53    0.16395
 6.2900     162.29    0.15834
 6.2900     164.04    0.16146
 6.2900     166.14    0.16467
 6.2900     168.20    0.19412
 6.2900     169.92    0.21668
 6.2900     171.60    0.27452
 6.2900     173.66    0.32360
 6.2900     175.36    0.38832
 6.2900     176.75    0.41793
 6.9400     15.693     1.0461
 6.9400     17.713     1.3997
 6.9400     20.063     2.0139
 6.9400     22.509     2.0921
 6.9400     24.427     1.1955
 6.9400     31.560    0.80729
 6.9400     33.575     1.0999
 6.9400     35.978     1.3206
 6.9400     38.434     1.3231
 6.9400     40.294    0.92259
 6.9400     44.663    0.53786
 6.9400     47.198    0.41078
 6.9400     48.953    0.41135
 6.9400     50.361    0.40441
 6.9400     51.414    0.40474
 6.9400     53.566    0.34448
 6.9400     55.342    0.32086
 6.9400     58.202    0.26834
 6.9400     60.040    0.20116
 6.9400     62.151    0.19787
 6.9400     64.198    0.24185
 6.9400     66.244    0.29560
 6.9400     67.946    0.35472
 6.9400     70.502    0.25200
 6.9400     76.285    0.14184
 6.9400     80.416    0.18669
 6.9400     82.425    0.25899
 6.9400     84.477    0.31088
 6.9400     86.598    0.29493
 6.9400     88.672    0.32930
 6.9400     90.484    0.27023
 6.9400     92.658    0.21394
 6.9400     98.504    0.96915E-01
 6.9400     100.33    0.75329E-010.42241E-02
 6.9400     102.33    0.10836    0.60449E-02
 6.9400     104.68    0.15875
 6.9400     106.38    0.18708
 6.9400     108.13    0.19424
 6.9400     110.22    0.20173
 6.9400     112.37    0.17170
 6.9400     114.53    0.14613
 6.9400     116.68    0.12437    0.93361E-02
 6.9400     118.49    0.10206
 6.9400     120.19    0.12248
 6.9400     122.26    0.14179
 6.9400     123.97    0.16115
 6.9400     126.38    0.19349
 6.9400     128.14    0.18687
 6.9400     129.93    0.16787
 6.9400     132.08    0.14288
 6.9400     133.50    0.13547
 6.9400     135.58    0.14855
 6.9400     137.65    0.16585    0.12450E-01
 6.9400     139.00    0.19897
 6.9400     141.04    0.24763
 6.9400     143.09    0.29724
 6.9400     144.82    0.33178
 6.9400     146.58    0.32628
 6.9400     148.71    0.29854
 6.9400     150.20    0.22374
 6.9400     151.95    0.22404
 6.9400     154.02    0.25015
 6.9400     156.08    0.30026    0.16750E-01
 6.9400     157.43    0.36021
 6.9400     159.50    0.40218
 6.9400     161.24    0.42520
 6.9400     162.98    0.44147
 6.9400     164.41    0.40372
 6.9400     166.19    0.37604
 6.9400     167.91    0.41222
 6.9400     169.94    0.54165
 6.9400     171.59    0.76495
 6.9400     173.26     1.0232
 6.9400     174.92     1.4450
 6.9400     176.96     1.7662
 7.3000     38.793    0.17160E-010.53511E-02
 7.3000     64.734    0.18824E-010.41460E-02
 7.3000     67.105    0.25194E-010.39243E-02
 7.3000     72.382    0.72560E-020.22653E-02
 7.3000     78.507    0.13988E-010.30854E-02
 7.3000     81.297    0.14800E-010.32597E-02
 7.3000     93.448    0.69861E-020.25189E-02
 7.3000     105.50    0.15357E-010.30463E-02
 7.3000     107.26    0.14832E-010.26281E-02
 7.3000     109.06    0.12850E-010.20017E-02
 7.3000     111.33    0.73452E-020.16178E-02
 7.3000     113.32    0.33175E-020.95533E-03
 7.3000     115.05    0.36366E-020.96449E-03
 7.3000     116.75    0.43639E-020.12597E-02
 7.3000     119.23    0.13430E-010.18136E-02
 7.3000     121.21    0.20396E-010.23391E-02
 7.3000     122.97    0.20057E-010.18994E-02
 7.3000     125.41    0.21217E-010.24268E-02
 7.3000     127.27    0.14794E-010.23045E-02
 7.3000     128.67    0.15081E-010.26722E-02
 7.3000     130.88    0.10519E-010.18571E-02
 7.3000     132.52    0.45807E-020.13223E-02
 7.3000     134.39    0.31368E-020.10533E-02
 7.3000     136.10    0.36304E-020.96284E-03
 7.3000     138.28    0.93206E-020.18489E-02
 7.3000     140.00    0.10404E-010.18435E-02
 7.3000     141.80    0.29766E-010.34228E-02
 7.3000     143.85    0.35728E-010.48249E-02
 7.3000     145.62    0.33887E-010.32090E-02
 7.3000     147.70    0.37157E-010.50177E-02
 7.3000     149.57    0.24988E-010.33822E-02
 7.3000     150.98    0.75755E-020.21841E-02
 7.3000     152.81    0.57826E-020.16672E-02
 7.3000     155.11    0.99705E-020.17603E-02
 7.3000     156.53    0.31219E-010.35803E-02
 7.3000     157.82    0.44881E-010.33690E-02
 7.3000     160.20    0.58990E-01
 7.3000     161.97    0.55949E-01
 7.3000     163.42    0.47592E-010.35866E-02
 7.3000     165.27    0.35037E-010.33179E-02
 7.3000     166.64    0.11628E-010.20566E-02
 7.3000     168.61    0.56460E-020.16278E-02
 7.3000     170.61    0.26337E-010.30205E-02
 7.3000     172.50    0.55398E-01
 7.3000     173.74    0.98958E-01
 7.3000     175.69    0.16452
 7.3000     177.02    0.21218
ENDDATA            556
ENDSUBENT          564
ENDENTRY             3
