ENTRY            F0658   20050617   20050831                  F022
SUBENT        F0658001   20050617   20050831                  F022
BIB                 10         30
TITLE      Resonances in low energy elastic scattering of alpha
           particles from 28Si.
AUTHOR     (J.J.Lawrie,A.A.Cowley,D.M.Whittal,S.J.Mills,
           W.R.McMurray)
INSTITUTE  (3SAFITH)
REFERENCE  (J,ZP/A,325,175,1986)
FACILITY   (VDG)   6 MV
DETECTOR   (SI) The 100 mu silicon detectors mounted on
           rotatable arms, with an angular accuracy of 0.1 degr.
           Circular detector collimators subtended a solid angle
           of 0.5 msr with an angular acceptance of 0.8 degr.
SAMPLE     The target consisted of 250 mu-g/cm2 natural silicon
           evaporated onto a backing consisting of a 40 mu-g/cm2
           gold layer on a KAPTON film.
MONITOR    Forward angle elastic scattering from a thin gold
           target, measured on both sides of the beam, was used to
           determine the angular offset of the angle
           determinations.
           Rutherford scattering from the thin gold layer
           sandwiched between the silicon target material and the
           KAPTON backing, was used to monitor the total incident
           flux.
ERR-ANALYS (ERR-S)Statistical error
           (ERR-SYS)Systematic error in the measured cross section
           values, which is mainly due to uncertainties in the
           silicon and gold target thicknesses.
           (DATA-ERR)The experimental error bars represent
           statistical errors only.
           (ERR-DIG)Digitizing error
HISTORY    (20040309C)
ENDBIB              30
COMMON               3          3
ERR-S      ERR-SYS    ERR-DIG
PER-CENT   PER-CENT   NO-DIM
 5.0        10.0       0.01
ENDCOMMON            3
ENDSUBENT           37
SUBENT        F0658002   20050617   20050831                  F022
BIB                  3          3
REACTION   (14-SI-28(A,EL)14-SI-28,,DA,,RTH)
ERR-ANALYS (EN-ERR-DIG)Digitizing error
STATUS     (CURVE)Fig.2
ENDBIB               3
COMMON               1          3
EN-ERR-DIG
MEV
 0.02
ENDCOMMON            3
DATA                 4        284
ANG-CM     EN-CM      DATA-CM    DATA-ERR
ADEG       MEV        NO-DIM     NO-DIM
 78.000     4.3879     1.0732    0.60799E-01
 78.000     4.4666     1.0884    0.60799E-01
 78.000     4.5612     1.0885    0.55724E-01
 78.000     4.6402     1.0581    0.55724E-01
 78.000     4.7348     1.0633    0.65855E-01
 78.000     4.8295     1.0430    0.45592E-01
 78.000     4.9081     1.0735    0.50658E-01
 78.000     5.0025     1.1039    0.65855E-01
 78.000     5.0973     1.0787    0.55724E-01
 78.000     5.1760     1.0990    0.55733E-01
 78.000     5.2396     1.0028    0.55724E-01
 78.000     5.3342     1.0079    0.55714E-01
 78.000     5.4275     1.2156    0.75987E-01
 78.000     5.5222     1.2106    0.65855E-01
 78.000     5.6022     1.0131    0.55724E-01
 78.000     5.7123     1.0537    0.60809E-01
 78.000     5.8068     1.0740    0.75997E-01
 78.000     5.8717    0.74987    0.40526E-01
 78.000     5.9680    0.47131    0.30395E-01
 78.000     6.0461    0.59293    0.30395E-01
 78.000     6.1548    0.87162    0.60799E-01
 78.000     6.2330    0.97805    0.60799E-01
 78.000     6.3278    0.94265    0.50668E-01
 78.000     6.3924    0.68433    0.45583E-01
 78.000     6.4855    0.93768    0.50668E-01
 78.000     6.5807    0.84149    0.45592E-01
 78.000     6.6458    0.49199    0.40517E-01
 78.000     6.7404    0.49204    0.35461E-01
 78.000     6.8510    0.45665    0.25339E-01
 78.000     6.9148    0.31991    0.30395E-01
 78.000     7.0085    0.48208    0.35461E-01
 78.000     7.1027    0.54293    0.30395E-01
 78.000     7.1805    0.72028    0.35470E-01
 78.000     7.2750    0.73047    0.45592E-01
 78.000     7.3533    0.81157    0.45592E-01
 78.000     7.4654    0.52288    0.30395E-01
 78.000     7.5444    0.49254    0.35451E-01
 78.000     7.6082    0.38113    0.25329E-01
 78.000     7.7168    0.66488    0.30395E-01
 78.000     7.7966    0.49776    0.35451E-01
 78.000     7.8915    0.45222    0.30395E-01
 78.000     7.9854    0.57386    0.30395E-01
 78.000     8.0654    0.36621    0.25339E-01
 78.000     8.1442    0.37133    0.20254E-01
 78.000     8.2391    0.32579    0.15207E-01
 78.000     8.3173    0.42716    0.25329E-01
 78.000     8.4284    0.31578    0.20273E-01
 78.000     8.5219    0.48807    0.30404E-01
 78.000     8.5864    0.25508    0.20273E-01
 78.000     8.6801    0.39698    0.20254E-01
 78.000     8.7738    0.55915    0.35461E-01
 78.000     8.8544    0.26031    0.15207E-01
 78.000     8.9495    0.16919    0.10132E-01
 78.000     9.0423    0.46813    0.35470E-01
 78.000     9.1209    0.50364    0.30385E-01
 78.000     9.2321    0.37199    0.25339E-01
 78.000     9.2960    0.22512    0.15188E-01
 78.000     9.3595    0.15931    0.10132E-01
 78.000     9.4678    0.49878    0.25329E-01
 78.000     9.5621    0.54950    0.20263E-01
 78.000     9.6572    0.45837    0.30395E-01
 78.000     9.7519    0.43817    0.30404E-01
 78.000     9.8160    0.27610    0.25329E-01
 78.000     9.9111    0.17991    0.15207E-01
 78.000     9.9736    0.28126    0.25329E-01
 78.000     10.084    0.19015    0.15197E-01
 78.000     10.148    0.12433    0.15197E-01
 78.000     10.256    0.51447    0.30395E-01
 78.000     10.320    0.27135    0.20263E-01
 78.000     10.416    0.11943    0.20273E-01
 78.000     10.507    0.70205    0.45592E-01
 98.000     4.4113    0.99896    0.54259E-01
 98.000     4.4747     1.0260    0.74627E-01
 98.000     4.5854     1.0056    0.67813E-01
 98.000     4.6644    0.97837    0.74627E-01
 98.000     4.7432    0.92403    0.40706E-01
 98.000     4.8229     1.0325    0.67857E-01
 98.000     4.9179     1.0392    0.61058E-01
 98.000     4.9963    0.90344    0.61073E-01
 98.000     5.1067    0.82193    0.47490E-01
 98.000     5.2015    0.80148    0.47475E-01
 98.000     5.2649    0.81499    0.40706E-01
 98.000     5.3609     1.0184    0.54289E-01
 98.000     5.4396    0.93017    0.54274E-01
 98.000     5.5335    0.71976    0.61058E-01
 98.000     5.6121    0.61793    0.40720E-01
 98.000     5.7075    0.70603    0.40706E-01
 98.000     5.7853    0.44816    0.33921E-01
 98.000     5.8635    0.27169    0.33907E-01
 98.000     5.9762    0.65151    0.47475E-01
 98.000     6.0734     1.0992    0.67828E-01
 98.000     6.1520    0.99735    0.61058E-01
 98.000     6.2476     1.1262    0.54274E-01
 98.000     6.3240    0.57656    0.33907E-01
 98.000     6.4204    0.87498    0.47490E-01
 98.000     6.4835    0.82065    0.47475E-01
 98.000     6.5600    0.30497    0.20353E-01
 98.000     6.6564    0.58982    0.40706E-01
 98.000     6.7671    0.58972    0.40691E-01
 98.000     6.8458    0.49467    0.33921E-01
 98.000     6.9251    0.53530    0.33921E-01
 98.000     7.0208    0.67768    0.33921E-01
 98.000     7.0990    0.50800    0.40706E-01
 98.000     7.1619    0.42653    0.27152E-01
 98.000     7.2569    0.43323    0.40706E-01
 98.000     7.3513    0.31780    0.27152E-01
 98.000     7.4463    0.32450    0.27137E-01
 98.000     7.5407    0.21586    0.67842E-02
 98.000     7.6364    0.37181    0.20353E-01
 98.000     7.7160    0.45994    0.33907E-01
 98.000     7.7941    0.26312    0.13554E-01
 98.000     7.8907    0.58189    0.40720E-01
 98.000     8.0019    0.67677    0.47475E-01
 98.000     8.0809    0.65634    0.33907E-01
 98.000     8.1594    0.52737    0.33921E-01
 98.000     8.2386    0.53408    0.27122E-01
 98.000     8.3491    0.47970    0.33921E-01
 98.000     8.4278    0.39822    0.27122E-01
 98.000     8.5249    0.82554    0.40691E-01
 98.000     8.5859    0.37093    0.33921E-01
 98.000     8.6803    0.26908    0.20353E-01
 98.000     8.7760    0.40468    0.33921E-01
 98.000     8.8719    0.60812    0.33921E-01
 98.000     8.9840    0.86582    0.54259E-01
 98.000     9.0481     1.0286    0.54289E-01
 98.000     9.1432     1.0556    0.61058E-01
 98.000     9.2216    0.91309    0.47519E-01
 98.000     9.3163    0.86551    0.47490E-01
 98.000     9.3937    0.52622    0.27122E-01
 98.000     9.4556    0.23444    0.13569E-01
 98.000     9.5688    0.72281    0.40706E-01
 98.000     9.6466    0.45815    0.33936E-01
 98.000     9.7251    0.34274    0.20368E-01
 98.000     9.8205    0.42406    0.33921E-01
 98.000     9.9007    0.64787    0.33921E-01
 98.000     9.9810    0.86489    0.33936E-01
 98.000     10.091    0.72232    0.27137E-01
 98.000     10.205     1.3260    0.74612E-01
 98.000     10.266    0.84428    0.54274E-01
 98.000     10.344    0.74244    0.54274E-01
 98.000     10.441     1.0544    0.67828E-01
 98.000     10.553     1.2579    0.61029E-01
 133.00     4.3683     1.1554    0.67839E-01
 133.00     4.4484     1.1549    0.67839E-01
 133.00     4.5444     1.1408    0.81316E-01
 133.00     4.6243     1.1268    0.81407E-01
 133.00     4.7200     1.0720    0.81407E-01
 133.00     4.7994    0.99010    0.67839E-01
 133.00     4.8955    0.98955    0.54181E-01
 133.00     4.9761     1.0569    0.67839E-01
 133.00     5.0722     1.0564    0.67748E-01
 133.00     5.1681     1.0423    0.54181E-01
 133.00     5.2311    0.90624    0.67839E-01
 133.00     5.3287     1.0956    0.81407E-01
 133.00     5.4077    0.95951    0.54181E-01
 133.00     5.4873    0.90478    0.40704E-01
 133.00     5.5851     1.1213    0.81407E-01
 133.00     5.6805     1.0258    0.81316E-01
 133.00     5.7756    0.90315    0.40613E-01
 133.00     5.8408     1.0520    0.67839E-01
 133.00     5.9496    0.63079    0.40613E-01
 133.00     6.0451    0.56241    0.27045E-01
 133.00     6.1265    0.72477    0.40613E-01
 133.00     6.1911    0.79224    0.54271E-01
 133.00     6.2879    0.88667    0.54271E-01
 133.00     6.3978    0.60111    0.40704E-01
 133.00     6.4601    0.38366    0.40704E-01
 133.00     6.5567    0.45096    0.27045E-01
 133.00     6.6367    0.43694    0.27136E-01
 133.00     6.7328    0.43639    0.27136E-01
 133.00     6.8307    0.66650    0.40704E-01
 133.00     6.9124    0.88313    0.54272E-01
 133.00     6.9925    0.88268    0.54272E-01
 133.00     7.0909     1.1806    0.67839E-01
 133.00     7.1758     1.7907    0.94975E-01
 133.00     7.2399     1.7904    0.12220
 133.00     7.3430    0.65002    0.54271E-01
 133.00     7.4377    0.47310    0.27136E-01
 133.00     7.5189    0.62189    0.27136E-01
 133.00     7.6001    0.75711    0.27136E-01
 133.00     7.6773     2.4256    0.14925
 133.00     7.7945     1.0409    0.81407E-01
 133.00     7.8881    0.72834    0.40704E-01
 133.00     7.9512    0.60587    0.40704E-01
 133.00     8.0455    0.38824    0.27136E-01
 133.00     8.1591    0.57755    0.40704E-01
 133.00     8.2126     1.2692    0.94975E-01
 133.00     8.3044    0.72598    0.40704E-01
 133.00     8.4148    0.50826    0.40613E-01
 133.00     8.4886     1.7426    0.94884E-01
 133.00     8.5664     1.4572    0.95066E-01
 133.00     8.6507     1.9859    0.13559
 133.00     8.7521    0.62846    0.40704E-01
 133.00     8.8497    0.81787    0.67748E-01
 133.00     8.9349     1.4687    0.10854
 133.00     9.0104    0.89836    0.67930E-01
 133.00     9.1068    0.93852    0.54181E-01
 133.00     9.2002    0.59878    0.54272E-01
 133.00     9.3022     1.3445    0.94975E-01
 133.00     9.3724     2.1175    0.13568
 133.00     9.4760     1.0450    0.54272E-01
 133.00     9.5704    0.82734    0.67839E-01
 133.00     9.6522     1.0440    0.81498E-01
 133.00     9.7286    0.58221    0.54181E-01
 133.00     9.8063    0.28327    0.27136E-01
 133.00     9.9202    0.51328    0.54272E-01
 133.00     9.9895     1.1777    0.81316E-01
 133.00     10.079    0.32243    0.40704E-01
 133.00     10.165     1.0818    0.10854
 133.00     10.258    0.66062    0.40704E-01
 133.00     10.329     1.5829    0.54271E-01
 133.00     10.436    0.97168    0.54181E-01
 133.00     10.498     2.6538    0.16281
 170.00     4.3529     1.2105
 170.00     4.4487     1.3435
 170.00     4.5286     1.4769
 170.00     4.6242     1.2034
 170.00     4.7044     2.2854
 170.00     4.7840     1.8768
 170.00     4.8795     1.3323
 170.00     4.9912     1.3294
 170.00     5.0551     1.4633
 170.00     5.1508     1.1898
 170.00     5.2308     2.0008
 170.00     5.3268     2.5403
 170.00     5.4063     1.7252
 170.00     5.4858     1.1811
 170.00     5.5656     1.1791
 170.00     5.6773     1.0407
 170.00     5.7731     1.3092
 170.00     5.8372     1.9850
 170.00     5.9496     3.8792    0.54242
 170.00     6.0460     5.9092    0.81219
 170.00     6.1085     2.1135
 170.00     6.2043     2.3820
 170.00     6.2839     1.7025
 170.00     6.3799     2.5130
 170.00     6.4756     2.5105
 170.00     6.5557     3.1860
 170.00     6.6531     7.7906    0.54159
 170.00     6.7489     8.0591    0.81343
 170.00     6.8281     6.5665    0.67710
 170.00     6.9092     10.087    0.67751
 170.00     6.9870     4.5298
 170.00     7.0819     2.3593
 170.00     7.1798     8.3189    0.81301
 170.00     7.2597     8.5879    0.81301
 170.00     7.3401     10.347    0.67792
 170.00     7.4354     8.9898    0.67751
 170.00     7.5343     17.930     1.0844
 170.00     7.6141     17.928     1.2195
 170.00     7.7077     12.099    0.94893
 170.00     7.8026     9.6578    0.94810
 170.00     7.9011     17.379    0.94810
 170.00     7.9637     13.854    0.94851
 170.00     8.0558     3.8246
 170.00     8.1534     8.9712    0.67751
 170.00     8.2159     5.3110
 170.00     8.3115     4.9020
 170.00     8.4236     6.1186    0.81219
 170.00     8.4896     12.079    0.94851
 170.00     8.6023     14.786    0.81301
 170.00     8.6806     10.584    0.94852
 170.00     8.7619     15.053    0.94851
 170.00     8.8556     9.2240    0.54242
 170.00     8.9521     11.390    0.94851
 170.00     9.0485     13.284    0.81260
 170.00     9.1102     7.1849    0.40692
 170.00     9.2217     6.6400
 170.00     9.3161     3.1145
 170.00     9.3815     7.3134
 170.00     9.4786     11.240    0.67792
 170.00     9.5738     9.7474    0.81343
 170.00     9.6712     14.217    0.81301
 170.00     9.7662     12.317    0.94810
 170.00     9.8145     13.400    0.94852
 170.00     9.9428     15.158    0.94769
 170.00     10.022     13.936    0.81260
 170.00     10.084     7.2952    0.81343
 170.00     10.179     7.4282
 170.00     10.276     11.084    0.67751
 170.00     10.349     34.660     2.1680
 170.00     10.442     27.611     1.7611
 170.00     10.533     15.007    0.94851
ENDDATA            286
ENDSUBENT          298
SUBENT        F0658003   20050617   20050831                  F022
BIB                  3          3
REACTION   (14-SI-28(A,EL)14-SI-28,,DA,,RTH)
ERR-ANALYS (ANG-ERR-D)Digitizing error
STATUS     (CURVE)Fig.3,4,5
ENDBIB               3
COMMON               1          3
ANG-ERR-D
ADEG
 0.15
ENDCOMMON            3
DATA                 4        137
EN-CM      ANG-CM     DATA-CM    DATA-ERR
MEV        ADEG       NO-DIM     NO-DIM
 5.8000     77.906     1.0794    0.54566E-01
 5.8000     83.051    0.88447    0.46213E-01
 5.8000     88.201    0.69792    0.58817E-01
 5.8000     93.213    0.54923    0.33610E-01
 5.8000     98.554    0.45086    0.29408E-01
 5.8000     103.46    0.41985    0.29358E-01
 5.8000     108.23    0.42251    0.42062E-01
 5.8000     113.02    0.47137    0.33610E-01
 5.8000     117.82    0.53704    0.33560E-01
 5.8000     122.48    0.63218    0.37811E-01
 5.8000     125.44    0.72785    0.33560E-01
 5.8000     127.31    0.78607    0.37761E-01
 5.8000     127.75    0.72711    0.37861E-01
 5.8000     132.45    0.91046    0.46263E-01
 5.8000     137.09    0.98459    0.54566E-01
 5.8000     141.25    0.98324    0.58867E-01
 5.8000     145.84    0.93553    0.46213E-01
 5.8000     150.41    0.83320    0.50464E-01
 5.8000     154.86    0.81075    0.50414E-01
 5.8000     159.02    0.83041    0.50364E-01
 5.8000     163.40    0.97605    0.63068E-01
 5.8000     166.07     1.1180    0.67119E-01
 5.8000     169.75     1.4362    0.88225E-01
 6.0000     77.654    0.45811
 6.0000     83.041    0.34574
 6.0000     88.411    0.30635
 6.0000     93.745    0.42751
 6.0000     98.812    0.65064
 6.0000     103.87    0.91755    0.72977E-01
 6.0000     108.70     1.1113    0.72977E-01
 6.0000     113.54     1.2320    0.87772E-01
 6.0000     118.42     1.2360    0.73177E-01
 6.0000     122.85     1.0353    0.72777E-01
 6.0000     126.04    0.92113    0.72977E-01
 6.0000     127.52    0.87855
 6.0000     128.50    0.82096
 6.0000     132.93    0.63482
 6.0000     137.58    0.56564
 6.0000     141.96    0.59842
 6.0000     146.28    0.89393    0.72777E-01
 6.0000     151.06     1.3212    0.11696
 6.0000     155.32     1.8502    0.10217
 6.0000     159.58     2.4230    0.16055
 6.0000     163.77     3.2586    0.21893
 6.0000     166.63     3.5383    0.17534
 6.0000     170.67     3.9941    0.24832
 6.3000     77.660    0.83361    0.73086E-01
 6.3000     83.046    0.70584    0.87875E-01
 6.3000     88.189    0.57789
 6.3000     93.323    0.49379
 6.3000     98.440    0.49740
 6.3000     103.31    0.50084
 6.3000     108.66    0.57770
 6.3000     113.27    0.68329
 6.3000     118.13    0.75981
 6.3000     122.99    0.80710
 6.3000     125.43    0.80881    0.87704E-01
 6.3000     127.86    0.83977    0.87875E-01
 6.3000     132.50    0.79918    0.58469E-01
 6.3000     137.14    0.75859
 6.3000     141.53    0.73245
 6.3000     145.93    0.63322
 6.3000     150.58    0.56340
 6.3000     154.72    0.58094
 6.3000     159.08    0.70097
 6.3000     163.64     1.0550    0.72914E-01
 6.3000     166.27     1.3347    0.11694
 6.3000     170.33     1.7322    0.87875E-01
 7.5000     77.677    0.23226
 7.5000     83.116    0.35177
 7.5000     87.953    0.25268
 7.5000     93.192    0.15440
 7.5000     98.431    0.27350
 7.5000     103.27    0.39180
 7.5000     108.50    0.40221
 7.5000     113.14    0.62881
 7.5000     117.97    0.63841
 7.5000     122.81    0.86541
 7.5000     125.43    0.76192
 7.5000     127.04    0.76512
 7.5000     128.25    0.87622
 7.5000     132.48    0.66724
 7.5000     137.32    0.35078
 7.5000     141.55    0.25049
 7.5000     146.18    0.80316
 7.5000     150.81     1.7906
 7.5000     155.23     3.9732
 7.5000     159.44     6.5902    0.43477
 7.5000     163.64     11.490    0.76084
 7.5000     166.24     13.886    0.76084
 7.5000     170.25     17.698     1.0869
 7.7000     77.067    0.56871
 7.7000     82.507    0.68939
 7.7000     87.545    0.58715
 7.7000     92.582    0.59601
 7.7000     97.621    0.38266
 7.7000     102.66    0.39152
 7.7000     107.49    0.40003
 7.7000     112.33    0.29743
 7.7000     117.16    0.63926
 7.7000     122.40     1.3151
 7.7000     124.82     1.6527
 7.7000     126.22     1.8774
 7.7000     127.23     2.1014
 7.7000     132.06     2.4432
 7.7000     136.70     2.6736
 7.7000     141.13     2.0147
 7.7000     145.57     1.5781
 7.7000     150.01     1.1415
 7.7000     154.44     1.3715
 7.7000     158.86     3.2681    0.55589
 7.7000     162.87     5.8307    0.77740
 7.7000     165.68     8.2800    0.77775
 7.7000     169.49     12.287     1.5551
 7.8000     77.271    0.54476
 7.8000     82.511    0.44438
 7.8000     87.548    0.45352
 7.8000     92.989    0.35350
 7.8000     98.026    0.36264
 7.8000     103.06    0.48166
 7.8000     107.69    0.92959
 7.8000     112.73     1.0486
 7.8000     117.77     1.0577
 7.8000     122.60     1.1764
 7.8000     125.43     1.0716
 7.8000     127.04     1.0746
 7.8000     127.84     1.1859
 7.8000     132.48     1.0844
 7.8000     136.91     1.0925
 7.8000     141.34    0.99063
 7.8000     145.78    0.88879
 7.8000     150.41     1.1170
 7.8000     154.44     1.7836
 7.8000     158.86     3.1102
 7.8000     163.28     5.3159    0.33001
 7.8000     165.89     6.8589    0.54904
 7.8000     169.70     9.2833    0.54941
ENDDATA            139
ENDSUBENT          151
ENDENTRY             3
