ENTRY            F0657   20051207   20060315                  F023
SUBENT        F0657001   20051207   20060315                  F023
BIB                 12         33
TITLE      Elastic and inelastic scattering of alpha particles
           from 40,44Ca over a broad range of energies and angles.
AUTHOR     (Th.Delbar,Gh.Gregoire,G.Paic,R.Ceuleneer,F.Michel,
           R.Vanderpoorten,A.Budzanowski,H.Dabrowski,L.Freindl,
           K.Grotowski,S.Micek,R.Planeta,A.Strzalkowski,
           K.A.Eberhard)
INSTITUTE  (2BLGPCL,3CRORBZ,2BLGBLG,3POLUJK,2GERMUU)
REFERENCE  (J,PR/C,18,1237,1978)
FACILITY   (ISOCY,2BLGLVN)
INC-SOURCE The beam intensity was adjusted to get deadtime
           corrections less than 10%.
INC-SPECT  The energy spread of the beam is of the order of 0.3%.
           The size of the beam spot on the target is 3*3 mm.
DETECTOR   (SILI)The detection system consisted of seven
           detectors cooled to about -20 degr.These detectors are
           placed 10 degr.apart on a turntable rotatable around
           the target axis.
MONITOR    The accuracy of the detection angles was checked by
           Rutherford scattering on both sides of the beam axis
           and was found to be accurate to +-0.2 degr.The solid
           angles were measured by Rutherford scattering of 15 MeV
           alpha particles from a thin gold target and were found
           to agree with the geometrical estimate.
SAMPLE     Self-supporting targets of isotopically pure 40Ca and
           44Ca  located in the center of a 1 m diameter
           scattering chamber were used. All targets contained
           some carbon (0.21 mg/cm2) and oxygen (0.26 mg/cm2).
ERR-ANALYS (ERR-S)The errors on the data points are statistical
           only
           (DATA-ERR) Errors of the absolute cross sections
           (ANG-ERR-D)Digitizing error
           (ERR-DIG)Digitizing error
HISTORY    (20031027C)
ENDBIB              33
COMMON               2          3
DATA-ERR   EN-RSL
PER-CENT   KEV
  15.0      100.0
ENDCOMMON            3
ENDSUBENT           40
SUBENT        F0657002   20051207   20060315                  F023
BIB                  3          3
REACTION   (20-CA-40(A,EL)20-CA-40,,DA,,RTH)
SAMPLE     The target thickness was 0.78 mg/cm2.
STATUS     (CURVE)Fig.1
ENDBIB               3
COMMON               2          3
ANG-ERR-D  ERR-DIG
ADEG       PER-CENT
 0.3        0.2
ENDCOMMON            3
DATA                 4        252
EN         ANG-CM     DATA-CM    ERR-S
MEV        ADEG       NO-DIM     NO-DIM
 40.000     113.40    0.12221
 40.000     115.19    0.10028
 40.000     117.88    0.67487E-01
 40.000     120.11    0.64917E-01
 40.000     122.31    0.89264E-01
 40.000     124.98    0.10474
 40.000     127.20    0.96826E-01
 40.000     129.45    0.65155E-01
 40.000     131.68    0.51389E-01
 40.000     134.34    0.65279E-01
 40.000     136.55    0.86268E-01
 40.000     138.77    0.82983E-01
 40.000     141.03    0.40644E-01
 40.000     143.76    0.13386E-010.24102E-02
 40.000     146.38    0.32096E-01
 40.000     148.12    0.71056E-01
 40.000     150.77    0.97723E-01
 40.000     153.02    0.58374E-01
 40.000     155.32    0.13991E-01
 40.000     156.88    0.12418E-01
 40.000     157.18    0.23455E-020.70473E-03
 40.000     159.29    0.26450E-01
 40.000     161.90    0.77345E-01
 40.000     164.12    0.94411E-01
 40.000     166.36    0.68780E-01
 40.000     168.18    0.26542E-01
 40.000     170.93    0.52172E-020.14204E-02
 40.000     173.01    0.94740E-01
 40.000     175.62    0.29993
 42.000     114.58    0.11868
 42.000     117.25    0.88988E-01
 42.000     119.47    0.56606E-01
 42.000     121.69    0.48015E-01
 42.000     124.36    0.64017E-01
 42.000     126.14    0.81918E-01
 42.000     128.81    0.78605E-01
 42.000     131.47    0.37496E-01
 42.000     133.69    0.21969E-01
 42.000     135.92    0.30520E-01
 42.000     138.14    0.44180E-01
 42.000     140.37    0.37475E-01
 42.000     143.03    0.21072E-01
 42.000     145.24    0.35963E-02
 42.000     146.13    0.31788E-02
 42.000     147.47    0.96455E-020.17925E-02
 42.000     149.70    0.30494E-01
 42.000     152.37    0.47924E-01
 42.000     154.15    0.42358E-01
 42.000     156.82    0.21937E-010.40762E-02
 42.000     159.02    0.28077E-02
 42.000     161.25    0.66566E-02
 42.000     163.49    0.45962E-01
 42.000     165.28    0.85149E-01
 42.000     167.94    0.88708E-01
 42.000     170.16    0.45943E-01
 42.000     172.36    0.18597E-02
 42.000     174.62    0.85099E-01
 42.000     176.15    0.37382
 44.000     113.24    0.58915E-01
 44.000     115.91    0.52244E-01
 44.000     118.13    0.35004E-01
 44.000     123.02    0.25407E-01
 44.000     125.25    0.29819E-01
 44.000     127.91    0.27523E-01
 44.000     130.14    0.12860E-01
 44.000     132.36    0.29226E-020.43257E-03
 44.000     134.58    0.10318E-020.15271E-03
 44.000     139.48    0.93338E-02
 44.000     141.70    0.10525E-01
 44.000     144.37    0.73397E-02
 44.000     146.14    0.29220E-02
 44.000     148.81    0.14211E-02
 44.000     151.04    0.14497E-01
 44.000     153.26    0.37900E-01
 44.000     155.93    0.44482E-01
 44.000     158.16    0.24395E-01
 44.000     160.37    0.16676E-02
 44.000     163.05    0.20783E-01
 44.000     164.38    0.84407E-01
 44.000     167.05    0.14205
 44.000     169.28    0.91438E-01
 44.000     171.50    0.15700E-01
 44.000     173.28    0.54327E-01
 44.000     175.95    0.34275
 46.000     113.34    0.24678E-01
 46.000     115.59    0.22767E-01
 46.000     118.31    0.20155E-01
 46.000     120.67    0.95173E-02
 46.000     123.03    0.44941E-02
 46.000     125.29    0.41461E-020.33297E-03
 46.000     127.49    0.53465E-020.82145E-03
 46.000     129.82    0.32454E-020.50035E-03
 46.000     132.05    0.33947E-020.52337E-03
 46.000     134.36    0.22406E-02
 46.000     136.72    0.11032E-020.17009E-03
 46.000     138.95    0.12548E-020.14808E-03
 46.000     141.30    0.10213E-01
 46.000     143.89    0.20029E-01
 46.000     146.14    0.18478E-01
 46.000     148.07    0.80195E-02
 46.000     150.73    0.99236E-02
 46.000     152.78    0.33514E-01
 46.000     154.94    0.55556E-01
 46.000     157.23    0.43352E-01
 46.000     159.73    0.88623E-02
 46.000     161.88    0.15974E-01
 46.000     164.32    0.75453E-01
 46.000     166.01    0.14778
 46.000     168.30    0.11059
 46.000     170.76    0.27872E-01
 46.000     173.07    0.18396E-01
 46.000     174.92    0.21810
 48.000     112.69    0.27160E-02
 48.000     114.35    0.33639E-02
 48.000     116.71    0.12765E-02
 48.000     119.07    0.46435E-030.55443E-04
 48.000     121.59    0.20415E-02
 48.000     123.80    0.27501E-02
 48.000     126.07    0.22317E-02
 48.000     128.69    0.40421E-02
 48.000     130.84    0.94280E-02
 48.000     133.49    0.13254E-01
 48.000     135.33    0.94715E-02
 48.000     137.63    0.54827E-02
 48.000     139.76    0.14515E-01
 48.000     142.37    0.29841E-01
 48.000     144.61    0.32546E-01
 48.000     146.93    0.16598E-01
 48.000     149.24    0.92107E-02
 48.000     151.79    0.31431E-01
 48.000     153.97    0.52294E-01
 48.000     156.23    0.48169E-01
 48.000     158.14    0.16790E-01
 48.000     160.43    0.12004E-01
 48.000     162.93    0.59907E-01
 48.000     165.11    0.10845
 48.000     166.92    0.95724E-01
 48.000     170.21    0.25934E-01
 48.000     171.59    0.19324E-01
 48.000     174.47    0.18177
 50.000     112.25    0.25819E-02
 50.000     114.50    0.25880E-02
 50.000     116.89    0.80423E-030.91763E-04
 50.000     119.50    0.16024E-02
 50.000     121.97    0.84157E-02
 50.000     124.62    0.11658E-01
 50.000     126.47    0.77996E-02
 50.000     128.69    0.91888E-02
 50.000     131.74    0.18317E-01
 50.000     133.50    0.24347E-01
 50.000     136.21    0.21631E-01
 50.000     138.51    0.13905E-01
 50.000     140.71    0.20048E-01
 50.000     142.84    0.46925E-01
 50.000     145.06    0.57561E-01
 50.000     147.36    0.35538E-01
 50.000     149.73    0.13515E-01
 50.000     151.84    0.37179E-01
 50.000     154.45    0.71146E-01
 50.000     156.70    0.68492E-01
 50.000     159.03    0.34556E-01
 50.000     160.94    0.14826E-01
 50.000     163.44    0.66252E-01
 50.000     165.58    0.13738
 50.000     168.29    0.12708
 50.000     169.72     1.9839    0.22553
 50.000     170.22    0.44556E-01
 50.000     172.59    0.16944E-01
 50.000     174.50    0.22517
 54.000     112.54    0.15008E-01
 54.000     114.72    0.16937E-01
 54.000     117.33    0.21540E-01
 54.000     119.52    0.22453E-01
 54.000     122.11    0.32167E-01
 54.000     123.85    0.39287E-01
 54.000     126.50    0.31027E-01
 54.000     128.71    0.26519E-01
 54.000     131.33    0.32413E-01
 54.000     133.48    0.48299E-01
 54.000     135.68    0.46504E-01
 54.000     138.33    0.39762E-01
 54.000     140.53    0.35361E-01
 54.000     143.13    0.50659E-01
 54.000     144.87    0.59465E-01
 54.000     147.52    0.46963E-01
 54.000     151.92    0.43536E-01
 54.000     154.48    0.85689E-01
 54.000     156.69    0.73239E-01
 54.000     158.95    0.40448E-01
 54.000     161.22    0.18316E-01
 54.000     163.29    0.60381E-01
 54.000     165.87    0.10550
 54.000     167.62    0.10993
 54.000     170.37    0.36247E-01
 54.000     171.39    0.86866E-02
 54.000     172.56    0.34900E-01
 54.000     174.58    0.19277
 58.000     111.87    0.37440E-01
 58.000     114.46    0.49719E-01
 58.000     116.59    0.77447E-01
 58.000     119.26    0.58722E-01
 58.000     121.52    0.37915E-01
 58.000     124.18    0.32416E-01
 58.000     126.31    0.50494E-01
 58.000     128.95    0.46769E-01
 58.000     130.74    0.36868E-01
 58.000     133.40    0.31521E-01
 58.000     135.96    0.49128E-01
 58.000     137.74    0.43668E-01
 58.000     140.36    0.45608E-01
 58.000     143.12    0.21390E-01
 58.000     145.21    0.39106E-01
 58.000     146.96    0.40796E-01
 58.000     149.14    0.44323E-01
 58.000     151.94    0.15708E-01
 58.000     154.03    0.31110E-01
 58.000     156.61    0.43001E-01
 58.000     158.45    0.24608E-01
 58.000     161.20    0.11541E-01
 58.000     163.30    0.21100E-01
 58.000     165.37    0.47122E-01
 58.000     167.56    0.47257E-01
 58.000     170.32    0.21294E-01
 58.000     172.65    0.92132E-02
 58.000     174.53    0.65695E-01
 62.000     111.81    0.61881E-01
 62.000     114.46    0.55129E-01
 62.000     116.67    0.51072E-01
 62.000     121.51    0.47481E-01
 62.000     124.16    0.42300E-01
 62.000     126.37    0.39187E-01
 62.000     128.57    0.36304E-01
 62.000     131.21    0.35014E-01
 62.000     133.87    0.29980E-01
 62.000     135.65    0.25640E-01
 62.000     137.84    0.26756E-01
 62.000     140.46    0.29068E-01
 62.000     143.13    0.22095E-01
 62.000     144.88    0.23044E-01
 62.000     147.52    0.22225E-01
 62.000     149.74    0.19019E-01
 62.000     152.40    0.16284E-01
 62.000     154.59    0.16332E-01
 62.000     156.75    0.20784E-01
 62.000     158.55    0.15780E-01
 62.000     161.21    0.12985E-01
 62.000     163.48    0.84168E-02
 62.000     166.01    0.15938E-01
 62.000     167.71    0.21091E-01
 62.000     169.97    0.14800E-01
 62.000     171.55    0.29133E-02
 62.000     172.85    0.32874E-02
ENDDATA            254
ENDSUBENT          266
SUBENT        F0657003   20051207   20060315                  F023
BIB                  3          3
REACTION   (20-CA-44(A,EL)20-CA-44,,DA,,RTH)
SAMPLE     The target thickness was 2.04 mg/cm2.
STATUS     (CURVE)Fig.2
ENDBIB               3
COMMON               2          3
ANG-ERR-D  ERR-DIG
ADEG       PER-CENT
 0.3        0.2
ENDCOMMON            3
DATA                 4        190
EN         ANG-CM     DATA-CM    ERR-S
MEV        ADEG       NO-DIM     NO-DIM
 40.000     112.75    0.15826E-01
 40.000     115.09    0.15140E-01
 40.000     117.44    0.13889E-01
 40.000     120.27    0.15057E-01
 40.000     122.17    0.16339E-01
 40.000     125.01    0.18470E-01
 40.000     126.90    0.20043E-01
 40.000     129.22    0.15553E-01
 40.000     132.02    0.13116E-01
 40.000     134.36    0.11066E-01
 40.000     136.23    0.10157E-01
 40.000     139.06    0.11011E-01
 40.000     141.42    0.10984E-01
 40.000     143.74    0.88877E-02
 40.000     145.64    0.96445E-02
 40.000     148.45    0.84810E-02
 40.000     150.77    0.68624E-02
 40.000     153.06    0.43195E-020.66590E-03
 40.000     155.41    0.39628E-020.46763E-03
 40.000     157.32    0.50840E-020.78374E-03
 40.000     159.69    0.55141E-020.65069E-03
 40.000     162.04    0.52749E-020.62246E-03
 40.000     164.32    0.30537E-020.47075E-03
 40.000     166.71    0.40831E-020.48182E-03
 40.000     168.60    0.42491E-020.65504E-03
 40.000     170.90    0.27889E-020.42994E-03
 40.000     173.59    0.10618E-020.23581E-03
 40.000     175.62    0.30174E-020.46516E-03
 42.000     112.74    0.17500E-01
 42.000     114.61    0.18226E-01
 42.000     117.42    0.19782E-01
 42.000     119.76    0.20597E-01
 42.000     122.08    0.17395E-01
 42.000     124.41    0.16657E-01
 42.000     126.73    0.14669E-01
 42.000     129.05    0.11881E-01
 42.000     131.36    0.92279E-02
 42.000     133.70    0.96080E-02
 42.000     136.04    0.10004E-01
 42.000     138.38    0.10861E-01
 42.000     140.69    0.80901E-02
 42.000     143.47    0.60243E-02
 42.000     145.78    0.44873E-02
 42.000     147.65    0.48733E-02
 42.000     150.45    0.44739E-02
 42.000     152.75    0.30648E-02
 42.000     154.63    0.33285E-02
 42.000     156.99    0.48441E-02
 42.000     159.77    0.37614E-020.44293E-03
 42.000     161.62    0.30474E-020.24476E-03
 42.000     164.31    0.76415E-030.90186E-04
 42.000     166.22    0.13152E-020.15523E-03
 42.000     168.61    0.26756E-020.31577E-03
 42.000     170.93    0.22597E-020.18149E-03
 42.000     173.20    0.97675E-030.11532E-03
 42.000     175.63    0.32837E-02
 46.000     112.99    0.13847E-01
 46.000     115.32    0.12703E-01
 46.000     118.11    0.11652E-01
 46.000     120.44    0.94056E-02
 46.000     122.29    0.66821E-02
 46.000     125.07    0.45474E-02
 46.000     127.41    0.45432E-02
 46.000     129.75    0.53831E-02
 46.000     132.07    0.41640E-02
 46.000     134.39    0.33614E-02
 46.000     136.71    0.23876E-02
 46.000     139.05    0.27109E-02
 46.000     141.37    0.18452E-020.22157E-03
 46.000     143.69    0.13678E-020.16446E-03
 46.000     146.04    0.19220E-020.23079E-03
 46.000     148.87    0.33421E-02
 46.000     150.73    0.28159E-020.33859E-03
 46.000     153.00    0.85250E-030.19244E-03
 46.000     155.35    0.10101E-020.19395E-03
 46.000     157.73    0.29304E-020.24005E-03
 46.000     160.06    0.26883E-020.21976E-03
 46.000     162.38    0.18298E-020.28693E-03
 46.000     164.23    0.13566E-020.16290E-03
 46.000     167.08    0.41063E-02
 46.000     168.98    0.68447E-02
 46.000     171.29    0.42780E-020.51370E-03
 46.000     175.98    0.71229E-02
 48.000     111.85    0.94409E-02
 48.000     114.64    0.73359E-02
 48.000     116.96    0.52434E-02
 48.000     119.29    0.46204E-02
 48.000     121.62    0.40714E-02
 48.000     123.96    0.44230E-02
 48.000     126.28    0.38974E-02
 48.000     129.08    0.37336E-02
 48.000     131.41    0.31551E-02
 48.000     133.27    0.25574E-02
 48.000     136.07    0.25546E-02
 48.000     137.96    0.38800E-02
 48.000     140.28    0.28918E-02
 48.000     143.08    0.28887E-02
 48.000     145.41    0.26543E-02
 48.000     147.74    0.27653E-02
 48.000     150.08    0.27628E-02
 48.000     152.39    0.18938E-02
 48.000     154.74    0.25363E-02
 48.000     157.11    0.51631E-02
 48.000     158.97    0.47450E-02
 48.000     161.29    0.31191E-02
 48.000     164.04    0.11895E-02
 48.000     166.45    0.49337E-02
 48.000     168.34    0.78137E-02
 48.000     170.65    0.53559E-02
 48.000     175.35    0.88356E-02
 50.000     112.15    0.82777E-02
 50.000     114.87    0.64117E-02
 50.000     117.56    0.43802E-02
 50.000     119.84    0.36917E-02
 50.000     121.71    0.41739E-02
 50.000     124.95    0.45161E-02
 50.000     126.30    0.36553E-02
 50.000     129.04    0.32102E-02
 50.000     131.78    0.27038E-02
 50.000     133.59    0.22804E-02
 50.000     135.95    0.30461E-02
 50.000     138.29    0.35887E-02
 50.000     141.05    0.34270E-02
 50.000     143.35    0.32748E-02
 50.000     145.56    0.19746E-02
 50.000     147.48    0.29927E-02
 50.000     149.79    0.29821E-020.35197E-03
 50.000     152.04    0.22167E-02
 50.000     154.35    0.23034E-02
 50.000     156.76    0.39554E-02
 50.000     159.07    0.41099E-02
 50.000     161.31    0.28097E-020.33162E-03
 50.000     163.90    0.11138E-020.17174E-03
 50.000     165.96    0.34395E-020.40596E-03
 50.000     168.40    0.69831E-02
 50.000     170.67    0.56442E-020.66618E-03
 50.000     173.07    0.78562E-030.42913E-03
 50.000     174.86    0.69142E-02
 54.000     117.25    0.43189E-020.66578E-03
 54.000     119.57    0.46818E-020.37334E-03
 54.000     121.91    0.57542E-020.68207E-03
 54.000     124.17    0.41044E-020.48432E-03
 54.000     126.46    0.39243E-020.60494E-03
 54.000     131.14    0.56849E-020.67081E-03
 54.000     133.41    0.45975E-020.54250E-03
 54.000     135.72    0.47795E-020.56397E-03
 54.000     138.49    0.47621E-020.55938E-03
 54.000     140.31    0.40183E-020.47415E-03
 54.000     143.06    0.35313E-020.28356E-03
 54.000     145.38    0.39916E-020.46887E-03
 54.000     147.65    0.30957E-020.36364E-03
 54.000     149.55    0.45010E-020.69384E-03
 54.000     152.25    0.29509E-020.34663E-03
 54.000     154.57    0.30677E-020.36035E-03
 54.000     156.41    0.30603E-020.47018E-03
 54.000     158.76    0.40897E-020.32840E-03
 54.000     161.41    0.19183E-020.29571E-03
 54.000     163.68    0.15514E-020.29218E-03
 54.000     165.17    0.30253E-020.24293E-03
 54.000     167.57    0.54191E-020.43515E-03
 54.000     170.29    0.38630E-020.45377E-03
 54.000     172.90    0.14699E-020.22583E-03
 58.000     113.00    0.73163E-02
 58.000     115.32    0.79376E-02
 58.000     117.63    0.75954E-02
 58.000     119.94    0.69699E-02
 58.000     122.69    0.54076E-02
 58.000     125.03    0.66517E-02
 58.000     127.31    0.49514E-02
 58.000     129.64    0.56014E-02
 58.000     131.94    0.49295E-02
 58.000     134.23    0.41603E-020.48932E-03
 58.000     136.53    0.38177E-020.30659E-03
 58.000     139.32    0.39704E-020.46853E-03
 58.000     141.17    0.41327E-020.48931E-03
 58.000     143.45    0.29502E-02
 58.000     145.76    0.29437E-020.34737E-03
 58.000     148.54    0.29358E-020.34645E-03
 58.000     150.83    0.23762E-020.19082E-03
 58.000     152.64    0.16274E-020.19205E-03
 58.000     154.96    0.17656E-020.14251E-03
 58.000     157.27    0.16895E-020.19937E-03
 58.000     159.62    0.22597E-020.18147E-03
 58.000     161.46    0.19895E-020.23477E-03
 58.000     164.61    0.97356E-030.11489E-03
 58.000     166.52    0.15401E-020.18175E-03
 58.000     168.88    0.23355E-020.27469E-03
 58.000     171.12    0.12438E-020.23487E-03
 58.000     173.37    0.69069E-030.13043E-03
 58.000     175.81    0.19624E-020.37056E-03
ENDDATA            192
ENDSUBENT          204
SUBENT        F0657004   20051207   20060315                  F023
BIB                  3          3
REACTION   (20-CA-44(A,INL)20-CA-44,PAR,DA)
SAMPLE     The target thickness was 0.78 mg/cm2.
STATUS     (CURVE)Fig.3
ENDBIB               3
COMMON               3          3
E-LVL      ANG-ERR-D  ERR-DIG
MEV        ADEG       PER-CENT
  3.73      0.1        0.2
ENDCOMMON            3
DATA                 4        244
EN         ANG-CM     DATA-CM    ERR-S
MEV        ADEG       MB/SR      MB/SR
 40.000     113.38    0.22469
 40.000     116.18    0.22073
 40.000     118.55    0.19988
 40.000     120.94    0.24685
 40.000     123.31    0.23096
 40.000     125.89    0.21962
 40.000     128.26    0.21580
 40.000     130.64    0.20861
 40.000     132.80    0.22983
 40.000     135.39    0.23714
 40.000     137.54    0.20786
 40.000     139.91    0.19448
 40.000     141.84    0.17905
 40.000     144.65    0.18174
 40.000     146.60    0.19067
 40.000     149.19    0.19673
 40.000     151.12    0.16422
 40.000     153.48    0.14160
 40.000     155.63    0.12824
 40.000     158.24    0.15836
 40.000     160.19    0.18626
 40.000     162.36    0.21202
 40.000     164.52    0.22242    0.14064E-01
 40.000     167.34    0.23325    0.14724E-01
 40.000     169.04    0.18541    0.14537E-01
 40.000     175.79    0.31158E-010.42556E-02
 42.000     113.22    0.25431
 42.000     118.17    0.23019
 42.000     120.53    0.20219
 42.000     122.69    0.19866
 42.000     125.28    0.19827
 42.000     127.63    0.16600
 42.000     130.01    0.17665    0.10943E-01
 42.000     132.16    0.17081    0.10582E-01
 42.000     134.76    0.18174
 42.000     136.91    0.16485    0.15078E-01
 42.000     139.45    0.11950
 42.000     141.60    0.11014
 42.000     143.54    0.11175    0.69229E-02
 42.000     146.14    0.12081    0.92819E-02
 42.000     148.53    0.13274    0.82030E-02
 42.000     150.68    0.12040
 42.000     152.79    0.90147E-010.82457E-02
 42.000     155.16    0.84411E-010.39401E-02
 42.000     157.54    0.89825E-010.69011E-02
 42.000     159.52    0.11584
 42.000     161.93    0.15419    0.11823E-01
 42.000     164.11    0.17495    0.13441E-01
 42.000     166.93    0.19216    0.11875E-01
 42.000     168.63    0.16619    0.12768E-01
 42.000     170.98    0.14138    0.10841E-01
 44.000     113.11    0.21823
 44.000     115.48    0.19500
 44.000     118.06    0.17423
 44.000     120.64    0.15817
 44.000     122.79    0.14135
 44.000     125.37    0.13038
 44.000     127.74    0.12221
 44.000     129.88    0.88774E-01
 44.000     132.46    0.85896E-01
 44.000     134.83    0.76752E-01
 44.000     137.19    0.69684E-01
 44.000     139.56    0.64283E-01
 44.000     141.70    0.52208E-01
 44.000     143.64    0.47408E-01
 44.000     146.01    0.47361E-01
 44.000     148.18    0.50432E-01
 44.000     150.78    0.61972E-01
 44.000     152.95    0.70333E-01
 44.000     155.53    0.65918E-01
 44.000     157.46    0.56162E-01
 44.000     159.84    0.57007E-01
 44.000     162.26    0.10772
 44.000     164.46    0.17921
 44.000     166.65    0.26245
 44.000     168.81    0.25807
 44.000     170.94    0.19665
 44.000     173.28    0.12180
 44.000     175.42    0.95817E-01
 46.000     114.05    0.12435
 46.000     115.94    0.11131
 46.000     118.46    0.10611
 46.000     120.56    0.92033E-01
 46.000     123.29    0.68166E-01
 46.000     125.39    0.61985E-01
 46.000     127.92    0.57256E-010.59844E-02
 46.000     130.22    0.40452E-01
 46.000     134.84    0.27246E-010.20649E-02
 46.000     136.74    0.32395E-01
 46.000     139.26    0.32893E-010.20109E-02
 46.000     141.78    0.28080E-010.17166E-02
 46.000     143.68    0.25941E-010.19680E-02
 46.000     146.41    0.27182E-010.84287E-03
 46.000     148.52    0.25111E-010.15341E-02
 46.000     150.85    0.44282E-01
 46.000     153.18    0.58791E-01
 46.000     155.08    0.76838E-01
 46.000     157.60    0.66637E-01
 46.000     159.90    0.38962E-010.35177E-02
 46.000     162.24    0.74345E-01
 46.000     164.37    0.14874
 46.000     166.70    0.24241
 46.000     168.81    0.28370
 46.000     171.33    0.23099
 46.000     173.21    0.15323
 46.000     175.72    0.10325
 48.000     113.59    0.73382E-01
 48.000     116.12    0.63698E-01
 48.000     118.64    0.53581E-01
 48.000     121.17    0.39745E-01
 48.000     123.27    0.32398E-01
 48.000     128.11    0.23656E-010.21287E-02
 48.000     130.43    0.24796E-010.18739E-02
 48.000     132.74    0.28117E-010.21250E-02
 48.000     135.06    0.32900E-010.24865E-02
 48.000     137.37    0.28113E-010.17129E-02
 48.000     139.48    0.29936E-01
 48.000     140.27    0.28112E-01
 48.000     141.80    0.35028E-010.21344E-02
 48.000     144.11    0.48723E-01
 48.000     146.64    0.46475E-01
 48.000     148.74    0.42290E-01
 48.000     151.06    0.51874E-01
 48.000     155.70    0.98799E-01
 48.000     158.01    0.88500E-01
 48.000     159.90    0.59741E-01
 48.000     162.22    0.75619E-01
 48.000     164.75    0.16333
 48.000     166.86    0.26585
 48.000     169.17    0.29675
 48.000     171.49    0.25759
 48.000     173.80    0.14628
 48.000     175.91    0.88454E-01
 50.000     113.43    0.60852E-01
 50.000     116.16    0.58953E-01
 50.000     118.47    0.39269E-01
 50.000     120.77    0.30578E-01
 50.000     123.51    0.27830E-01
 50.000     125.61    0.24940E-010.18726E-02
 50.000     127.92    0.20671E-010.12513E-02
 50.000     130.45    0.24152E-01
 50.000     132.57    0.32479E-01
 50.000     134.89    0.40396E-01
 50.000     136.99    0.33483E-01
 50.000     139.51    0.31442E-01
 50.000     141.63    0.42948E-01
 50.000     143.74    0.55979E-01
 50.000     146.27    0.59559E-01
 50.000     148.37    0.50143E-01
 50.000     151.11    0.50907E-01
 50.000     153.22    0.72870E-01
 50.000     155.34    0.99535E-01
 50.000     157.86    0.87810E-01
 50.000     160.17    0.64235E-01
 50.000     162.27    0.66247E-01
 50.000     164.40    0.12173
 50.000     166.73    0.21681
 50.000     169.05    0.27390
 50.000     171.16    0.24545
 50.000     173.46    0.16097
 50.000     175.54    0.91730E-01
 54.000     113.62    0.38245E-010.34306E-02
 54.000     115.99    0.39458E-010.29724E-02
 54.000     118.57    0.27954E-010.25075E-02
 54.000     120.93    0.37641E-010.22860E-02
 54.000     122.87    0.54814E-010.33286E-02
 54.000     125.45    0.49118E-010.37003E-02
 54.000     128.25    0.42655E-010.32129E-02
 54.000     130.40    0.44704E-010.33676E-02
 54.000     132.76    0.57432E-010.34880E-02
 54.000     135.13    0.68226E-010.41435E-02
 54.000     137.28    0.58330E-010.43940E-02
 54.000     139.65    0.54783E-010.33271E-02
 54.000     142.23    0.62091E-01
 54.000     144.38    0.77310E-01
 54.000     146.53    0.83602E-01
 54.000     149.11    0.66090E-010.40142E-02
 54.000     151.04    0.61108E-01
 54.000     153.63    0.81004E-010.61020E-02
 54.000     155.99    0.10407
 54.000     158.14    0.97740E-01
 54.000     160.29    0.66065E-01
 54.000     162.66    0.64023E-01
 54.000     164.81    0.10404
 54.000     167.18    0.16906
 54.000     169.33    0.21049
 54.000     171.70    0.17441
 54.000     173.84    0.11248
 54.000     175.99    0.52204E-010.61484E-02
 58.000     114.01    0.61454E-01
 58.000     116.80    0.69692E-01
 58.000     119.38    0.74219E-01
 58.000     121.53    0.74223E-01
 58.000     124.11    0.57724E-01
 58.000     126.27    0.47804E-010.36131E-02
 58.000     128.63    0.70817E-01
 58.000     130.78    0.61479E-01
 58.000     132.93    0.54218E-01
 58.000     135.51    0.43512E-010.26515E-02
 58.000     137.88    0.65479E-01
 58.000     140.24    0.56846E-01
 58.000     142.40    0.38986E-01
 58.000     144.76    0.33845E-01
 58.000     147.13    0.50932E-01
 58.000     149.71    0.50141E-01
 58.000     151.64    0.34387E-01
 58.000     154.01    0.28034E-01
 58.000     156.16    0.41529E-01
 58.000     158.52    0.49370E-01
 58.000     160.68    0.28483E-010.25633E-02
 58.000     163.04    0.22502E-010.13712E-02
 58.000     165.19    0.31799E-010.19376E-02
 58.000     167.56    0.54264E-01
 58.000     169.92    0.66569E-01
 58.000     172.29    0.54270E-01
 58.000     174.22    0.49389E-010.30093E-02
 58.000     176.59    0.37811E-010.23039E-02
 62.000     113.68    0.82810E-01
 62.000     116.05    0.81524E-01
 62.000     118.63    0.76549E-01
 62.000     121.00    0.69646E-01
 62.000     123.36    0.74189E-01
 62.000     125.73    0.62380E-01
 62.000     127.88    0.57656E-01
 62.000     130.25    0.54137E-01
 62.000     132.40    0.46978E-01
 62.000     134.76    0.46249E-01
 62.000     136.70    0.42077E-01
 62.000     139.50    0.36514E-01
 62.000     141.43    0.31189E-01
 62.000     144.02    0.27933E-01
 62.000     146.38    0.28380E-01
 62.000     148.75    0.27072E-01
 62.000     150.90    0.20707E-010.15701E-02
 62.000     153.27    0.13316E-010.12022E-02
 62.000     155.63    0.17413E-010.10646E-02
 62.000     157.78    0.20071E-010.12270E-02
 62.000     160.15    0.18551E-010.16751E-02
 62.000     162.30    0.10189E-010.10649E-02
 62.000     164.67    0.11931E-010.10772E-02
 62.000     167.03    0.18852E-010.14293E-02
 62.000     169.18    0.26257E-010.19912E-02
 62.000     171.11    0.25046E-01
 62.000     173.91    0.15607E-010.16314E-02
ENDDATA            246
ENDSUBENT          258
ENDENTRY             4
