ENTRY            A0082   20240714   20241028   20241028       A115
SUBENT        A0082001   20240714   20241028   20241028       A115
BIB                 11         24
TITLE      Near-threshold anomaly in the reaction 7Li(t,9Li)1H
AUTHOR     (S.N.Abramovich,B.Ja.Guzhovskii,A.G.Zvenigorodskii,
           S.V.Trusillo)
REFERENCE  (J,SNP,30,665,1979) English translation
           (J,YF,30,1276,1979) Main reference
INSTITUTE  (4RUSEPA)
FACILITY   (VDGT,4RUSEPA)
SAMPLE     (3-LI-7,ENR=0.9998) Enriched metallic Li-7,
           enrichment 99.98%, thickness 140. ug/cm2 on tantalum
           backing thickness 0.03 cm.
METHOD     (BCINT,SITA)
ERR-ANALYS (DATA-ERR) No information about source of uncertainty
REL-REF    (N,,S.N.Abramovich,J,YF,32,402,1980) Theory
            J,SNP,32,208,1980 Theory-English translation
STATUS     (TABLE,,S.N.Abramovich+,J,SNP,30,665,1979) Fig.3
           (APRVD) By S.N.Abramovich,19801030.
HISTORY    (19800428R)
           (19800718C)
           (19811110A)
           (20080618A) BIB section updated
            Corrections were made according to new EXFOR rules.
           (20120327A) English translation of 'YF' was added
           (20240714A) SD: Corrections in all Subents.
           Subent 003 was split.
ENDBIB              24
NOCOMMON             0          0
ENDSUBENT           27
SUBENT        A0082002   20240714   20241028   20241028       A115
BIB                  6          9
REACTION   (3-LI-7(T,P)3-LI-9,,SIG,,REL)
            No information about relative units is given
DECAY-DATA (3-LI-9,0.176SEC,B-)
DETECTOR   (SCIN) Plastic scintillator of diameter 40 mm and
           thickness 50 mm, was placed at an angle of 120. degr.
           to the beam direction.
ADD-RES    (COMP)
MISC-COL   (MISC) Number of measurements at the same energy.
HISTORY    (20240714U) SD: BIB updated.
ENDBIB               9
COMMON               1          3
DATA-ERR
PER-CENT
    0.5
ENDCOMMON            3
DATA                 3         99
EN         DATA       MISC
MEV        ARB-UNITS  SEE TEXT
    5.4264    41.858
    5.4264    42.578
    5.4361    41.904
    5.4441    41.890
    5.4529    41.684
    5.4617    41.921
    5.4697    41.728
    5.4795    41.851
    5.4874    41.929
    5.4972    41.824
    5.5070    41.870
    5.5168    42.042
    5.5248    42.203
    5.5346    41.773
    5.5444    41.372
    5.5542    41.456
    5.5631    40.670
    5.5658    40.809
    5.5703    40.162
    5.5739    39.989
    5.5774    39.447
    5.5801    39.421
    5.5837    39.345
    5.5873    39.558
    5.5900    39.012      1.
    5.5900    38.938      2.
    5.5900    39.021      3.
    5.5900    39.420      4.
    5.5936    38.927
    5.5971    38.832
    5.6007    38.967
    5.6043    39.110
    5.6079    38.752
    5.6115    38.481
    5.6151    38.660
    5.6178    38.430
    5.6223    38.371
    5.6250    38.262
    5.6295    37.534
    5.6322    37.837      1.
    5.6322    38.063      2.
    5.6348    37.990
    5.6384    37.655
    5.6420    36.478
    5.6456    36.957
    5.6492    36.250
    5.6528    35.727
    5.6547    35.922
    5.6574    35.823
    5.6601    34.790
    5.6637    34.594
    5.6664    34.171
    5.6691    33.244      1.
    5.6691    33.169      2.
    5.6691    33.231      3.
    5.6718    33.087      1.
    5.6718    32.820      2.
    5.6718    33.231      3.
    5.6754    32.887      1.
    5.6754    32.734      2.
    5.6790    32.140      1.
    5.6790    32.448      2.
    5.6817    32.308      1.
    5.6817    32.384      2.
    5.6844    32.189      1.
    5.6844    32.057      2.
    5.6871    32.318      1.
    5.6871    32.196      2.
    5.6898    32.354      1.
    5.6898    32.506      2.
    5.6935    32.616
    5.6963    32.453
    5.6989    32.606
    5.7016    32.928
    5.7043    32.868
    5.7070    33.062
    5.7115    33.476
    5.7143    33.439
    5.7170    33.468
    5.7206    33.720
    5.7242    33.930
    5.7269    33.910
    5.7306    34.195
    5.7333    33.612
    5.7369    34.147      1.
    5.7369    33.886      2.
    5.7369    34.133      3.
    5.7405    33.988
    5.7442    34.297
    5.7469    33.982
    5.7514    34.632
    5.7542    34.303
    5.7551    34.279
    5.7614    34.668
    5.7651    34.803
    5.8116    35.482
    5.8793    35.905
    5.9484    36.726
    6.0579    37.372
ENDDATA            101
ENDSUBENT          119
SUBENT        A0082003   20240714   20241028   20241028       A115
BIB                  6         16
REACTION   ((3-LI-7(T,N)4-BE-9,PAR,DA,,REL)+
           (3-LI-7(T,2N+A)2-HE-4,,DA,N,REL))
            No information about relative units is given
DETECTOR   (LONGC) At an angle of 90. degr. to the beam
           direction was placed a standard all-wavelength
           neutron detector.
           (BF3) BF3 proportional counter placed inside a hollow
           paraffin cylinder of diameter 80 mm, height 80 mm,
           and wall thickness 20 mm.
           (THRES)
ADD-RES    (COMP)
MISC-COL   (MISC) Number of measurements at the same energy.
COMMENT     (by author) These reactions (n,t) were studied
           simultaneously.
HISTORY    (20240714A) SD: Subent was split. SF7=N added to
           REACTION code. E-LVL -> E-EXC-MAX.
ENDBIB              16
COMMON               3          3
E-EXC-MAX  ANG        DATA-ERR
MEV        ADEG       PER-CENT
       14.4        90.         1.
ENDCOMMON            3
DATA                 3         99
EN         DATA       MISC
MEV        ARB-UNITS  SEE TEXT
     5.4264     20.506
     5.4264     20.347
     5.4361     20.499
     5.4441     20.202
     5.4529     20.432
     5.4617     20.286
     5.4697     20.366
     5.4795     20.417
     5.4874     20.440
     5.4972     20.504
     5.5070     20.416
     5.5168     20.132
     5.5248     20.779
     5.5346     20.661
     5.5444     20.580
     5.5542     20.507
     5.5631     20.953
     5.5658     20.868
     5.5703     20.721
     5.5739     20.785
     5.5774     20.630
     5.5801     20.225
     5.5837     20.741
     5.5873     20.528
     5.5900     20.477         1.
     5.5900     20.444         2.
     5.5900     20.608         3.
     5.5900     21.365         4.
     5.5936     20.909
     5.5971     21.042
     5.6007     20.540
     5.6043     20.770
     5.6079     21.121
     5.6115     20.792
     5.6151     20.827
     5.6178     20.731
     5.6223     20.816
     5.6250     20.675
     5.6295     20.813
     5.6322     20.332         1.
     5.6322     20.748         2.
     5.6348     20.798
     5.6384     20.737
     5.6420     20.836
     5.6456     20.767
     5.6492     20.642
     5.6528     20.588
     5.6547     20.813
     5.6574     20.877
     5.6601     20.773
     5.6637     20.819
     5.6664     20.928
     5.6691     20.820         1.
     5.6691     20.665         2.
     5.6691     20.909         3.
     5.6718     20.885         1.
     5.6718     20.764         2.
     5.6718     21.007         3.
     5.6754     20.771         1.
     5.6754     20.881         2.
     5.6790     20.818         1.
     5.6790     20.891         2.
     5.6817     21.272         1.
     5.6817     20.510         2.
     5.6844     21.041         1.
     5.6844     21.035         2.
     5.6871     20.912         1.
     5.6871     20.665         2.
     5.6898     21.098         1.
     5.6898     20.948         2.
     5.6935     21.009
     5.6963     20.899
     5.6989     20.787
     5.7016     20.720
     5.7043     20.600
     5.7070     20.686
     5.7115     20.833
     5.7143     20.831
     5.7170     20.816
     5.7206     20.637
     5.7242     20.659
     5.7269     20.572
     5.7306     20.569
     5.7333     21.075
     5.7369     20.922         1.
     5.7369     20.584         2.
     5.7369     20.519         3.
     5.7405     20.220
     5.7442     20.350
     5.7469     20.565
     5.7514     20.605
     5.7542     20.683
     5.7551     20.330
     5.7614     20.660
     5.7651     20.621
     5.8116     20.981
     5.8793     20.448
     5.9484     20.254
     6.0579     20.022
ENDDATA            101
ENDSUBENT          126
SUBENT        A0082004   20240714   20241028   20241028       A115
BIB                  9         13
REACTION   (3-LI-7(T,A)2-HE-6,,SIG,,REL)
            No information about relative units is given
METHOD     (SITA,BCINT,EXTB)
RAD-DET    (2-HE-6,B-)
DECAY-DATA (2-HE-6,0.8081SEC,B-,3500.)
MISC-COL   (MISC) Number of measurements at the same energy.
DETECTOR   (BF3) BF3 proportional counter placed inside a hollow
           paraffin cylinder of diameter 80 mm, height 80 mm,
           and wall thickness 20 mm.
COMMENT    *By author*. Influence of Li-9 was very small.
REL-REF    (N,,S.N.Abramovich+,J,PJS,,(2),256,1976).Details of
           method.
HISTORY    (20240714A) SD: BIB updated.
ENDBIB              13
COMMON               1          3
DATA-ERR
PER-CENT
    1.5
ENDCOMMON            3
DATA                 3         83
EN         DATA       MISC
MEV        ARB-UNITS  SEE TEXT
    5.4255     6.308
    5.4538     6.424
    5.4600     6.629
    5.4653     6.514
    5.4701     6.446
    5.4768     6.418
    5.4830     6.589
    5.4883     6.497
    5.4946     6.383
    5.4999     6.572
    5.5052     6.385
    5.5114     6.472
    5.5123     6.368
    5.5150     6.426
    5.5221     6.702
    5.5275     6.332
    5.5328     6.847
    5.5390     6.424
    5.5453     6.492
    5.5524     6.497
    5.5587     6.540
    5.5640     6.596
    5.5694     6.210
    5.5766     6.419
    5.5819     6.339
    5.5864     6.615      1.
    5.5864     6.343      2.
    5.5927     6.255
    5.5989     6.274
    5.6106     6.393
    5.6115     6.273
    5.6187     6.296
    5.6241     6.273
    5.6295     6.340
    5.6362     6.246
    5.6429     6.240
    5.6492     6.407
    5.6547     6.677
    5.6619     6.148
    5.6682     6.515
    5.6737     6.205
    5.6799     6.225      1.
    5.6799     6.298      2.
    5.6799     6.361      3.
    5.6799     6.432      4.
    5.6871     6.075
    5.6925     6.032
    5.6989     6.558
    5.7061     6.366
    5.7115     6.122
    5.7188     6.080
    5.7242     6.376
    5.7306     6.104
    5.7369     6.397
    5.7451     6.332
    5.7505     5.945
    5.7569     6.304
    5.7642     5.690
    5.7705     6.422
    5.7760     6.224
    5.7833     6.236
    5.7897     6.246
    5.7951     6.763
    5.8033     5.759
    5.8097     6.081
    5.8161     6.111
    5.8253     6.126
    5.8298     6.140
    5.8362     6.402
    5.8436     5.924
    5.8500     6.012
    5.8555     6.376
    5.8610     6.109
    5.8683     6.263
    5.8757     6.113
    5.8812     5.886
    5.8885     5.667
    5.8986     6.282
    5.9152     6.529
    5.9226     5.983
    5.9290     6.423
    5.9503     6.046
    5.9836     6.335
ENDDATA             85
ENDSUBENT          107
SUBENT        A0082005   20240714   20241028   20241028       A115
BIB                  5         10
REACTION   (3-LI-7(T,X)0-NN-1,,DA,,REL)
            No information about relative units is given
DETECTOR   (LONGC) At an angle of 90. degr. to the beam
           direction was placed a standard all-wavelength
           neutron detector.
           (THRES)
MISC-COL   (MISC) Number of measurements at the same energy.
COMMENT     (by author) These reactions (n,t) were studied
           simultaneously.
HISTORY    (20240714T) SD: Part of Subent 002.
ENDBIB              10
COMMON               2          3
ANG        DATA-ERR
ADEG       PER-CENT
         0.        0.5
ENDCOMMON            3
DATA                 3         99
EN         DATA       MISC
MEV        ARB-UNITS  SEE TEXT
     5.4264     40.547
     5.4264     40.314
     5.4361     40.478
     5.4441     40.474
     5.4529     40.686
     5.4617     40.682
     5.4697     40.576
     5.4795     40.318
     5.4874     40.918
     5.4972     40.575
     5.5070     40.471
     5.5168     40.668
     5.5248     40.508
     5.5346     40.772
     5.5444     40.620
     5.5542     40.462
     5.5631     41.021
     5.5658     41.020
     5.5703     50.757
     5.5739     40.765
     5.5774     40.408
     5.5801     40.517
     5.5837     40.699
     5.5873     40.607
     5.5900     40.332         1.
     5.5900     40.151         2.
     5.5900     41.307         3.
     5.5900     41.316         4.
     5.5936     40.995
     5.5971     40.739
     5.6007     40.812
     5.6043     41.337
     5.6079     41.130
     5.6115     40.839
     5.6151     41.156
     5.6178     40.853
     5.6223     41.414
     5.6250     40.865
     5.6295     40.963
     5.6322     41.623         1.
     5.6322     41.003         2.
     5.6348     41.080
     5.6384     40.950
     5.6420     41.529
     5.6456     41.343
     5.6492     41.392
     5.6528     41.374
     5.6547     41.199
     5.6574     41.501
     5.6601     41.115
     5.6637     41.357
     5.6664     42.437
     5.6691     43.841         1.
     5.6691     43.104         2.
     5.6691     44.287         3.
     5.6718     44.876         1.
     5.6718     44.691         2.
     5.6718     44.345         3.
     5.6754     45.713         1.
     5.6754     45.434         2.
     5.6790     46.467         1.
     5.6790     46.201         2.
     5.6817     41.170         1.
     5.6817     46.649         2.
     5.6844     46.971         1.
     5.6844     47.161         2.
     5.6871     47.864         1.
     5.6871     47.485         2.
     5.6898     47.757         1.
     5.6898     47.621         2.
     5.6935     47.660
     5.6963     46.828
     5.6989     46.894
     5.7016     46.501
     5.7043     45.715
     5.7070     44.981
     5.7115     44.745
     5.7143     44.568
     5.7170     44.196
     5.7206     43.575
     5.7242     43.713
     5.7269     43.925
     5.7306     43.683
     5.7333     43.516
     5.7369     43.682         1.
     5.7369     42.701         2.
     5.7369     42.850         3.
     5.7405     42.102
     5.7442     42.727
     5.7469     42.188
     5.7514     42.627
     5.7542     42.492
     5.7551     42.314
     5.7614     42.170
     5.7651     42.228
     5.8116     42.106
     5.8793     42.055
     5.9484     41.298
     6.0579     40.926
ENDDATA            101
ENDSUBENT          120
ENDENTRY             5
