ENTRY            20804   20090315   20090508   20090507       2208
SUBENT        20804001   20090315   20090508   20090507       2208
BIB                 12         29
INSTITUTE  (2GERMUN) D.Rabenstein, D.Harrach, H.Vonach.
           (3ARGCNE) G.G.Dussel, R.P.I.Perazzo.
REFERENCE  (J,NP/A,197,129,197212) Final publication.
           (J,NP/A,242,189,197504) Complementary results.
           (P,EANDC(E)-127,197004) Abstract.
           (P,EANDC(E)-150,37,197210) Progress report.
AUTHOR     (D.Rabenstein, D.Harrach, H.Vonach, G.G.Dussel,
            R.P.I.Perazzo)
TITLE      -In-116 level scheme and P-N configurations-.
FACILITY   (REAC,2GERMUN) FRM research reactor, Munich.
INC-SOURCE (REAC )
INC-SPECT   Thermal neutrons with a flux of 10**6/cm*2
SAMPLE     .Natural indium of purity 99.999 percent, and
            In-115 enriched to 99.99 percent in the form of
            In2O3 powder in a polyethylene container.
METHOD     (COINC) Singles and coincidence measurements of prompt
            gamma spectrum.
COMMENT    .Transitions in Sn-116 from the decay of In-116
            were recognised by the energies and intensities
            given in ZP,240,244,70.
            Energies and intensities are given for two energy
            ranges. Low energies 22 to 1000 KeV, and high
            energies 4.5 to 6.6 MeV. In the range 1 to 4 MeV
            the line density is high and there are no prominent
            lines except for In-116 beta decay.
STATUS     .Final publication.
HISTORY    (19781212C)
           (19790219E)
           (20090315U) Last checking has been done.
ENDBIB              29
COMMON               1          3
EN-DUMMY
EV
   2.53E-02
ENDCOMMON            3
ENDSUBENT           36
SUBENT        20804002   20090315   20090508   20090507       2208
BIB                  8         22
REACTION   (49-IN-115(N,G)49-IN-116,,SPC,,MXW) Thermal
            capture gamma spectrum.
MONITOR    (49-IN-115(N,G)49-IN-116,,SPC,,MXW)
            Intensities are normalised to the 162KeV line
            for which an absolute intensity of 147+-17 gammas
            per 1000 neutron captures is derived from the
            measured isomeric cross section ratio, K-conversion
            ratio, and K/lm ratio.
DETECTOR   (GELI ) High resolution planar detector (400 eV fwhm
            at 60KeV), and a 25cm-3 5 sided Ge(Li) detector.
COMMENT    .Low energy spectrum.
STATUS     (TABLE) .Table 2 in text. NP/A,197,129,7212.
HISTORY    (19781212C)
           (19790219E)
           (20090315U) Last checking has been done.
CORRECTION .Non linearity correction from a precision Hg pulser.
ERR-ANALYS .Only one standard deviation in relative quantities
            is given. For absolute intensities the systematic
            calibration error must be included.
            The energy calibration is from the 121.97+-0.03KeV
            line of Co-57 and the 661.635+-0.076KeV line of
            Cs-137.
ENDBIB              22
COMMON               3          3
E-NRM      MONIT      MONIT-ERR
KEV        PC/REAC    PC/REAC
  162.39      14.7        1.7
ENDCOMMON            3
DATA                 4        212
E          E-ERR      DATA       DATA-ERR
KEV        EV         PC/REAC    PC/REAC
      22.78       0.05        4.5        1.5
      42.15       0.05       0.13       0.03
      45.00       0.05       0.11       0.03
      53.83       0.10       0.03       0.02
      60.92       0.05       13.5         4.
      76.75       0.05       0.28       0.04
      82.32       0.05        0.1       0.02
      85.58       0.04       15.7        1.1
      90.15       0.05      0.038      0.015
      95.41       0.08        0.6        0.2
      96.05       0.02       17.9        1.1
      99.50       0.10       0.11       0.02
     101.14       0.10       0.06       0.03
     101.14       0.10       0.11       0.05
      108.3        0.2      0.015       0.01
     110.78       0.05       0.17       0.02
     112.00       0.10       0.14       0.05
     112.46       0.05        0.7       0.07
     115.00       0.04        0.3       0.03
    126.370      0.002       2.47       0.12
     133.24       0.08       0.09       0.03
      136.3        0.2       0.02       0.01
     140.46       0.04       1.23       0.20
     141.17       0.04       1.37       0.20
     143.55       0.10       0.02       0.01
     146.57       0.05       0.12       0.02
     149.70       0.04       0.40       0.03
     155.27       0.02       1.42       0.20
     157.01       0.05       0.13       0.02
     159.93       0.04        0.3       0.05
     163.81       0.04       0.22       0.05
     171.08       0.03       1.74       0.15
     173.84       0.04        2.2        0.3
     175.10       0.06        0.5       0.06
     176.84       0.05       0.19       0.03
     180.93       0.06       0.10       0.02
     186.21       0.02       13.8        1.1
     193.50       0.10       0.06       0.03
     196.71       0.03        0.4       0.05
     201.89       0.10       0.17       0.05
     202.58       0.05       1.03       0.11
     208.89       0.06       0.18       0.04
     213.64       0.05       0.36       0.05
     216.51       0.05       0.31       0.05
     217.90       0.10       0.05       0.03
     222.59       0.09       0.06       0.03
     225.47       0.10       0.06       0.03
     230.26       0.09       0.06       0.03
     234.62       0.05       0.43       0.13
     235.28       0.04       1.91       0.16
     240.26       0.07       0.17       0.03
     243.35       0.15       0.07       0.02
     246.09       0.08       0.14       0.03
     252.65       0.10       0.06       0.02
      262.2       0.15       0.24       0.05
     267.92       0.08       0.24       0.06
     272.96       0.02       20.4        1.0
     282.79       0.10       0.11       0.04
     284.86       0.04       2.68       0.15
      290.9       0.04       1.56       0.08
     293.19       0.15       0.25       0.08
     293.67       0.04       0.60       0.10
     295.47       0.03       1.79       0.11
     298.66       0.02        5.9        0.3
      299.5       0.05       0.13       0.08
     300.25       0.15       0.32       0.08
     303.75       0.30       0.07       0.02
     305.14       0.05       0.60       0.05
     314.89       0.10       0.42       0.04
     318.45       0.13       0.31       0.06
     319.32       0.13       0.27       0.10
     320.95       0.10       0.91       0.11
     321.71       0.12        0.4       0.16
     331.62       0.20       0.25       0.05
     335.40       0.04        5.9        0.4
     337.68       0.04       1.56       0.16
     339.26       0.10       0.29       0.05
     349.64       0.10       0.17       0.04
     358.93       0.20       0.19       0.04
     365.10       0.09       0.33       0.05
     368.61       0.20       0.08       0.04
      370.3        0.4       0.05       0.03
      372.9        0.2       0.27       0.05
     374.65       0.20       0.35       0.10
     375.97       0.08       1.66       0.16
     379.61       0.10       0.62       0.06
     384.47       0.08        1.8        0.4
     385.08       0.04        5.8        0.6
     387.54       0.45       0.05       0.03
     393.12       0.12       0.25       0.03
     394.71       0.30       0.15       0.03
     396.40       0.10       0.23       0.03
     402.33       0.29       0.06       0.03
     410.51       0.12       0.46       0.13
     422.17       0.07       0.88       0.06
    433.705      0.035       3.54       0.16
     435.97       0.30       0.18       0.05
     443.14       0.08       0.27       0.06
     448.22       0.25       0.14       0.04
     449.54       0.35       0.11       0.04
     452.59       0.18       0.13       0.03
     458.61       0.14       0.35       0.13
     465.40       0.11       0.35       0.05
     468.41       0.17       0.18       0.04
     471.87       0.05       2.52       0.13
     474.42       0.17       0.41       0.08
     475.87       0.15        0.9       0.16
     476.93       0.25       0.38       0.16
     485.57       0.17       0.26       0.04
     490.03       0.30       0.49       0.05
     492.47       0.05       1.77       0.13
     497.64       0.09       0.27       0.05
     515.74       0.15       0.46       0.05
    518.047      0.055       1.75       0.11
     521.72       0.07       1.17       0.11
     524.27       0.50       0.15       0.06
     540.42       0.13       0.38       0.05
     545.48       0.40       0.25       0.04
     548.72       0.07       1.16       0.11
      553.0        0.5       0.19       0.04
     556.71       0.15        2.1        0.5
      560.2       0.18       0.14       0.13
     563.76       0.32       0.27       0.08
     565.03       0.40       0.20       0.10
     567.64       0.10       0.56       0.06
     573.74       0.27       0.17       0.03
     576.21       0.40       0.27       0.13
     577.68       0.12       1.07       0.13
     586.36       0.23       0.17       0.03
     589.40       0.20       0.26       0.04
     592.88       0.18       0.28       0.04
     596.63       0.19       0.32       0.05
     599.46       0.37       0.14       0.03
     602.41       0.15        1.6        0.2
     605.22       0.15       0.32       0.05
     608.35       0.19       1.88       0.27
     617.86       0.35       0.12       0.03
     622.51        0.3       0.35       0.05
     632.10       0.13       0.80       0.16
     634.00       0.10       0.77       0.16
     645.62       0.24       0.24       0.04
     647.98       0.17       0.53       0.07
     654.92       0.20       0.30       0.04
     657.43       0.16       0.72       0.06
     662.16       0.25       0.13       0.03
     669.81       0.41       0.11       0.03
     672.22       0.57       0.07       0.03
      679.6        0.5       0.06       0.02
     685.49       0.27       0.13       0.03
     693.38       0.16       0.73       0.11
     703.01       0.28       0.14       0.03
     706.22       0.25       0.24       0.04
     711.27       0.22       0.30       0.05
     713.78       0.26       0.32       0.05
     717.14       0.31       0.39       0.10
     718.96       0.21       0.68       0.14
     730.85       0.16       0.84       0.13
     737.16       0.26       0.14       0.04
     744.50       0.23       0.40       0.08
      747.3        0.8       0.26       0.08
     749.62       0.20       0.83       0.17
     758.89       0.17       0.60       0.12
     764.54       0.16       0.88       0.11
     771.00       0.16       0.73       0.10
     779.18       0.19       0.40       0.05
     782.71       0.24       0.22       0.04
     788.44       0.21       0.26       0.04
     791.51       0.60       0.67       0.07
     796.40       0.17       0.44       0.05
     801.15       0.20       0.46       0.06
      808.6        0.1       0.27       0.10
     814.07       0.27       0.52       0.12
      819.5        0.2        0.5        0.2
     822.63       0.29       0.59       0.16
      827.7        0.7       0.06       0.03
     830.82       0.50       0.11       0.04
     837.01       0.23        0.2       0.04
     844.24       0.24       0.25       0.04
     847.53       0.16       1.05       0.15
     852.30       0.19       0.31       0.05
     859.26       0.20       0.26       0.04
     874.31       0.25       0.24       0.05
     877.18       0.34       0.16       0.05
     885.06       0.17       0.54       0.07
     896.06       0.46       0.12       0.05
     903.70       0.20       0.64       0.06
     910.79       0.26       0.15       0.03
     915.32       0.17       0.46       0.05
     925.29       0.18       0.37       0.04
     930.60       0.24       0.23       0.04
     934.11       0.17       0.54       0.06
     939.60       0.18       0.39       0.05
     944.27       0.16       1.04       0.12
     947.69       0.18       0.55       0.06
     956.29       0.38       0.09       0.03
     963.11        0.2       0.49       0.06
     965.66       0.34       0.27       0.05
     968.94        0.2       0.43       0.05
     972.52       0.16       0.90       0.10
      982.7        0.5       0.11       0.04
     986.04       0.45       0.13       0.04
     992.10       0.17       0.56       0.06
     997.70       0.31       0.16       0.03
    1001.51       0.33       0.15       0.03
    1019.50       0.36       0.15       0.03
    1023.37       0.25       0.52       0.08
    1025.99       0.31       0.33       0.07
    1030.54       0.26       0.22       0.04
    1039.55       0.20       0.36       0.04
    1047.66       0.31       0.12       0.04
    1053.24       0.33       0.13       0.04
    1077.09       0.16       0.86       0.12
ENDDATA            214
ENDSUBENT          245
SUBENT        20804003     840208              20050926       0000
BIB                  8         19
REACTION   (49-IN-115(N,G)49-IN-116,,SPC,,MXW/REL) CAPTURE
            GAMMA SPECTRUM.
            ADOPTED VALUE OF 8.6 GAMMAS PER 1000 NEUTRON
            CAPTURES AS THE ABSOLUTE INTENSITY OF THE 5891KEV
            LINE IN IN-116.
DETECTOR   (GELI ) THREE CRYSTAL PAIR SPECTROMETER.
MONITOR    (82-PB-0(N,G),,SPC)
           (1-H-1(N,G)1-H-2,,SPC)
            ENERGY CALIBRATION FROM THE 7367.73+-0.5KEV LINE
            FROM CAPTURE IN LEAD AND THE 2223.29+-0.07KEV LINE
            FROM NEUTRON CAPTURE IN H.
COMMENT    .HIGH ENERGY TRANSITIONS. 4.5 TO 6.6 MEV.
STATUS     .TABLE 1, NP/A,197,129,7212.
HISTORY    (781212C)
           (790219E)
CORRECTION .NO DETAILS.
ERR-ANALYS .ONLY RELATIVE ERRORS IN INTENSITY ARE GIVEN. THE
            ADDITIONAL SYSTEMATIC CALIBRATION ERROR SHOULD BE
            LESS THAN 15 PERCENT.
ENDBIB              19
NOCOMMON             0          0
DATA                 4         92
E          E-ERR      DATA       DATA-ERR
KEV        KEV        GAM/100N   PER-CENT
 4.5786E+03 9.0000E-01 2.7000E+00 4.2000E+01
 4.5884E+03 9.0000E-01 1.8500E+00 2.9000E+01
 4.5970E+03 9.0000E-01 2.0200E+00 3.2000E+01
 4.6100E+03 1.1000E+00 8.6000E-01 2.0000E+01
 4.6160E+03 1.2000E+00 7.6000E-01 1.8000E+01
 4.6240E+03 1.0000E+00 1.1900E+00 2.1000E+01
 4.6358E+03 1.2000E+00 3.7000E-01 1.4000E+01
 4.6517E+03 9.0000E-01 2.1100E+00 3.1000E+01
 4.6614E+03 1.4000E+00 7.7000E-01 3.3000E+01
 4.6653E+03 1.5000E+00 6.7000E-01 3.3000E+01
 4.6753E+03 9.0000E-01 1.4200E+00 2.2000E+01
 4.6828E+03 9.0000E-01 1.2000E+00 1.9000E+01
 4.6990E+03 9.0000E-01 2.1400E+00 3.1000E+01
 4.7066E+03 1.1000E+00 4.0000E-01 1.0000E+01
 4.7235E+03 1.0000E+00 6.3000E-01 1.3000E+01
 4.7345E+03 1.1000E+00 5.9000E-01 1.3000E+01
 4.7425E+03 9.0000E-01 2.2600E+00 3.4000E+01
 4.7645E+03 9.0000E-01 1.3600E+00 2.1000E+01
 4.7740E+03 9.0000E-01 3.7400E+00 5.4000E+01
 4.8070E+03 9.0000E-01 1.5800E+00 2.4000E+01
 4.8218E+03 9.0000E-01 1.1500E+00 1.8000E+01
 4.8494E+03 1.0000E+00 1.2300E+00 2.4000E+01
 4.8620E+03 1.2000E+00 6.9000E-01 1.7000E+01
 4.8684E+03 9.0000E-01 3.2000E+00 6.0000E+01
 4.8774E+03 1.0000E+00 8.9000E-01 1.9000E+01
 4.8923E+03 1.1000E+00 6.4000E-01 1.6000E+01
 4.8989E+03 1.1000E+00 8.4000E-01 1.9000E+01
 4.9085E+03 1.0000E+00 2.0800E+00 4.1000E+01
 4.9146E+03 1.0000E+00 2.4500E+00 4.7000E+01
 4.9246E+03 1.0000E+00 8.4000E-01 1.8000E+01
 4.9551E+03 1.0000E+00 1.4900E+00 2.9000E+01
 4.9625E+03 1.0000E+00 1.6200E+00 3.3000E+01
 4.9688E+03 1.0000E+00 4.1300E+00 7.8000E+01
 4.9852E+03 1.1000E+00 5.8000E-01 1.3000E+01
 4.9971E+03 1.1000E+00 7.9000E-01 1.7000E+01
 5.0046E+03 1.0000E+00 2.6000E+00 4.9000E+01
 5.0147E+03 1.0000E+00 8.0000E-01 1.6000E+01
 5.0317E+03 1.0000E+00 1.2800E+00 2.5000E+01
 5.0476E+03 1.1000E+00 4.0000E-01 1.0000E+01
 5.0810E+03 1.1000E+00 7.7000E-01 1.7000E+01
 5.0881E+03 1.6000E+00 2.8000E-01 1.0000E+01
 5.1022E+03 1.0000E+00 7.1000E+00 1.3000E+02
 5.1118E+03 1.6000E+00 4.2000E-01 1.2000E+01
 5.1187E+03 1.1000E+00 1.0000E+00 2.1000E+01
 5.1370E+03 1.1000E+00 2.0300E+00 6.0000E+01
 5.1410E+03 1.1000E+00 3.4800E+00 8.0000E+01
 5.1715E+03 1.0000E+00 4.3600E+00 8.0000E+01
 5.1896E+03 1.2000E+00 3.6000E-01 9.0000E+00
 5.2135E+03 1.3000E+00 2.1000E-01 6.0000E+00
 5.2402E+03 2.0000E+00 2.7000E-01 1.5000E+01
 5.2453E+03 1.1000E+00 1.2700E+00 2.7000E+01
 5.2527E+03 1.4000E+00 3.0000E-01 9.0000E+00
 5.2876E+03 1.3000E+00 3.1000E-01 9.0000E+00
 5.2962E+03 1.1000E+00 5.5000E-01 1.3000E+01
 5.3182E+03 1.1000E+00 1.6200E+00 3.1000E+01
 5.3325E+03 1.1000E+00 3.8000E+00 7.0000E+01
 5.3463E+03 1.1000E+00 1.8500E+00 3.5000E+01
 5.3577E+03 1.1000E+00 2.1800E+00 4.0000E+01
 5.3843E+03 1.4000E+00 2.3000E-01 7.0000E+00
 5.4098E+03 1.1000E+00 2.5200E+00 4.7000E+01
 5.4425E+03 1.1000E+00 4.6000E-01 1.0000E+01
 5.4809E+03 1.1000E+00 1.0200E+00 1.9000E+01
 5.4983E+03 1.1000E+00 1.5100E+00 2.8000E+01
 5.5251E+03 1.2000E+00 5.1000E-01 1.1000E+01
 5.5321E+03 2.0000E+00 1.1000E-01 5.0000E+00
 5.5707E+03 1.1000E+00 8.6000E-01 1.7000E+01
 5.5796E+03 1.1000E+00 1.3000E+00 2.5000E+01
 5.5963E+03 1.6000E+00 1.0000E-01 4.0000E+00
 5.6173E+03 1.4000E+00 1.4000E-01 4.0000E+00
 5.6625E+03 1.4000E+00 1.5000E-01 5.0000E+00
 5.6889E+03 1.9000E+00 1.0000E-01 5.0000E+00
 5.7031E+03 1.6000E+00 1.6000E-01 5.0000E+00
 5.7131E+03 1.3000E+00 3.0000E-01 7.0000E+00
 5.7311E+03 1.2000E+00 5.7000E-01 1.2000E+01
 5.7528E+03 1.2000E+00 5.7000E-01 1.2000E+01
 5.7686E+03 1.2000E+00 1.4300E+00 2.8000E+01
 5.7762E+03 1.3000E+00 6.1000E-01 1.4000E+01
 5.8068E+03 3.5000E+00 7.0000E-02 7.0000E+00
 5.8119E+03 1.3000E+00 6.3000E-01 1.5000E+01
 5.8346E+03 1.2000E+00 4.3000E-01 9.0000E+00
 5.8913E+03 1.2000E+00 8.6000E+00 1.6000E+02
 5.9942E+03 1.3000E+00 1.6000E-01 5.0000E+00
 6.0485E+03 1.3000E+00 4.5000E-01 1.0000E+01
 6.1253E+03 1.3000E+00 1.7000E-01 4.0000E+00
 6.1347E+03 1.3000E+00 5.5000E-01 1.1000E+01
 6.2286E+03 1.4000E+00 5.2000E-01 1.1000E+01
 6.2774E+03 2.4000E+00 4.0000E-02 2.0000E+00
 6.3249E+03 1.4000E+00 7.1000E-01 1.5000E+01
 6.4104E+03 1.4000E+00 9.2000E-01 2.0000E+01
 6.4699E+03 1.7000E+00 7.0000E-02 2.0000E+00
 6.5594E+03 1.5000E+00 1.6000E-01 4.0000E+00
 6.6563E+03 1.5000E+00 1.7000E-01 5.0000E+00
ENDDATA             94
ENDSUBENT          118
ENDENTRY             3
