ENTRY            20864   20200925   20210105   20210104       2291
SUBENT        20864001   20200925   20210105   20210104       2291
BIB                 14         89
TITLE       Cross section measurements for the reaction
            Rh-103(n,n')Rh-103m
AUTHOR     (A.Paulsen,R.Widera,R.Vaninbroukx,H.Liskien)
REFERENCE  (J,NSE,76,331,1980)
           (W,PAULSEN,19781025)
           ((P,INDC(EUR)-10,3,1976)=(P,NEANDC(E)-182,(3),3,1977))-
                   prelim. data at En=1.80MeV
INSTITUTE  (2ZZZGEL)
FACILITY   (VDG,2ZZZGEL) 7 MV Van der Graaff of the CBNM.
INC-SOURCE (P-LI7) Neutron energies  0.2 MeV to  0.4 MeV
           (D-T) neutron energies  0.3 MeV to  2.9 MeV
           (D-D) neutron energies  1.9 MeV to  4.1 MeV
           (P-T) neutron energies  3.6 MeV to  6.1 MeV
           (D-T) neutron energies 13.0 MeV to 16.7 MeV
            solid targets of lithium fluoride, deuterium, or
            tritium occluded in titanium or yttrium layers,
             on a 0.3 mm thick silver or molybdenum backing.
SAMPLE      Metallic rhodium-103, 99.9% pure, 20 mm diam.,
            5 mm thick used for relative activity
            measurements. 0.1 mm thick samples used for
            absolute cross section measurement.
METHOD     (ACTIV) A pair of samples at each neutron emission
            angle ( corresponding to nominal neutron energies
            in 100 keV steps ) was irradiated for about 1 hour.
            1000 sec delay after irradiation allowed for decay
            of any Rh-104 present. X-rays then counted for
            about 30 periods of 5 minutes. This allowed the
            half-life to be checked against the standard used.
            Relative cross sections calculated from relative
            activities.
            For absolute cross section measurement three pairs
            of rhodium samples irradiated with 1.80 MeV neutrons
            from p-t source. Activation of samples measured with
            Si-Li counters for at least 5 periods of 1000 to
            2000 sec during a period 0.2 to 2 hours after
            irradiation. Activities checked after 20 hours to
            confirm the absence of long term activity.
            Si-Li detectors calibrated against thin 99.9%
            pure Rh-103m sources whose activities had been
            determined by liquid scintillation counting.
            Neutron flux from source measured by a recoil proton
            telescope counter 25 m away. Time dependence of
            neutron flux during sample irradiation was monitored
            with a directional long counter.
DETECTOR   (SCIN ) Na-I(Tl) scintillation crystals used to
                   measure relative activities of samples
                   irradiated by neutrons of different energy.
           (SILI) Si-Li detectors with full-width-half-maximum
                   resolution of 600 eV at 20 keV used to measure
                   activity of samples for absolute cross
                   section measurement.
           (TELES,SOLST,SOLST) Recoil proton telescope counter and
           (LONGC) long counter used to measure neutron flux
                   for absolute cross section measurement
DECAY-DATA (45-RH-103-M,56.116MIN,XR) Hl from Appl.Rad.Isot.,24,87
            E.Gunther+, and confirmed during the measurements.
MONITOR    (45-RH-103(N,INL)45-RH-103-M,,SIG) Three irradiations
           at 1.80-MeV neutron energy and successive activity
           determinations of a sample pair yielded, as an average,
           817 mb with a standard error of the mean of 1.4%.
CORRECTION  Background neutrons produced by target.
            Neutron scatter from target backing. (> 2% for
            several cases in the range 0.3 to 0.2 MeV )
            Multiple scatter in sample.
            Difference between X-ray detection efficiencies
            for samples used in relative and absolute
            measurements.
            Self-absorption of X-rays within the active
            sample in the absolute cross section measurement.
            Correction determined by measuring x-rays from
            Pd-103 foils stacked together, and comparing with
            simple theory. This is the most important correction.
ERR-ANALYS (ERR-T) Total error includes:
           (ERR-1) Error in radiation geometry.
           (ERR-2) Error in angular distribution.
           (ERR-3) Error in neutron flux determination.
           (ERR-4) Error in sample purity.
           (ERR-5) Error in detector efficiency.
           (MONIT-ERR) Total error in the monitor value, computed
           by quadratically summing the above + stat. error (1.4%)
HISTORY    (19790319C) WWO.
           (19820118A) A.P.T. BIB section rewritten after full
           paper published. Data, which was arbitrarily normalised
           replaced by data normalized to a measured value.
           (19860227U)N.Ch
           (20200925A) SD:Updated to new date formats, lower case.
           Corrections in all Subents. BIB updated. The accuracy
           of data presentation  has been revised. Three refs on
           progress reports deleted (no data). EN-NRM added.
ENDBIB              89
COMMON               8          6
EN-NRM     MONIT      MONIT-ERR  ERR-1      ERR-2      ERR-3
ERR-4      ERR-5
MEV        MB         PER-CENT   PER-CENT   PER-CENT   PER-CENT
PER-CENT   PER-CENT
 1.80         817.       3.6      1.5         1.0         2.5
  0.1         1.2
ENDCOMMON            6
ENDSUBENT           99
SUBENT        20864002   20200925   20210105   20210104       2291
BIB                  4          5
REACTION   (45-RH-103(N,INL)45-RH-103-M,,SIG)
INC-SPECT   +-EN-RSL - The total width given, covers the full
           range of the neutron energy spectrum seen by the sample
STATUS     (TABLE) Tbl.III from Nucl.Sci.Eng.,76(1980)331
HISTORY    (20200925U) SD: STATUS updated. DATA-ERR -> ERR-T.
ENDBIB               5
NOCOMMON             0          0
DATA                 6         67
EN         EN-ERR     +EN-RSL    -EN-RSL    DATA       ERR-T
MEV        MEV        MEV        MEV        MB         PER-CENT
      0.199      0.003      0.023      0.024        74.        8.0
      0.250      0.003      0.024      0.028       103.        7.2
      0.300      0.004      0.025      0.024       119.        7.0
      0.350      0.003      0.021      0.020       124.        7.5
      0.399      0.004      0.029      0.025       129.        7.1
      0.500      0.005      0.063      0.053       151.        6.0
      0.601      0.005      0.042      0.037       238.        5.1
      0.703      0.005      0.070      0.067       368.        4.6
      0.802      0.007      0.058      0.049       525.        4.6
      0.903      0.008      0.095      0.100       593.        4.6
      1.006      0.008      0.114      0.097       613.        4.6
       1.10       0.01       0.11       0.11       576.        4.9
       1.20       0.01       0.11       0.11       631.        4.9
       1.30       0.01       0.11       0.11       619.        4.7
       1.40       0.01       0.14       0.14       726.        4.6
       1.50       0.01       0.09       0.09       729.        4.7
       1.60       0.01       0.08       0.08       718.        4.6
       1.70       0.01       0.17       0.17       805.        4.6
       1.80       0.01       0.18       0.18       817.        3.6
       1.90       0.01       0.12       0.12       800.        4.7
       2.00       0.01       0.10       0.10       844.        4.7
       2.10       0.01       0.18       0.18       867.        4.6
       2.20       0.01       0.10       0.10       885.        4.6
       2.30       0.01       0.14       0.14       916.        4.8
       2.40       0.01       0.17       0.17       927.        4.6
       2.50       0.01       0.16       0.16       898.        4.6
       2.60       0.01       0.15       0.15       994.        4.6
       2.70       0.01       0.13       0.13       974.        4.6
       2.80       0.01       0.17       0.17       950.        4.6
       2.90       0.01       0.18       0.18      1059.        4.5
       3.00       0.02       0.19       0.19      1034.        5.1
       3.10       0.02       0.20       0.20      1039.        4.9
       3.20       0.02       0.21       0.21      1052.        4.8
       3.30       0.02       0.21       0.21      1000.        5.1
       3.40       0.02       0.22       0.22      1038.        4.9
       3.50       0.02       0.23       0.23      1049.        4.9
       3.60       0.02       0.24       0.24      1022.        4.8
       3.70       0.03       0.25       0.25      1031.        4.9
       3.80       0.03       0.26       0.26      1075.        4.8
       3.90       0.03       0.27       0.27      1045.        4.8
       4.00       0.03       0.28       0.28      1077.        4.7
       4.10       0.03       0.29       0.29      1094.        4.7
       4.20       0.03       0.34       0.34      1140.        6.1
       4.30       0.03       0.34       0.34      1250.        5.9
       4.40       0.03       0.34       0.34      1122.        6.3
       4.50       0.03       0.34       0.34      1066.        5.9
       4.60       0.03       0.34       0.34      1064.        5.8
       4.70       0.03       0.33       0.33      1139.        5.8
       4.80       0.03       0.33       0.33      1080.        5.9
       4.90       0.03       0.33       0.33      1194.        5.7
       5.00       0.03       0.32       0.32      1163.        5.8
       5.10       0.03       0.31       0.31      1164.        6.2
       5.20       0.03       0.30       0.30      1017.        5.8
       5.30       0.03       0.29       0.29      1003.        5.7
       5.40       0.03       0.28       0.28      1136.        5.5
       5.50       0.03       0.27       0.27      1117.        5.5
       5.60       0.03       0.25       0.25      1259.        5.7
       5.70       0.02       0.23       0.23      1150.        5.4
       5.80       0.02       0.21       0.21      1077.        5.6
       5.90       0.02       0.19       0.19      1111.        5.4
       6.00       0.01       0.15       0.15      1239.        5.4
       6.10       0.01       0.11       0.11      1207.        5.4
      13.00       0.01       0.18       0.18       398.        9.4
      14.00       0.00       0.25       0.25       286.        9.5
      15.00       0.01       0.29       0.29       244.        9.5
      16.00       0.03       0.31       0.31       222.        9.5
      16.70       0.03       0.30       0.30       226.        9.5
ENDDATA             69
ENDSUBENT           79
ENDENTRY             2
