ENTRY            68021     861021
SUBENT        68021001     861021
BIB                  9         11
INSTITUTE  (2JPNKYO)
REFERENCE  (J,NST,20,991,8312)
AUTHOR     (T.MORI,H.NISHIHARA,I.KIMURA,S.A.HAYASHI,K.KOBAYASHI,
           S.YAMAMOTO,M.NAKAGAWA)
TITLE      ASSESSMENT OF NEUTRON CROSS SECTIONS FOR TITANIUM WITH
           NEUTRON SPECTRUM IN TITANIUM PILE
FACILITY   (LINAC) KYOTO UNIV. RESEARCH REACTOR INSTITUTE
METHOD     (TOF)
DETECTOR   (GLASD) 6LI DETECTOR, 12.7 CM DIAMETER, 1.27 CM THICK
ERR-ANALYS (ERR-S) STATISTICAL UNCERTAINTY
HISTORY    (861021C)
ENDBIB              11
NOCOMMON             0          0
ENDSUBENT           14
SUBENT        68021002     861021
BIB                  1          1
REACTION   (22-TI-0(N,TOT),,SIG)
ENDBIB               1
NOCOMMON             0          0
DATA                 4         34
EN-MIN     EN-MAX     DATA       ERR-S
EV         EV         B          B
 1.0030E+06 1.1080E+06 2.9320E+00 3.9000E-02
 9.0720E+05 1.0030E+06 2.7450E+00 3.6000E-02
 8.2090E+05 9.0720E+05 2.4270E+00 4.1000E-02
 7.4270E+05 8.2090E+05 3.1120E+00 4.3000E-02
 6.7210E+05 7.4270E+05 3.2740E+00 4.3000E-02
 6.0810E+05 6.7210E+05 2.1960E+00 3.4000E-02
 5.5020E+05 6.0810E+05 2.0180E+00 3.0000E-02
 4.9790E+05 5.5020E+05 2.1090E+00 2.6000E-02
 4.5050E+05 4.9790E+05 2.6640E+00 2.5000E-02
 4.0760E+05 4.5050E+05 2.0100E+00 2.3000E-02
 3.6880E+05 4.0760E+05 1.4170E+00 2.1000E-02
 3.3370E+05 3.6880E+05 2.4230E+00 2.6000E-02
 3.0200E+05 3.3370E+05 2.0680E+00 2.1000E-02
 2.7320E+05 3.0200E+05 2.9080E+00 2.5000E-02
 2.4720E+05 2.7320E+05 2.8530E+00 2.4000E-02
 2.2370E+05 2.4720E+05 1.1820E+00 1.9000E-02
 2.0240E+05 2.2370E+05 1.9520E+00 2.4000E-02
 1.8320E+05 2.0240E+05 3.6740E+00 4.5000E-02
 1.6570E+05 1.8320E+05 1.7150E+00 3.5000E-02
 1.5000E+05 1.6570E+05 2.1460E+00 4.5000E-02
 1.3570E+05 1.5000E+05 2.1950E+00 5.1000E-02
 1.2280E+05 1.3570E+05 2.7250E+00 6.3000E-02
 1.1110E+05 1.2280E+05 2.7220E+00 6.8000E-02
 8.6520E+04 1.1110E+05 3.8800E+00 6.9000E-02
 6.7380E+04 8.6520E+04 6.3310E+00 2.2000E-01
 5.2480E+04 6.7380E+04 1.7280E+01 1.8600E+00
 4.0870E+04 5.2480E+04 9.5950E+00 1.0000E+00
 3.1830E+04 4.0870E+04 1.8550E+01 1.9000E+00
 2.4790E+04 3.1830E+04 2.5970E+01 2.9700E+00
 1.9310E+04 2.4790E+04 7.4150E+01 6.9000E+00
 1.5030E+04 1.9310E+04 1.2440E+02 1.2000E+01
 1.1710E+04 1.5030E+04 5.8710E+01 6.7400E+00
 9.1190E+03 1.1710E+04 3.6500E+01 3.5500E+00
 7.1020E+03 9.1190E+03 2.2190E+01 1.9600E+00
ENDDATA             36
ENDSUBENT           42
ENDENTRY             2
