ENTRY            A0150   20010703   20010705
SUBENT        A0150001   20010703   20010705
BIB                 11         23
TITLE      Emission of Electron-Positron Pairs from Light Nuclei
           I: Monopole  Transition in 16-O *
AUTHOR     (S.DEVONS, G.COLDRING, G.R.LINDSEY)
INSTITUTE  (2UK IST) Department of Physics, Imperial College,
           London
REFERENCE  (J,PPS/A,67,134,1954)
SAMPLE     The Target (CA/F2) Was Deposited by Vacuum Evaporation
           On a Thin Foil of Aluminium (0.15 MG/CM**2).
DETECTOR   (COIN,GEMUC,GEMUC) To Detect Electron and Positron.
           A Third Similar Counter was Used in Anti-Coincidence,
           To Avoid Registering As Pairs, Single Electrons Which
           Have Scattered in the Walls of One of the Counters and
           Detected in Both.
FACILITY   (ACCEL,2UK IST)
METHOD     (BCINT) Accuracy to Within About 2%.
           (EXTB)
           (COINC)
HISTORY    (20010318C)
           (20010703A) O.Schwerer Remark is Included.
           (20010703U) Last checking has been done.
ERR-ANALYS (DATA-ERR) Data-Point Reader Uncertinty.
           (EN-ERR) Accuracy of Proton Beam Energy.
ADD-RES    Positron-Electron Correlation Data.
ENDBIB              23
COMMON               1          3
EN-ERR
KEV
         1.
ENDCOMMON            3
ENDSUBENT           30
SUBENT        A0150002   20010703   20010705
BIB                  5          7
REACTION   (9-F-19(P,A)8-O-16,PAR,SIG,,,EXP)
EN-SEC     (E-LVL,8-O-16)
PART-DET   (ICE) Electron-Positron Pairs.
LEVEL-PROP (8-O-16,E-LVL=6.06,SPIN=0.,PARITY=+1.)
COMMENT    - By Authors - Half-Life Investigated State has Been
           Measured Independently. The Half-Life = (5.+/-0.5)E-11
           Sec
ENDBIB               7
COMMON               1          3
E-LVL
MEV
       6.06
ENDCOMMON            3
DATA                 3        149
EN         DATA       DATA-ERR
KEV        MB         MB
      638.9      0.074      0.004
      641.9      0.074      0.004
      646.4      0.075      0.004
      649.5      0.075      0.004
      653.9      0.085      0.004
       654.       0.08      0.004
      656.9       0.09      0.004
      659.9      0.101      0.004
      662.6      0.155      0.004
      662.8      0.114      0.004
      666.5      0.258      0.004
      668.2      0.227      0.004
      672.7      0.232      0.004
      677.7      0.155      0.004
       678.      0.101      0.004
      682.6      0.101      0.004
      684.1      0.101      0.004
      688.3       0.15      0.004
      688.6      0.114      0.004
      694.3      0.166      0.004
       697.      0.223      0.004
      701.1      0.292      0.004
      701.8      0.429      0.004
       702.       0.39      0.004
      704.7      0.455      0.004
      709.1      0.478      0.004
      712.1      0.473      0.004
      721.6      0.414      0.004
      727.8      0.375      0.004
      730.9       0.37      0.004
      732.4      0.378      0.004
      738.5       0.36      0.004
       740.      0.365      0.004
       740.       0.36      0.004
      743.1      0.348      0.004
      747.6      0.353      0.004
      747.7      0.348      0.004
      750.6      0.363      0.004
      755.1      0.363      0.004
      755.2      0.356      0.004
      759.5      0.394      0.004
       761.      0.394      0.004
      762.5      0.397      0.004
      765.5      0.395      0.004
      769.9      0.418      0.004
      774.2      0.454      0.004
      778.7      0.475      0.004
      786.4      0.452      0.004
       788.      0.431      0.004
       791.      0.429      0.004
      792.4      0.452      0.004
      796.9      0.465      0.004
      808.4       0.56      0.004
      810.9      0.645      0.004
       815.      0.715      0.004
      827.4       1.61       0.04
      828.6       2.13       0.04
      835.7        2.9       0.04
      839.7       3.83       0.04
      842.1       4.83       0.04
      846.9       4.53       0.04
      846.9       4.47       0.04
      848.3       4.68       0.04
      852.2       3.16       0.04
      854.9       3.81       0.04
      858.7       2.47       0.04
      865.2        1.7       0.04
      869.5       2.12       0.04
      875.2       2.69       0.04
      875.5       2.22       0.04
      877.5       1.38       0.04
      880.7       0.94       0.04
      883.7       1.09       0.04
      886.8       0.86       0.04
      892.9       0.84       0.04
       896.       0.74       0.04
      897.5       0.79       0.04
      903.5       0.85       0.04
       905.       0.77       0.04
      912.7        0.7       0.04
      915.7       0.65       0.04
      924.8       0.65       0.04
      932.3       0.73       0.04
      933.7       0.96       0.04
      938.2       1.02       0.04
      942.8       0.92       0.04
      944.3       0.81       0.04
      948.9       0.76       0.04
      953.5       0.71       0.04
      959.5       0.72       0.04
      973.1       0.72       0.04
      980.6       0.83       0.04
      992.8       0.78       0.04
      998.8       0.86       0.04
      1005.       0.89       0.04
      1012.       0.92       0.04
      1015.       0.97       0.04
      1015.       0.92       0.04
      1023.       1.03       0.04
      1027.       1.03       0.04
      1030.       1.26       0.04
      1035.       1.11       0.04
      1041.       1.29       0.04
      1047.       1.17       0.04
      1050.       1.19       0.04
      1057.       1.35       0.04
      1057.       1.22       0.04
      1066.       1.41       0.04
      1072.       1.49       0.04
      1080.       1.62       0.04
      1081.        1.7       0.04
      1083.       2.08       0.04
      1086.       2.03       0.04
      1087.        1.9       0.04
      1092.       2.37       0.04
      1093.       2.27       0.04
      1097.       2.78       0.04
      1102.       3.12       0.04
      1111.        3.3       0.04
      1114.       3.56       0.04
      1119.       3.87       0.04
      1120.       3.38       0.04
      1123.       3.41       0.04
      1125.       3.82       0.04
      1131.       3.98       0.04
      1136.       3.29       0.04
      1138.        3.7       0.04
      1142.       3.52       0.04
      1146.       3.24       0.04
      1149.       3.17       0.04
      1153.       3.14       0.04
      1159.        3.3       0.04
      1165.        3.4       0.04
      1171.       3.74       0.04
      1174.       3.59       0.04
      1178.       3.77       0.04
      1183.        3.9       0.04
      1186.       4.24       0.04
      1190.       4.14       0.04
      1193.       4.78       0.04
      1199.       4.63       0.04
      1206.       5.22       0.04
      1208.       5.63       0.04
      1219.       6.23       0.04
      1231.       6.55       0.04
      1237.       7.06       0.04
      1237.       6.68       0.04
      1251.       6.53       0.04
      1258.       5.53       0.04
ENDDATA            151
ENDSUBENT          167
ENDENTRY             2
