ENTRY            O1102   20040326
SUBENT        O1102001   20040326
BIB                 15         27
TITLE      A study of the (He3,Alpha) reaction on Ni-60.
AUTHOR     (H.M.Sen Gupta, J.B.A.England, E.M.E.Rawas, F.Khazaie,
           G.T.A.Squier)
INSTITUTE  (2UK BIR)
REFERENCE  (J,JP/G,16,1039,1990)
HISTORY    (20031224C)
           (20040326U) Last checking has been done.
SAMPLE     A self-supporting target isotopically enriched to
            98.5% Ni-60 was used.
           The target thicknesses was 297 mug/cm**2
DETECTOR   (TELES) Six telescopes consisting of a del'Ta-e
           detector of thickness 150-mum and two e-detectors of
           total thickness 8-mm.
MONITOR    (28-NI-60(HE3,EL)28-NI-60,,DA)
MONIT-REF  (,M.E.CAGE+,J,NP/A,183,449,1972)
ADD-RES    (COMP) DWBA Analysis.
           Spectra of alpha-particles was measured.
FACILITY   (CYCLO,2UK BIR) The Radial Ridge cyclotron.
METHOD     (EDE)
           (SITA)
INC-SPECT   EN-RSL-FW  Overall energy resolution.
ERR-ANALYS (ERR-T) High limit of absolute cross section error
           arising from various factors, such as the target
           thickness, the solid angle subtended by the detectors,
           beam monitoring and background subtraction.
           (ANG-ERR-D). Data-point reader uncertainty.
STATUS     (CURVE) By CAJAD.
ENDBIB              27
COMMON               3          3
EN         ERR-T      EN-RSL-FW
MEV        PER-CENT   KEV
        33.        10.        60.
ENDCOMMON            3
ENDSUBENT           34
SUBENT        O1102002   20040326
BIB                  4         26
REACTION   (28-NI-60(HE3,A)28-NI-59,PAR,DA)
EN-SEC     (E-LVL,28-NI-59)
LEVEL-PROP (28-NI-59,E-LVL=0.000,SPIN=1.5,PARITY=-1.)
           (28-NI-59,E-LVL=0.878,SPIN=1.5,PARITY=-1.)
           (28-NI-59,E-LVL=0.469,SPIN=0.5,PARITY=-1.)
           (28-NI-59,E-LVL=1.313,SPIN=0.5,PARITY=-1.)
           (28-NI-59,E-LVL=0.338,SPIN=2.5,PARITY=-1.)
           (28-NI-59,E-LVL=1.192,SPIN=2.5,PARITY=-1.)
           (28-NI-59,E-LVL=1.681,SPIN=2.5,PARITY=-1.)
           (28-NI-59,E-LVL=1.951,SPIN=3.5,PARITY=-1.)
           (28-NI-59,E-LVL=2.627,SPIN=3.5,PARITY=-1.)
           (28-NI-59,E-LVL=3.047,SPIN=3.5,PARITY=-1.)
           (28-NI-59,E-LVL=3.728,SPIN=3.5,PARITY=-1.)
           (28-NI-59,E-LVL=4.181,SPIN=3.5,PARITY=-1.)
           (28-NI-59,E-LVL=4.639,SPIN=3.5,PARITY=-1.)
           (28-NI-59,E-LVL=5.264,SPIN=3.5,PARITY=-1.)
           (28-NI-59,E-LVL=7.068,SPIN=3.5,PARITY=-1.)
           (28-NI-59,E-LVL=5.586)
           (28-NI-59,E-LVL=5.867)
           (28-NI-59,E-LVL=7.332)
           (28-NI-59,E-LVL=8.482)
           (28-NI-59,E-LVL=9.081)
           (28-NI-59,E-LVL=10.085)
           (28-NI-59,E-LVL=10.527)
ERR-ANALYS (DATA-ERR) The uncertainty is shown on figure.
           (ERR-DIG).Data-point reader uncertainty.
ENDBIB              26
COMMON               2          3
ANG-ERR-D  ERR-DIG
ADEG       PER-CENT
        0.4         5.
ENDCOMMON            3
DATA                 4        799
ANG-CM     E-LVL      DATA-CM    DATA-ERR
ADEG       MEV        MB/SR      PER-CENT
       11.9      10.52       0.51
        12.      9.081      0.239
       12.5      10.08      0.454
       12.6      8.482      0.185
        13.      3.047       1.85
      13.01      7.068      0.168
       13.4      1.951       0.82
       13.5      4.639      0.547
      13.51      5.867      0.519
       13.6      2.627       3.59
       13.7      4.181       1.59
      13.71      5.264       0.14
       13.8         0.       1.07
      13.81      3.728      0.486
       13.9      0.469      0.301
        14.      0.876      0.246
       14.2      1.313       0.32
       14.3      5.586      0.493
       14.6      7.332       2.08
       14.8      0.338       1.81
      14.81      8.482        0.4
       14.9      9.081      0.165
       15.1      10.08      0.484
       15.2      1.192      0.107
       15.3      1.681      0.194
       15.5      10.52      0.328
       15.7      2.627       2.43
       15.8      7.068      0.109
      15.81      10.52      0.192
        16.      3.047       1.25
      16.01      5.586      0.491
       16.1      1.951      0.598
       16.2      3.728      0.263
       16.3      0.469      0.188
       16.4      4.639      0.527
       16.5      0.876      0.202
       16.6         0.       1.07
      16.62      5.867      0.268
       16.8      1.313      0.289
      16.81      4.181       1.08
       16.9      5.264       0.15
       17.1      10.52      0.119
       17.2      0.338       1.12
      17.21      7.332       1.56
       17.3      10.08      0.153
       17.6      9.081      0.133
       17.8      1.192     0.0476
        18.      1.681      0.133
       18.1      2.627       1.38
       18.2      5.586      0.148
       18.4      3.047       0.74
       18.5      10.52      0.096
       18.6      3.728      0.181
       18.7      7.068      0.092
       18.8      1.951      0.329
      18.82      4.181       0.78
       18.9      4.639      0.391
      18.92      5.867      0.192
        19.      0.876      0.112
       19.1         0.       0.75
      19.12      5.264      0.057        12.
       19.2      1.313      0.148
       19.4      0.469      0.176
       19.5      8.482       0.21
       19.7      7.332         1.
       19.8      0.338       0.74
       20.1      1.681      0.097
      20.13      5.586      0.058
       20.2      1.192     0.0251        11.
      20.22      9.081      0.104
       20.3      10.08     0.0481
       20.5      1.951      0.208
       20.8      2.627       1.03
       20.9      7.068     0.0544
        21.      3.728      0.163
      21.02      4.181      0.468
       21.1      3.047      0.554
       21.2      5.867       0.11
       21.3      5.586      0.083
      21.32      10.52      0.181
       21.5      4.639       0.43
       21.6         0.      0.404
       21.9      1.313      0.071
        22.      0.876     0.0511
       22.1      0.469      0.068
       22.4      1.681      0.096
      22.42      8.482      0.168
       22.6      7.332      0.507
      22.63      9.081      0.071
       22.8      0.338       0.73
       22.9      1.192     0.0278
       23.1      3.728       0.12
       23.4      10.52      0.181        15.
       23.5      5.867      0.142
      23.53      10.08      0.078
       23.6      1.951      0.222
       23.9      3.047      0.553
      23.93      4.181       0.48
        24.      4.639      0.189
       24.1         0.      0.366
      24.12      0.469      0.091
       24.2      1.313      0.069
      24.22      2.627       0.99
      24.23      5.586      0.105
       24.3      5.264      0.058        10.
       24.4      7.068      0.054        11.
       24.5      0.876      0.078
       25.1      0.338       0.62
      25.13      1.681      0.102
      25.14      8.482      0.086
       25.2      1.192     0.0298        10.
      25.24      7.332      0.462
      25.25      9.081     0.0594
       25.7      10.08      0.148
        26.      1.951      0.199
       26.1      10.52      0.103
       26.2      3.728       0.12
       26.6      4.639      0.188
      26.61      5.867      0.084
      26.62      7.068     0.0398
       26.7      0.876      0.049
      26.71      1.313     0.0605
       26.9         0.      0.311
      26.91      0.469      0.072
      26.92      2.627       0.79
      26.93      3.047      0.431
       27.1      4.181      0.382
      27.12      5.264     0.0541
       27.2      7.332      0.494
       27.5      5.867       0.15
       27.6      1.192     0.0331
       27.8      9.081       0.07
       28.1      0.338      0.483
      28.12      8.482     0.0603
       28.3      1.681      0.063
       28.6      10.08      0.134
       28.7      3.047      0.262
       28.9      5.867      0.092
        29.      5.586     0.0591
      29.02      10.52     0.0564
       29.1      2.627       0.88
       29.2      3.728     0.0496
      29.22      7.068     0.0251
       29.4         0.      0.232
      29.42      1.951       0.14
      29.43      5.264     0.0346
       29.6      0.469     0.0411
      29.62      4.181      0.314
       29.7      1.313     0.0483
      29.72      4.639      0.126
      29.73      5.586      0.094
       29.8      0.876     0.0352
        30.      7.332      0.383
       30.4      0.338      0.288
      30.42      8.482      0.066
       30.5      9.081     0.0273
       30.9      3.728     0.0287
        31.      1.681      0.046
       31.1      1.192     0.0121
      31.12      10.08     0.0317
       31.2      10.52     0.0212
       31.4      5.264     0.0407
       31.6      0.469     0.0329
      31.62      5.586     0.0313
       31.7      3.047      0.154
       31.8      4.181      0.155
        32.      1.313     0.0398
      32.01      2.627      0.315
      32.02      5.867     0.0342
      32.03      7.068     0.0163
       32.1      1.951      0.088
       32.4         0.       0.21
      32.41      7.332      0.182
       32.5      4.639      0.068
       32.6      0.876     0.0298
       33.1      0.338      0.218
      33.11      8.482     0.0262
      33.12      10.08     0.0372
       33.2      9.081     0.0133
       33.5      1.192     0.0158
       33.7      1.681     0.0336
       33.8      2.627      0.213
      33.81      10.08     0.0216
       33.9      1.951      0.064
      33.91      5.586      0.061
        34.      3.728     0.0234
       34.4      5.264     0.0137
      34.41      10.52     0.0181
       34.5      4.639     0.0591
       34.7         0.      0.224
      34.71      3.047      0.112
       34.8      1.313     0.0464
      34.81      7.068     0.0085
       34.9      4.181      0.093
      34.91      5.867      0.065
        35.      0.469     0.0435
       35.2      7.332       0.09
       35.4      0.876     0.0307
       35.7      8.482     0.0238
       35.9      1.192     0.0092
        36.      1.681     0.0312
       36.1      0.338      0.171
      36.11      3.728     0.0212
       36.4      9.081     0.0162
       36.5      10.08     0.0584
       36.6      1.951      0.074
       36.7      5.264     0.0142
       36.8      3.047      0.116
      36.81      5.586      0.071
       36.9      10.52     0.0274
       37.2         0.      0.162
      37.21      0.469     0.0408
      37.22      2.627       0.27
      37.23      5.867      0.074
       37.4      7.068     0.0084
       37.6      0.876     0.0207
      37.61      1.313     0.0316
      37.62      4.181      0.111
       37.7      4.639      0.069
       37.8      0.338      0.134
       38.1      7.332      0.096
       38.3      5.867     0.0498
       38.4      9.081     0.0222
       38.6      8.482     0.0223
       38.8      1.192     0.0102
      38.81      10.08     0.0584
        39.      1.681     0.0244
      39.01      3.047      0.104
       39.1      1.951      0.071
       39.2      10.52     0.0441
       39.3      2.627      0.242
       39.5      3.728     0.0269
       39.8      5.867     0.0513
       39.9      0.469     0.0186
        40.      0.876     0.0068
      40.01      1.313     0.0202
      40.02      5.586      0.073
       40.2         0.     0.0611
      40.21      5.264     0.0162
       40.3      4.639      0.061
       40.4      4.181      0.114
       40.7      8.482     0.0203
       40.8      0.338      0.098
       40.9      7.332      0.152
       41.2      1.192    0.00578
       41.5      1.951      0.061
      41.51      10.08     0.0279
       41.6      1.681      0.015
      41.61      9.081     0.0135
       41.7      5.586     0.0375
       41.8      5.867     0.0334
        42.      2.627      0.181
      42.01      3.047      0.081
      42.02      7.068     0.0091
       42.1      3.728     0.0127
       42.3         0.     0.0231
       42.5      5.264     0.0129
      42.51      10.52     0.0258
       42.7      4.181       0.07
       42.8      1.313     0.0125
      42.81      4.639     0.0421
       42.9      0.469    0.00449
        43.      0.876    0.00459
       43.1      0.338      0.067
       43.3      8.482     0.0167
       43.5      7.332      0.139
       44.2      1.681     0.0054
      44.21      1.951     0.0338
       44.4      1.192     0.0043         9.
      44.41      9.081    0.00529
       44.6      3.728     0.0103
      44.61      5.867     0.0157
       44.7      2.627      0.131
      44.71      3.047     0.0492
       44.9         0.     0.0518
      44.91      5.586     0.0073
        45.      5.264     0.0091
       45.1      0.469    0.00595
      45.11      0.876       0.01
      45.12      4.639     0.0248
      45.13      10.08      0.011
      45.14      10.52     0.0133
       45.2      4.181      0.051
       45.3      1.313     0.0121
       45.4      7.068     0.0093
       46.1      7.332     0.0562
       46.3      8.482     0.0094
       46.4      0.338     0.0545
       46.6      1.681    0.00518
       46.7      9.081    0.00364
       46.8      1.192    0.00362
      46.81      3.047     0.0442
        47.      3.728     0.0111
       47.1      10.08     0.0134
       47.2      2.627      0.102
       47.3      7.068     0.0033        27.
       47.4         0.     0.0608
       47.5      5.867     0.0262
      47.52      10.52     0.0094
       47.6      5.586     0.0151
       47.8      1.951     0.0324
       47.9      0.876     0.0106
        48.      0.469    0.00613
      48.01      4.639     0.0311
       48.1      1.313     0.0155
      48.11      4.181     0.0507
      48.12      5.264     0.0053         9.
      48.13      7.332     0.0601
       48.4      0.338     0.0428
       48.6      8.482     0.0097
        49.      1.681    0.00588
       49.2      1.192    0.00544
       49.3      1.951     0.0236
      49.32      9.081    0.00415
       49.5      10.08     0.0097
       49.7      5.867     0.0123
       49.9      3.047     0.0456
      49.92      5.586     0.0161
        50.      1.313      0.009
       50.1      0.876     0.0067
      50.12      5.264    0.00467
      50.13      10.52     0.0143
       50.2      2.627      0.085
       50.3      3.728     0.0082
       50.4      7.068    0.00123        22.
      50.42      7.332     0.0547
       50.5         0.     0.0454
       50.7      0.469    0.00523
      50.71      4.181      0.039
       50.8      4.639     0.0216
       51.4      0.338     0.0264
       51.5      1.192    0.00493
      51.51      8.482     0.0103
       51.6      9.081    0.00403
        52.      1.681    0.00509
       52.3      2.627      0.071
      52.31      5.867     0.0154
       52.4      1.951     0.0204
      52.41      5.586     0.0077
      52.42      10.08     0.0125
       52.7      0.469    0.00336
       52.8      0.876    0.00278
      52.81      3.728       0.01
       52.9      3.047     0.0395
      52.91      10.52      0.019
        53.         0.      0.027
      53.01      4.181     0.0485
      53.02      5.264    0.00468
       53.1      1.313     0.0074
       53.3      7.068     0.0032
       53.4      4.639     0.0253
       53.8      0.338     0.0263
      53.81      7.332     0.0439
        54.      5.867     0.0097
       54.1      1.951     0.0098
       54.3      1.681    0.00472
      54.31      8.482     0.0129
       54.5      1.192     0.0028        14.
       54.7      2.627     0.0462
       54.8      10.08    0.00599
       54.9      3.728     0.0071         6.
       55.2      9.081      0.002        15.
       55.3      0.876    0.00159        16.
      55.31      1.313    0.00419
      55.32      3.047     0.0232
      55.33      5.586     0.0077
      55.34      7.068    0.00279
      55.35      10.52     0.0118
       55.5      4.181     0.0319
       55.7         0.     0.0137
      55.71      0.469    0.00346
      55.72      5.264     0.0067
       56.1      7.332     0.0455
       56.3      4.639     0.0188
       56.4      0.338     0.0245
       56.7      8.482      0.007
       56.8      1.192     0.0025        12.
       56.9      9.081    0.00217        13.
        57.      1.681    0.00357
       57.1      1.951     0.0071
      57.11      2.627     0.0291
       57.4      3.047     0.0232
       57.6      3.728     0.0052         8.
       57.8      0.876    0.00148        13.
      57.81      5.867     0.0129
       57.9         0.     0.0102
      57.91      5.586     0.0082
        58.      5.264     0.0063        13.
      58.01      10.08    0.00449
       58.1      1.313    0.00357         8.
      58.11      7.332     0.0352
       58.2      7.068    0.00294
       58.3      10.52    0.00555
       58.4      4.181     0.0223
       58.5      0.469    0.00277
       58.8      4.639     0.0118
       59.1      0.338     0.0185
       59.3      1.681     0.0021        14.
       59.4      8.482     0.0058
       59.5      1.192     0.0025        12.
      59.51      5.867     0.0096
       59.6      1.951     0.0068
       59.8      2.627      0.026
       59.9      9.081    0.00154        15.
        60.      5.586     0.0114
       60.1      3.047     0.0168
      60.11      10.08    0.00189        12.
       60.3      0.876    0.00233        11.
      60.31      1.313     0.0046         9.
      60.32      3.728    0.00412         7.
      60.33      5.867    0.00568
       60.4         0.     0.0116
       60.5      7.068     0.0026        15.
       60.6      5.264     0.0067
       60.7      10.52    0.00325
       60.8      0.469    0.00367
        61.      7.332     0.0264
       61.1      4.639       0.01
       61.3      4.181     0.0215
       61.5      0.338     0.0198
       61.7      8.482     0.0034         9.
       61.9      1.192     0.0032        13.
       62.2      9.081    0.00187        14.
       62.3      1.681    0.00296         9.
      62.31      2.627     0.0241
       62.6      1.951      0.007
      62.61      3.047     0.0162
       62.8      0.876    0.00138        14.
      62.81      5.586     0.0084
        63.      10.08    0.00336         8.
       63.1      3.728     0.0046        11.
       63.2      5.867    0.00564
      63.21      10.52    0.00557
       63.3         0.     0.0116
      63.31      0.469    0.00251
      63.32      7.068    0.00142
       63.4      1.313    0.00293         8.
       63.5      5.264     0.0011        50.
      63.51      7.332     0.0257
       63.8      4.181     0.0182
        64.      4.639     0.0114
       64.4      0.338     0.0166
      64.41      5.586    0.00236
       64.5      1.192     0.0029
       64.6      1.681     0.0013        15.
      64.61      8.482     0.0043        12.
       64.7      1.951     0.0045         9.
      64.71      2.627     0.0181
       65.2      3.728    0.00457         6.
       65.3      1.313    0.00206        11.
      65.31      3.047      0.011
      65.32      7.068    0.00188        13.
      65.33      9.081     0.0032        16.
      65.34      10.08    0.00244        11.
       65.4      5.867    0.00446
       65.8         0.     0.0102
      65.81      0.469    0.00366
      65.82      10.52    0.00576
       65.9      0.876    0.00203         6.
       66.1      4.181      0.012
      66.11      7.332     0.0118
       66.2      4.639     0.0074
       66.4      5.264    0.00175        16.
       66.9      1.192    0.00291         8.
        67.      1.681    0.00164        15.
       67.1      0.338      0.013
       67.2      8.482    0.00435         6.
       67.6      1.313    0.00351         7.
       67.7      1.951    0.00313         7.
      67.71      3.047     0.0082
      67.72      3.728     0.0043        12.
       67.9      9.081    0.00311         9.
        68.         0.     0.0123
      68.01      2.627     0.0126
      68.02      5.586    0.00616
      68.03      5.867    0.00458
       68.1      0.469    0.00427
      68.11      10.08     0.0058
      68.12      10.52    0.00559
       68.2      0.876    0.00177         9.
       68.4      4.181     0.0119
      68.41      7.332      0.017
       68.7      4.639    0.00409
       68.8      5.264     0.0025        20.
       69.1      7.068    0.00204
       69.5      8.482    0.00463
       69.6      1.192    0.00153        13.
       69.7      0.338     0.0092
        70.      1.681     0.0024        17.
       70.1      1.951    0.00244        11.
      70.11      3.047     0.0069
      70.12      3.728     0.0031        19.
      70.13      9.081     0.0047         9.
       70.4      0.469    0.00484
      70.41      2.627     0.0091
      70.42      10.52     0.0056
       70.5      10.08    0.00326
       70.6      5.586    0.00098        23.
       70.7      1.313     0.0029        14.
       70.8         0.     0.0105
      70.81      5.867    0.00141        17.
       70.9      0.876    0.00123        15.
        71.      7.332     0.0182
       71.1      4.639    0.00421
      71.11      5.264    0.00213        12.
      71.12      7.068    0.00209        11.
       71.2      4.181     0.0101
       71.9      1.192    0.00154
        72.      8.482    0.00177         7.
       72.1      0.338     0.0061
       72.3      9.081    0.00215         7.
       72.4      1.681      0.003        10.
       72.8      3.728    0.00209        11.
      72.81      10.08    0.00359
       72.9      1.951    0.00333
      72.91      5.586    0.00089        12.
        73.      5.867    0.00086        16.
       73.1      0.876    0.00076        12.
      73.11      3.047    0.00537
       73.2      1.313    0.00185         7.
      73.21      2.627     0.0101
       73.3         0.    0.00512
      73.31      10.52    0.00087        13.
       73.5      4.181    0.00586
      73.51      5.264    0.00082        17.
       73.6      4.639    0.00283
      73.61      7.068    0.00093        13.
       73.7      0.469    0.00257
       73.8      7.332     0.0112
       74.4      1.681    0.00265        10.
       74.6      9.081    0.00158
       74.7      0.338    0.00547
      74.71      1.951    0.00299
       74.8      8.482    0.00222        11.
       74.9      1.192    0.00189
       75.3      2.627       0.01
      75.31      3.047    0.00556
       75.5      10.08    0.00117        15.
       75.6      5.586     0.0015         9.
      75.61      5.867    0.00088        11.
      75.62      10.52    0.00109        14.
       75.7         0.    0.00235
       75.8      3.728    0.00154
       75.9      0.876    0.00083        12.
      75.91      1.313    0.00173         6.
       76.2      0.469    0.00234
      76.21      4.639    0.00239
      76.22      5.264    0.00116        10.
       76.3      4.181    0.00481
       76.4      7.068    0.00071        15.
      76.41      7.332     0.0093
       76.8      1.681    0.00194
       77.3      1.192    0.00126
       77.4      0.338    0.00509
      77.41      8.482    0.00244         7.
       77.5      1.951    0.00366
       77.7      2.627      0.009
       77.8      9.081     0.0012        17.
        78.      3.047     0.0059
       78.2         0.    0.00243
      78.21      0.876    0.00083        17.
      78.22      5.586    0.00177         9.
       78.3      5.867    0.00168        11.
      78.31      10.08    0.00269
       78.4      7.068    0.00064        16.
       78.5      1.313    0.00172         7.
      78.51      3.728    0.00086        13.
       78.6      0.469    0.00113        13.
       78.7      7.332     0.0067
       78.8      10.52    0.00124        13.
        79.      4.639    0.00216
       79.1      5.264    0.00109        11.
       79.2      4.181    0.00434
       79.3      1.192    0.00096        13.
       79.8      0.338    0.00399
       79.9      1.951    0.00317
       80.3      1.681    0.00142         6.
       80.4      0.876    0.00059        15.
      80.41      3.047    0.00303
      80.42      8.482    0.00177        12.
       80.5         0.    0.00394
       80.7      5.586    0.00061        15.
      80.71      10.08    0.00137        13.
       80.8      2.627     0.0067
      80.81      9.081    0.00106        13.
      80.82      10.52    0.00128        12.
       80.9      4.181    0.00277
        81.      0.469    0.00044        23.
      81.01      1.313    0.00138         8.
      81.02      5.264     0.0009        17.
      81.03      7.068    0.00039        18.
      81.04      7.332    0.00594
       81.2      3.728    0.00102         8.
       81.5      5.867    0.00161
       81.7      4.639    0.00298
       82.3      1.192    0.00093        12.
      82.31      1.951    0.00169        12.
       82.4      0.338    0.00282
       82.6      2.627    0.00505
       82.7      1.681    0.00119        11.
      82.71      8.482    0.00215         9.
       82.8         0.    0.00448
      82.81      10.08    0.00113         8.
       82.9      9.081    0.00066        15.
       83.1      3.047     0.0022
      83.11      3.728    0.00095         9.
      83.12      5.867    0.00084        11.
       83.3      0.469    0.00066        23.
      83.31      5.586    0.00065        12.
       83.5      0.876    0.00067        15.
      83.51      1.313    0.00182         8.
      83.52      5.264    0.00039        26.
       83.7      4.639     0.0027
       83.8      7.068    0.00024        29.
      83.81      7.332    0.00524
       83.9      10.52    0.00206
       84.4      4.181    0.00403
       84.6      1.192    0.00074        16.
       84.8      0.338    0.00112        15.
        85.      8.482    0.00156         9.
       85.1      1.681    0.00106        11.
       85.4      0.876    0.00052        19.
      85.41      1.951      0.002        11.
       85.5      5.586    0.00045        16.
      85.51      9.081    0.00052        19.
       85.6      2.627    0.00421
       85.7      1.313    0.00103         9.
      85.71      10.08    0.00121        11.
       85.8         0.    0.00323
      85.81      0.469    0.00045        22.
      85.82      3.728     0.0007        16.
      85.83      7.068    0.00025        24.
       85.9      3.047    0.00244
      85.91      7.332    0.00356
        86.      4.639    0.00228
       86.2      10.52    0.00227
       86.3      4.181    0.00219
      86.31      5.867    0.00123         8.
       86.4      5.264    0.00037        24.
       87.1      0.338    0.00137        15.
       87.3      1.192    0.00063        16.
       87.5         0.    0.00241
      87.51      1.951    0.00173
       87.6      8.482    0.00201
       87.7      1.681    0.00105        12.
        88.      0.469     0.0004        13.
      88.01      2.627     0.0039
      88.02      9.081    0.00073        12.
       88.1      5.586    0.00048        15.
      88.11      5.867    0.00131         8.
       88.2      0.876     0.0003        10.
       88.3      3.047    0.00227
       88.4      7.332    0.00304
       88.5      1.313    0.00112        11.
      88.51      3.728    0.00083         8.
       88.8      4.181    0.00149
      88.81      5.264    0.00054        20.
       88.9      10.08    0.00093
      88.91      10.52     0.0008        11.
        89.      4.639     0.0008        11.
       89.1      7.068    0.00059
       89.8      0.338    0.00097        11.
        90.      1.192     0.0005        12.
      90.01      1.951    0.00178
       90.2      3.047    0.00261
      90.21      4.639    0.00126
       90.3      3.728    0.00059        14.
      90.31      8.482    0.00099
       90.4      1.681    0.00082        11.
       90.5         0.    0.00101
       90.7      1.313    0.00054        11.
       90.8      0.469    0.00033        18.
      90.81      2.627     0.0043
        91.      7.332    0.00176
       91.2      0.876    0.00016        25.
       91.8      4.181    0.00231
        92.      1.192    0.00031        16.
       92.6      8.482    0.00133
       92.7         0.    0.00083
      92.71      1.681    0.00035        11.
      92.72      1.951    0.00149
       92.8      0.338    0.00155
       92.9      2.627    0.00398
      92.91      10.08    0.00087
        93.      0.469    0.00023        22.
      93.01      3.728    0.00033        18.
      93.02      9.081    0.00041        15.
       93.1      4.639    0.00157
       93.2      0.876    0.00016        19.
      93.21      1.313    0.00059        12.
      93.22      3.047    0.00159
      93.23      5.867    0.00106        15.
       93.3      5.586    0.00043         9.
       93.5      4.181    0.00237
       93.6      7.332    0.00208
       93.8      10.52    0.00103        11.
       93.9      7.068    0.00054        15.
       94.3      5.264    0.00062        19.
       94.7      1.192    0.00035        14.
       94.8      0.338    0.00106
       95.4      1.681    0.00035        11.
       97.5      0.469    0.00023        22.
       97.6      8.482    0.00052        12.
       97.8      1.951    0.00112         8.
        98.      1.313    0.00057        14.
      98.01      3.047    0.00137
      98.02      3.728    0.00059        14.
       98.1         0.    0.00179
      98.11      2.627    0.00287
      98.12      5.586     0.0002        25.
      98.13      5.867    0.00062        10.
      98.14      7.068    0.00019        21.
      98.15      7.332    0.00196
       98.3      0.876     0.0003        13.
       98.5      10.08    0.00045        13.
      98.51      10.52    0.00091         9.
       98.9      4.639    0.00105
       99.1      1.192    0.00012        25.
       99.5      0.338    0.00043        16.
      99.51      5.264    0.00073        12.
       99.6      4.181    0.00181
      100.1      3.047    0.00107
      100.2      2.627    0.00275
      100.4      1.681     0.0002        20.
      100.5      4.639    0.00081
      100.6         0.    0.00157
       101.      0.876    0.00016        19.
      101.8      4.181    0.00154        10.
      102.2      0.338    0.00039        18.
      102.3      2.627    0.00238
      102.7      0.876    0.00023        13.
      102.8         0.    0.00106
       103.      1.951    0.00066         8.
      103.1      0.469    0.00013        18.
      103.2      3.047    0.00096        10.
      103.3      1.313    0.00058
     103.31      7.332    0.00143
      103.9      4.181    0.00144         9.
      104.3      0.338    0.00061
      104.7      1.192    0.00016        13.
      105.2      1.313    0.00035        11.
      105.3         0.    0.00093
     105.31         0.    0.00093
     105.32      3.047     0.0011        10.
      105.4      2.627    0.00228
      105.5      0.876    0.00018        17.
     105.51      1.681    0.00024        13.
      105.6      7.332    0.00111         7.
      105.7      0.469    0.00042        12.
     105.71      1.951    0.00063        11.
      106.5      4.181    0.00168         8.
      106.6      4.639    0.00066        18.
      107.2      0.876    0.00017        24.
      107.4      1.192    0.00022        23.
      107.5         0.    0.00063        10.
     107.51      2.627    0.00171
     107.52      3.047    0.00096         9.
      107.8      1.313    0.00038        13.
     107.81      1.681    0.00015        27.
      107.9      0.338    0.00082        15.
     107.91      0.469    0.00042        12.
      108.2      1.951    0.00063        11.
      108.4      4.639    0.00085        13.
     108.41      7.332     0.0014         6.
      109.3      0.338    0.00062        13.
      109.4      4.181    0.00156         9.
      109.5      1.192    0.00035        20.
      109.6      1.951    0.00038        16.
       110.         0.     0.0004        18.
      110.2      0.876    0.00014        29.
     110.21      1.681    0.00024        17.
     110.22      2.627    0.00176
      110.3      1.313     0.0003        13.
      110.5      3.047    0.00095         8.
      110.7      7.332    0.00078         7.
      111.2      4.639    0.00082        12.
      111.3      4.181    0.00097         8.
      112.5         0.    0.00047        15.
     112.51      0.876    0.00016        19.
      112.7      0.469    0.00042        17.
     112.71      2.627    0.00175
      112.8      1.313    0.00038        16.
       113.      1.951    0.00056         9.
     113.01      7.332    0.00079         7.
      113.1      4.639    0.00039        13.
      113.2      3.047     0.0008         8.
      113.6      4.181    0.00102        11.
      114.2      1.192    0.00033        18.
      114.4      0.338    0.00049        12.
      114.8      1.951    0.00036        14.
      114.9      1.681    0.00012        24.
      115.1         0.     0.0005        16.
     115.11      0.876    0.00021        24.
     115.12      2.627    0.00127
      115.6      1.313     0.0005        18.
     115.61      3.047    0.00047        15.
      115.8      4.639     0.0005        20.
      116.5      4.181    0.00112         8.
       117.      0.338    0.00039        18.
ENDDATA            801
ENDSUBENT          836
ENDENTRY             2
