ENTRY            O1148   20040411
SUBENT        O1148001   20040411
BIB                 12         30
TITLE       Al-27(d,He3)Mg-26 reaction at 29-MeV.
AUTHOR     (J.Vernotte, G.Berrier-Ronsin, S.Fortier, E.Hourani,
           J.Kalifa, J.M.Maison, L.H.Rosier, G.Rotbard,
           B.H.Wildenthal)
INSTITUTE  (2FR PAR)
           (1USANMX)
REFERENCE  (J,PR/C,48,205,1993)
HISTORY    (20040319C)
           (20040411U) Last checking has been done.
SAMPLE     The self-supporting target was prepared by in vacuum
           evaporation of aluminium metal. The number of aluminum
           nuclei corresponds to a target thickness of 39 +/-3
           mg/cm**2.
ADD-RES    (COMP) DWBA Analysis. Shell-model calculations.
           Spectrum of the Al-27(d,He3)Mg-26 reaction at angle
           10-degree is presented.
           (STRUC) New J-Pi  assigments. Spectroscopic factors.
DETECTOR   (MAGSP) An ENGE split-pole magnetic spectrograph.
FACILITY   (VDGT,2FR PAR) Orsay MP tandem.
METHOD     (BCINT)
ERR-ANALYS The accuracy asigned to cross sections is obtained by
           combining the uncertainties:
           (ERR-1) In the number of aluminum nuclei.
           (ERR-2) In the solid angle,
           (ERR-3) In integrated charge with the counting
           statistics.
           (E-EXC-ERR) Error in excitation energy.
           (ERR-DIG).Data-point reader uncertainty.
           (ANG-ERR-D).Data-point reader uncertainty.
STATUS     (CURVE).By CAJAD.
ENDBIB              30
COMMON               5          3
EN         E-EXC-ERR  ERR-1      ERR-2      ERR-3
MEV        KEV        PER-CENT   PER-CENT   PER-CENT
        29.         5.         6.         4.         1.
ENDCOMMON            3
ENDSUBENT           37
SUBENT        O1148002   20040411
BIB                  4          9
REACTION   (13-AL-27(D,HE3)12-MG-26,PAR,DA) Fig 2, 7, 8
EN-SEC     (E-LVL,12-MG-26)
ERR-ANALYS (DATA-ERR) The uncertainty is shown by authors on
           figures.
COMMENT    - By authors.  Presented data for 6.622-MeV level are
           data for the doublet E-LVL = 6.622-MeV and E-LVL =
           6.634-MeV states.
           Presented data for 4.318-MeV level are data for the
           doublet e-lvl = 4.318-MeV and e-lvl = 4.332-MeV states.
ENDBIB               9
COMMON               2          3
ANG-ERR-D  ERR-DIG
ADEG       PER-CENT
       0.21         3.
ENDCOMMON            3
DATA                 4        400
E-LVL      ANG-CM     DATA-CM    DATA-ERR
MEV        ADEG       MB/SR      PER-CENT
         0.       5.81      0.792
         0.       9.88       0.92
         0.      14.29       1.03
         0.      18.54      0.711
         0.      23.14      0.245
         0.      27.75      0.103
         0.      31.97      0.185
         0.      36.38      0.196
         0.       40.8      0.114
         0.      45.41     0.0365
      1.809        6.1       1.81
      1.809       10.3       1.79
      1.809       14.6       2.29
      1.809       18.4       1.98
      1.809       23.9       0.83
      1.809       28.9      0.234
      1.809       32.7       0.39
      1.809        37.      0.437
      1.809       41.6        0.3
      1.809        46.      0.085
      2.938        6.8      0.567
      2.938        11.      0.331
      2.938       15.6      0.375
      2.938       19.9      0.397
      2.938       24.2      0.203
      2.938      28.92     0.0589
      2.938       33.2     0.0625
      2.938       37.5      0.102
      2.938       41.8      0.078
      2.938       46.1     0.0347
      3.589        6.3    0.00451         5.
      3.589       11.1    0.00544
      3.589       15.4     0.0093
      3.589       19.5    0.00706
      3.589        24.    0.00403         5.
      3.589       28.7    0.00211         7.
      3.589       32.6    0.00263         8.
      3.589       37.2    0.00163        18.
      3.589       41.7    0.00121        35.
      3.589       46.2    0.00071        12.
      3.941       6.32       0.09
      3.941       20.4     0.0341
      3.941       24.9     0.0174
      3.941      28.93    0.00634
      3.941       33.3       0.01
      3.941       37.8     0.0102
      3.941       41.9     0.0065
      3.941       46.4    0.00463
      4.318        4.6        2.3
      4.318       10.2       1.85
      4.318        14.       2.86
      4.318       18.3       2.74
      4.318       22.7        1.2
      4.318       27.1      0.347
      4.318       40.1       0.46
      4.318       44.8      0.143
       4.35        4.7       1.22
       4.35        9.9      0.352
       4.35       14.8      0.137
       4.35       19.4      0.244
       4.35       23.1      0.162
       4.35       28.5     0.0398
       4.35        41.     0.0462
       4.35       45.5     0.0398
      4.834        5.5       1.62
      4.834       10.6      0.472
      4.834      14.82      0.134
      4.834       19.6      0.272
      4.834       24.1      0.175
      4.834       27.7     0.0324
      4.834       32.4      0.049
      4.834       37.1      0.107
      4.834       40.8      0.087
      4.834      45.54     0.0375
        4.9        6.7     0.0128
        4.9       11.2     0.0099
        4.9       15.8     0.0165
        4.9       20.1     0.0172
        4.9       24.4     0.0142
        4.9        29.     0.0107
        4.9       33.1     0.0084
        4.9       37.6     0.0084
        4.9       42.4    0.00637
        4.9       46.5    0.00542
      4.972        6.9     0.0039
      4.972       11.4    0.00104        60.
      4.972      15.82    0.00241        10.
      4.972       20.5    0.00138        55.
      4.972       24.8    0.00109        65.
      4.972       29.2    0.00064        65.
      4.972       33.7     0.0013        27.
      4.972      37.85    0.00069        70.
      5.291         6.      0.244
      5.291      10.64       0.07
      5.291       15.3     0.0189
      5.291      19.45     0.0321
      5.291       23.6     0.0249
      5.291      28.55     0.0074
      5.291       32.8     0.0139
      5.291       37.7     0.0244
      5.291       41.4     0.0177
      5.291       46.3     0.0101
      5.474       5.96     0.0856
      5.474      10.53      0.116
      5.474      15.43      0.185         5.
      5.474      19.84      0.184
      5.474       24.1      0.093
      5.474       28.7     0.0358
      5.474      32.94     0.0398         5.
      5.474      37.69     0.0452
      5.474       42.1     0.0335
      5.474       46.7     0.0148         5.
       5.69        5.9     0.0089         6.
       5.69       10.5     0.0139
       5.69       14.9     0.0299
       5.69       19.1     0.0254
       5.69      24.11     0.0131
       5.69      28.75     0.0048         6.
       5.69      33.12    0.00385         6.
       5.69       37.9    0.00535
       5.69      41.91    0.00455
       5.69      46.53    0.00259         7.
      5.716        7.7     0.0145
      5.716       11.6     0.0281
      5.716        16.      0.043
      5.716       20.2     0.0426
      5.716       25.2     0.0221
      5.716       29.8     0.0108
      5.716       34.2     0.0085         6.
      5.716      37.93     0.0119
      5.716       42.8     0.0115
      5.716       47.6     0.0082
      6.125        4.8      0.302
      6.125        9.6      0.108
      6.125      14.92     0.0536
      6.125        19.      0.069
      6.125      24.13     0.0432
      6.125       27.9      0.016
      6.125      32.82     0.0206
      6.125       36.8     0.0294
      6.125      41.75     0.0247
      6.125       45.3     0.0112
      6.622        8.8    0.00572
      6.622       12.7     0.0131
      6.622       17.5     0.0194
      6.622       21.9     0.0157
      6.622       26.3     0.0104
      6.622       30.9    0.00564
      6.622       35.5    0.00343        12.
      6.622       39.9    0.00622
      6.622       44.3    0.00449         7.
      6.622       48.5    0.00409
      6.745        5.4     0.0126
      6.745       9.94     0.0092
      6.745      14.62     0.0091
      6.745       19.7     0.0081
      6.745       23.7    0.00523
      6.745       28.3    0.00267
      6.745      32.75    0.00418
      6.745       37.3     0.0035         7.
      6.745       42.2    0.00178         7.
      6.745      46.25    0.00201         7.
      6.878       5.91     0.0162
      6.878        10.      0.047
      6.878       14.4     0.0223
      6.878      19.62     0.0091
      6.878      24.05    0.00473         6.
      6.878       28.1    0.00547         5.
      6.878      33.15     0.0067
      6.878       37.4     0.0069
      6.878        42.    0.00358
      6.878       45.7    0.00239         5.
      6.978        9.2     0.0083
      6.978       13.8     0.0173
      6.978        18.     0.0222
      6.978       22.1     0.0269
      6.978       27.2     0.0133
      6.978       31.8     0.0088
      6.978        36.    0.00599
      6.978       40.6     0.0086
      6.978       44.9     0.0078
      6.978       49.3    0.00502
        7.1       9.61      0.013
        7.1      14.01     0.0259
        7.1       18.6     0.0344
        7.1        23.     0.0386
        7.1       27.6     0.0274
        7.1       32.9     0.0123
        7.1      37.06     0.0103         6.
        7.1       41.2     0.0113
        7.1       45.8     0.0098
        7.1       50.4    0.00617         5.
      7.242       6.05      0.182
      7.242      10.01      0.089
      7.242      15.45      0.066
      7.242       20.3      0.074
      7.242      24.15     0.0453
      7.242       29.4      0.017
      7.242      33.24      0.018
      7.242       38.4     0.0231
      7.242       42.5     0.0208
      7.242        47.     0.0119
      7.369        5.3     0.0135         6.
      7.369      10.21     0.0188
      7.369       14.2     0.0286
      7.369       18.8     0.0291
      7.369       23.8     0.0125
      7.369      27.92     0.0074
      7.369       32.2      0.008
      7.369       36.7     0.0072
      7.369       40.9    0.00478
      7.369      45.85    0.00218         7.
      7.395       6.35      0.016
      7.395       10.7     0.0294
      7.395       15.2     0.0526
      7.395       19.8     0.0508
      7.395      24.85     0.0317
      7.395      28.94     0.0181
      7.395      33.32     0.0197         6.
      7.395       38.1     0.0147
      7.395       42.3     0.0134
      7.395      46.56     0.0115         6.
      7.677        12.     0.0211
      7.677      15.84     0.0431
      7.677      20.45     0.0368
      7.677      25.25      0.021
      7.677       29.3     0.0098
      7.677       33.5     0.0094
      7.677       38.2     0.0093
      7.677       42.9     0.0092
      7.677       47.7    0.00479
      7.694       10.9      0.089
      7.694       15.7     0.0579
      7.694      20.12     0.0245
      7.694       25.1      0.011
      7.694       29.5     0.0168
      7.694      33.52     0.0178
      7.694       38.6     0.0127         5.
      7.694       42.7     0.0071         5.
      7.694       47.2    0.00358         5.
      7.724       16.6     0.0269
      7.724       20.8     0.0251
      7.724       25.4     0.0145
      7.724       30.2     0.0079
      7.724       34.4     0.0107
      7.724       38.7     0.0115
      7.724       43.1     0.0096
      7.724       47.9    0.00456
      7.773       21.6     0.0087
      7.773       26.2     0.0077
      7.773       30.7    0.00436
      7.773       35.4    0.00365         7.
      7.773       39.4    0.00363         6.
      7.773       43.9    0.00439         6.
      7.773       48.1    0.00378         6.
       7.82        6.6      0.318
       7.82       11.5      0.537
       7.82      20.85      0.188
       7.82      24.95     0.0669
       7.82       30.3      0.083
       7.82       34.7      0.108
       7.82       38.3      0.074
       7.82       43.6     0.0345
       7.82      47.75     0.0192
       8.05        8.2     0.0324
       8.05       12.8     0.0471         6.
       8.05       17.8     0.0316
       8.05       22.2     0.0145
       8.05       30.8     0.0083
       8.05       35.1     0.0114
       8.05       39.5     0.0084
       8.05       44.5    0.00433
       8.05       48.4    0.00283         6.
      8.201       5.32     0.0204         6.
      8.201        9.7     0.0279         6.
      8.201      14.25     0.0267         6.
      8.201      18.59     0.0275         6.
      8.201      23.35     0.0252         6.
      8.201      32.25     0.0256         5.
      8.201      36.87     0.0187         5.
      8.201       41.2     0.0169         5.
      8.201      45.62    0.01406         5.
      8.248       5.48     0.0286         7.
      8.248       9.89     0.0225         7.
      8.248      14.52      0.024         7.
      8.248      18.71     0.0228         7.
      8.248      23.44    0.01118         9.
      8.248      32.15    0.00715         9.
      8.248      36.77    0.00659         9.
      8.248      40.86    0.00491         9.
      8.248      45.27    0.00486         9.
      8.456        5.8    0.00668         7.
      8.456      10.02     0.0114
      8.456      14.24      0.013
      8.456      19.65     0.0099
      8.456      23.65    0.00587
      8.456      27.94     0.0039         6.
      8.456       36.9    0.00569
      8.456       41.1    0.00185         7.
      8.456       45.9    0.00168         9.
      8.472       5.62    0.01183         7.
      8.472      10.11     0.0167         7.
      8.472      14.56     0.0166         7.
      8.472      19.11     0.0167         7.
      8.472      23.34     0.0165         7.
      8.472      27.78     0.0155         5.
      8.472      36.75    0.01209         5.
      8.472       41.3    0.01084         5.
      8.472      45.73    0.01001         5.
      8.703        5.6     0.0222
      8.703      10.22     0.0402
      8.703      14.64     0.0474
      8.703       18.7      0.043
      8.703       23.2     0.0245
      8.703      27.96     0.0157
      8.703       32.5     0.0156
      8.703       40.7     0.0144
      8.703       45.4     0.0087
       8.86       4.81    0.00171        50.
       8.86        9.3    0.00485         8.
       8.86       13.9    0.00526
       8.86      18.75    0.00657
       8.86      23.05    0.00537
       8.86       27.3     0.0033
       8.86       32.3    0.00338
       8.86       35.9     0.0031
       8.86        45.    0.00156         9.
      8.902        6.2     0.0086
      8.902      10.23     0.0126
      8.902      14.84     0.0118
      8.902      19.85    0.00678         5.
      8.902       24.5    0.00208         8.
      8.902       29.1    0.00225         8.
      8.902      33.54    0.00321         7.
      8.902      37.95    0.00191         8.
      8.902       46.6    0.00206         8.
      9.042       6.75      0.113
      9.042        7.5      0.128
      9.042      11.66      0.178         5.
      9.042       11.8      0.201
      9.042      15.57      0.141
      9.042      16.65      0.162
      9.042       20.5     0.0629
      9.042      21.91      0.069
      9.042       25.1      0.032         5.
      9.042      26.35     0.0349
      9.042      29.51     0.0318
      9.042       30.6     0.0381
      9.042      33.75     0.0352
      9.042      34.45     0.0416
      9.042      38.34     0.0261         5.
      9.042        39.     0.0296
      9.042      42.93     0.0149         4.
      9.042       43.4     0.0165
      9.064       5.61     0.0181
      9.064      10.03     0.0257
      9.064      14.03       0.03
      9.064      18.33     0.0228
      9.064      22.72     0.0098
      9.064      27.35     0.0121
      9.064       31.6     0.0103
      9.064       36.1     0.0083
      9.064       40.2    0.00532
      9.239       8.85     0.0279
      9.239      13.85     0.0323         6.
      9.239       17.7     0.0245         6.
      9.239      22.76      0.015
      9.239       27.5     0.0084
      9.239       31.4     0.0097
      9.239       36.2     0.0094
      9.239       40.5     0.0083
      9.239      44.94    0.00542         5.
      9.471        4.9     0.0129
      9.471       9.65     0.0177
      9.471       13.7     0.0251
      9.471      18.35      0.024
      9.471       22.8     0.0143
      9.471      27.36     0.0109
      9.471       31.7     0.0127
      9.471       35.7     0.0089
      9.471       40.4    0.00559
      9.471       45.2    0.00505
      9.618      11.05     0.0222
      9.618      15.86     0.0315
      9.618      19.55     0.0253
      9.618      24.16     0.0125
      9.618      28.76     0.0075
      9.618      33.72     0.0096
      9.618        38.      0.008
      9.618       46.9    0.00527
      9.618       51.7    0.00353
      9.681       4.91     0.0087
      9.681        8.6     0.0117
      9.681       14.1     0.0136
      9.681      17.81     0.0132
      9.681      22.78     0.0081
      9.681       27.4    0.00472
      9.681       31.3    0.00481
      9.681      35.95    0.00547
      9.681       44.7    0.00274
ENDDATA            402
ENDSUBENT          420
ENDENTRY             2
