ENTRY            O1155   20040425
SUBENT        O1155001   20040425
BIB                 13         28
TITLE      Study of Ge-72 with the Ga-71(He3,d)Ge-72 reaction.
AUTHOR     (D.Ardouin, R.Tamisier, G.Berrier, J.Kalifa, G.Rotbard,
           M.Vergnes)
INSTITUTE  (2FR PAR)
           (2FR FR) Physical institute of Nantes.
REFERENCE  (J,PR/C,11,1649,1975)
HISTORY    (20040331C)
           (20040425U) Last checking has been done.
SAMPLE     The target was prepared by evaporating enriched
           Ga(2)-O(3), 99.80% Ga-71.
ADD-RES    (COMP) DWBA calculations.
           (POT) Optical potential parameters.
           (STRUC) Spin-parity, spectroscopic factors.
           Spectrum of the Ga-71(He3,d)Ge-72 reaction at
           21 degree is presented.
DETECTOR   (MAGSP) A split-pole magnetic spectrograph.
           (PSSSD) Three solid-state position-sensitive detectors
           in the focal plane of a split-pole magnetic
           spectrometer.
FACILITY   (VDGT,2FR PAR) Orsay MP tandem.
METHOD     (SITA)
INC-SPECT   EN-RSL-FW  The overall energy resolution was 18-KeV
           full width half-maximum FWHM .
ERR-ANALYS (ERR-S).The statistical errors is shown by authors
           on figures.
           (ERR-DIG).Digitizing error of data.
           (ANG-ERR-D).Digitizing error of angle.
STATUS     (CURVE).By CAJAD.
ENDBIB              28
COMMON               2          3
EN         EN-RSL-FW
MEV        KEV
        25.        18.
ENDCOMMON            3
ENDSUBENT           35
SUBENT        O1155002   20040425
BIB                  3          7
REACTION   (31-GA-71(HE3,D)32-GE-72,PAR,DA) Figure 2
MONITOR    (31-GA-71(HE3,EL)31-GA-71,,DA) Absolute cross sections
           were obtained by comparing the 25 MeV He-3 elastic
           scattering data, measured at 12 and 16 degrees, with
           the Rutherford cross section and are accurate to about
           20%.
EN-SEC     (E-EXC,32-GE-72)
ENDBIB               7
COMMON               2          3
ANG-ERR-D  ERR-DIG
ADEG       PER-CENT
        0.5        2.8
ENDCOMMON            3
DATA                 4        659
E-EXC      ANG-CM     DATA-CM    ERR-S
MEV        ADEG       MB/SR      PER-CENT
         0.        4.9       1.41
         0.        9.4       1.64
         0.       13.6      0.614
         0.       18.5      0.248
         0.      21.71      0.524
         0.       26.4      0.431
         0.       30.9      0.147
         0.       34.9      0.138
         0.        39.       0.14
         0.       43.3     0.0865
         0.       47.3     0.0555
         0.       65.3     0.0125
       0.69        6.6      1.034
       0.69        11.        1.3
       0.69       15.9      0.476
       0.69       19.8      0.175
       0.69        23.      0.398
       0.69       26.6      0.321
       0.69       31.9      0.115
       0.69       35.2     0.0897
       0.69       39.3       0.11
       0.69       44.3     0.0642
       0.69       47.9     0.0411
       0.69      65.31      0.011
      0.835        7.2      0.239
      0.835       10.2      0.267
      0.835       14.5      0.108
      0.835       19.1     0.0557
      0.835       23.6     0.0914
      0.835       27.5     0.0608
      0.835       31.8     0.0236
      0.835       36.3     0.0254
      0.835       40.6       0.03
      0.835       43.9     0.0165
      0.835       48.5    0.00821
      0.835       66.3    0.00374
      1.465       7.21     0.0538
      1.465      11.01     0.0949
      1.465       15.3     0.0389
      1.465       20.9     0.0139
      1.465       24.4      0.025
      1.465       28.4     0.0221
      1.465        33.     0.0079
      1.465       36.4    0.00784
      1.465       40.9     0.0112         4.
      1.465       44.5    0.00505
      1.465       49.1     0.0023        13.
      1.725       11.7     0.0057        21.
      1.725      15.31     0.0131         7.
      1.725       19.6     0.0097        13.
      1.725       23.7     0.0083        12.
      1.725       27.7      0.005        12.
      1.725       32.7     0.0027        22.
      1.725      36.41     0.0035        20.
      1.725       40.5     0.0032        19.
      1.725       44.9     0.0022        23.
      1.725       48.6     0.0026        23.
      1.725       66.1    0.00094        21.
      2.029        3.8       0.01        40.
      2.029        8.3      0.015        20.
      2.029       12.6     0.0112        14.
      2.029       16.9      0.002        25.
      2.029       21.6     0.0058        10.
      2.029       25.4     0.0065        14.
      2.029       29.7     0.0041        17.
      2.029       33.7     0.0013        40.
      2.029       38.2     0.0016        25.
      2.029       40.8     0.0011        27.
      2.029       46.1    0.00082        24.
      2.029       63.5     0.0003        27.
      2.062        8.5      0.045        20.
      2.062       12.5     0.0308         9.
      2.062       17.9     0.0283         6.
      2.062       21.9     0.0237        10.
      2.062       26.2     0.0149         4.
      2.062       30.8     0.0114        10.
      2.062       34.5     0.0074         7.
      2.062       38.9      0.008         6.
      2.062       42.9     0.0057         5.
      2.062       46.8     0.0042        10.
      2.062       63.7     0.0011        15.
      2.404       13.8      0.184
      2.404       17.3     0.0895
      2.404       22.2      0.166
      2.404       26.5      0.117
      2.404       30.2     0.0472
      2.404       34.3     0.0452
      2.404       38.4     0.0514
      2.404       42.6     0.0344
      2.404      46.11     0.0167
      2.404      63.51    0.00711
      2.466        9.3     0.0245        11.
      2.466        18.     0.0539
      2.466        22.     0.0396
      2.466       26.3     0.0255         4.
      2.466       30.1     0.0131         4.
      2.466      34.31      0.018         6.
      2.466       38.5     0.0104         5.
      2.466       43.2     0.0065        12.
      2.466      46.81     0.0055         9.
      2.466       63.1    0.00191        10.
      2.516       9.41      0.079
      2.516      18.01      0.108
      2.516      21.72      0.128
      2.516       26.8      0.109
      2.516        31.      0.059
      2.516      34.32     0.0434
      2.516       39.4     0.0552
      2.516        43.     0.0429
      2.516       47.6      0.025
      2.516       63.6     0.0126
      2.754        5.6      0.461
      2.754       9.31      0.535
      2.754       13.5       0.27
      2.754       17.4      0.126
      2.754       21.5      0.198
      2.754      26.21      0.149
      2.754       30.4     0.0655
      2.754       34.1      0.053
      2.754      38.51     0.0704
      2.754       42.1     0.0437
      2.754       46.7     0.0251
      2.754        63.    0.00859         6.
      2.897         5.     0.0285        17.
      2.897        9.8     0.0396         5.
      2.897       13.3     0.0225         5.
      2.897      21.51     0.0096        17.
      2.897       25.3     0.0141        12.
      2.897       30.3      0.004        17.
      2.897      33.61     0.0035        14.
      2.897       37.8     0.0062        15.
      2.897       41.7     0.0031        16.
      2.897       45.6     0.0023        22.
      2.897       62.8    0.00078        21.
      2.949         6.      0.427
      2.949       9.81      0.556
      2.949        14.      0.322
      2.949       19.3      0.183
      2.949       23.4      0.238
      2.949       27.3      0.158
      2.949       31.3     0.0933
      2.949       34.6     0.0723
      2.949      39.01     0.0839
      2.949      43.31     0.0567
      2.949      47.61     0.0322
      2.949       64.9     0.0122
      3.034       6.61       1.61
      3.034       10.7       2.14
      3.034       14.3      1.028
      3.034      23.01      0.706
      3.034       27.6       0.58
      3.034       32.2      0.229
      3.034       35.8      0.175
      3.034       39.6      0.246
      3.034       44.6      0.183
      3.034       48.1     0.0879
      3.034       64.4     0.0306
      3.073        7.1     0.1032
      3.073       11.6      0.144
      3.073       15.7      0.294
      3.073       19.5      0.388
      3.073       23.8      0.313
      3.073      27.71      0.147
      3.073        32.     0.0844
      3.073       36.1      0.113
      3.073       39.7     0.0918
      3.073        44.     0.0626
      3.073       48.3     0.0419
      3.073       64.6     0.0143
      3.094        4.2      0.766
      3.094         9.      1.017
      3.094      12.61      0.575
      3.094       16.6      0.503
      3.094       20.4      0.553
      3.094        25.      0.385
      3.094       29.2      0.164
      3.094       33.3       0.18
      3.094        37.       0.19
      3.094      41.71       0.12
      3.094      45.61     0.0681
      3.094       61.3     0.0278
      3.179       4.21      0.024        17.
      3.179        10.     0.0385         6.
      3.179       12.9     0.0779
      3.179       16.7       0.11
      3.179        21.     0.0903
      3.179       25.5     0.0518
      3.179      29.71     0.0241
      3.179       33.8     0.0353
      3.179       38.1     0.0259
      3.179      42.61     0.0184
      3.179       44.2     0.0143
      3.179       61.8    0.00816         5.
      3.223       4.91      0.521
      3.223        9.6      0.639
      3.223       14.2      0.303
      3.223       17.5      0.149
      3.223       22.3      0.213
      3.223      26.61        0.2
      3.223       30.5     0.0769
      3.223      35.21      0.062
      3.223       38.6     0.0807
      3.223      43.01     0.0639
      3.223       46.6      0.034
      3.223       63.2     0.0129
      3.224        4.4     0.0934
      3.224        8.7     0.0895
      3.224      12.91     0.0576
      3.224       17.8     0.0307         4.
      3.224       21.1     0.0311         5.
      3.224       25.8     0.0282         6.
      3.224       28.7     0.0196
      3.224       33.5     0.0115         9.
      3.224       37.6     0.0136         5.
      3.224       41.5     0.0084
      3.224       45.4     0.0068         7.
      3.224       61.9     0.0024        12.
      3.357        5.9      0.499
      3.357      10.01      0.663
      3.357      14.01      0.352
      3.357      17.81      0.138
      3.357      23.02       0.21
      3.357        26.      0.187
      3.357      30.91     0.0919         5.
      3.357       34.2     0.0591
      3.357        38.     0.0757
      3.357      43.32     0.0515         5.
      3.357      46.61     0.0325
      3.357      63.21    0.00882
      3.422        5.2      0.595
      3.422        9.9      0.707
      3.422      14.02      0.322
      3.422       18.1      0.184
      3.422       21.8      0.223
      3.422      26.22      0.188
      3.422       30.6      0.079
      3.422      33.31     0.0805         5.
      3.422      38.11      0.082
      3.422      42.11     0.0527
      3.422      48.11     0.0333
      3.422       60.2    0.00515        12.
      3.436       5.21      0.154
      3.436        9.5      0.197
      3.436       13.9      0.234
      3.436       17.6      0.243
      3.436      21.73      0.216
      3.436      26.41      0.114
      3.436      30.92     0.0807
      3.436      35.22     0.0762
      3.436      39.02      0.072
      3.436       43.1     0.0448
      3.436      46.82     0.0284
      3.436       64.5     0.0052        10.
      3.468        5.8     0.0548
      3.468      10.21     0.0685
      3.468      14.51      0.096
      3.468      17.91      0.109
      3.468      22.31     0.0953
      3.468      27.72     0.0517
      3.468       31.1     0.0443
      3.468      35.23     0.0332
      3.468      39.31     0.0235         4.
      3.468       43.4     0.0157        10.
      3.468       47.4     0.0148         9.
      3.506       10.1       0.59        19.
      3.506       14.6      0.386
      3.506        19.      0.253
      3.506       23.3      0.277
      3.506       27.4        0.2
      3.506      32.21     0.0982
      3.506       35.9      0.089
      3.506       40.3     0.0887
      3.506       44.4     0.0677
      3.506      48.51     0.0327
      3.506      64.41     0.0132
      3.565       10.6     0.1009
      3.565      15.32      0.116
      3.565       18.3      0.128
      3.565       22.7     0.0996
      3.565      25.41     0.0719
      3.565       27.8     0.0561
      3.565       31.2      0.052
      3.565       35.3     0.0406
      3.565      39.71     0.0363
      3.565       44.8     0.0216
      3.565       47.8     0.0162        11.
      3.565       64.8    0.00664
      3.614      10.22       1.15
      3.614       14.1      0.494
      3.614      19.11      0.201
      3.614      21.91      0.307
      3.614      26.62       0.32
      3.614      30.51      0.138
      3.614       35.7     0.0762
      3.614      39.61     0.1059
      3.614      43.02      0.086
      3.614      47.81     0.0449
      3.614      64.51     0.0138
      3.662      11.02       0.88
      3.662      15.91      0.445
      3.662       20.5      0.186
      3.662      23.31      0.311
      3.662      27.73      0.272
      3.662       32.3      0.123
      3.662        36.     0.0841
      3.662        40.     0.0944
      3.662      44.01     0.0828
      3.662      48.61     0.0426
      3.662       65.9     0.0154
      3.691       10.4      0.233
      3.691      15.33      0.126
      3.691       20.3     0.0484
      3.691      23.61     0.0724
      3.691      27.31     0.0724
      3.691      32.31     0.0317
      3.691       36.2     0.0225         5.
      3.691      40.51     0.0233         4.
      3.691      44.21      0.022         4.
      3.691       48.8     0.0104         7.
      3.691      65.91     0.0058         5.
      3.777       13.7      0.414
      3.777       18.6      0.222
      3.777      22.71      0.131
      3.777      26.42      0.137
      3.777      30.41      0.123
      3.777      34.33     0.0552
      3.777       38.7     0.0442
      3.777       42.7      0.046
      3.777       47.1     0.0354
      3.777       50.6     0.0168
      3.777       66.8    0.00973
      3.815       14.8     0.0271
      3.815       18.7     0.0399
      3.815      22.72     0.0424
      3.815       27.9     0.0648
      3.815      32.01     0.0386
      3.815       35.6     0.0189         5.
      3.815      39.62     0.0162         7.
      3.815      43.33     0.0137         4.
      3.815        47.     0.0129         4.
      3.815       51.5    0.00698         4.
      3.815       67.7    0.00394         5.
      3.867       9.61      0.159
      3.867      13.61       0.09
      3.867       17.2     0.0628
      3.867       21.3      0.055
      3.867       25.6     0.0422
      3.867        30.      0.033
      3.867      33.62     0.0248
      3.867       41.6     0.0126
      3.867      46.62    0.00725         5.
      3.867       62.7    0.00411         8.
      3.895        8.9       0.72
      3.895      13.91      0.447
      3.895      17.61       0.33
      3.895       20.7      0.377
      3.895       25.7        0.3
      3.895       29.6      0.127
      3.895      33.32      0.114
      3.895       37.4       0.13
      3.895       41.4     0.1012
      3.895      45.62     0.0482
      3.895       62.4     0.0179
      3.975        5.1      0.153
      3.975        8.4      0.126
      3.975       12.8      0.144
      3.975       16.3      0.168
      3.975       20.6      0.117
      3.975       24.9     0.0626
      3.975       28.5      0.049         6.
      3.975      37.01     0.0414
      3.975      40.61     0.0248
      3.975       45.3     0.0191
      3.975       61.4    0.00831
      4.002        8.2      0.273
      4.002       11.5      0.163
      4.002       15.4      0.082
      4.002      19.61      0.107
      4.002      23.62     0.0855
      4.002      27.81      0.039
      4.002       31.5     0.0362
      4.002      37.02     0.0415
      4.002      40.31     0.0324
      4.002      44.31     0.0221
      4.002        62.    0.00735
      4.047       6.62       2.21
      4.047       10.9       1.17
      4.047       15.8      0.521
      4.047      19.62      0.753
      4.047        24.      0.671
      4.047      27.51      0.304
      4.047      31.21      0.203
      4.047       37.3      0.256
      4.047      40.01       0.22
      4.047       43.6      0.119
      4.047        60.     0.0389
      4.092        8.8      0.218
      4.092      12.51       0.13
      4.092      17.51     0.0619
      4.092      21.31     0.0872
      4.092      25.42     0.0872
      4.092       29.1     0.0465
      4.092      33.51     0.0399
      4.092      37.61      0.037
      4.092        41.     0.0349
      4.092      46.71      0.016
      4.092       63.3    0.00641
      4.147       8.81      0.233
      4.147      13.81     0.0943
      4.147       16.8     0.0491
      4.147      20.91     0.0692
      4.147      25.71     0.0539
      4.147      29.72     0.0259
      4.147       33.4     0.0202
      4.147       37.2     0.0231
      4.147      41.61     0.0222
      4.147       46.3     0.0115
      4.147      63.31    0.00465
      4.171        7.7       0.53
      4.171      11.71      0.288
      4.171      17.41      0.145
      4.171      21.61      0.185
      4.171       24.3      0.165
      4.171       28.6     0.0815
      4.171      32.32     0.0526
      4.171       36.8     0.0611
      4.171       41.2     0.0622
      4.171      45.63     0.0332
      4.171      63.52    0.00013
      4.224      11.03     0.0652
      4.224        15.     0.0793
      4.224      19.51     0.0472
      4.224       23.9     0.0414
      4.224      27.91     0.0329
      4.224       32.4     0.0216         4.
      4.224      36.42     0.0193
      4.224       39.5     0.0131
      4.224      44.91     0.0163
      4.224      48.31    0.00968
      4.224      65.92     0.0028        14.
      4.245       11.9     0.0573
      4.245        16.     0.0706
      4.245        20.     0.0652
      4.245      23.71     0.0559
      4.245       28.8     0.0314
      4.245       32.9     0.0218        13.
      4.245      37.03     0.0222         5.
      4.245      40.02     0.0173        10.
      4.245       45.1      0.012
      4.245       49.2    0.00701
      4.245       66.5    0.00392         5.
       4.29        4.6      0.302
       4.29       8.91      0.357
       4.29      13.31      0.211
       4.29       17.1      0.146
       4.29      21.74      0.157
       4.29       25.2      0.113
       4.29       29.9     0.0666
       4.29      33.41      0.047
       4.29      38.12     0.0599
       4.29       41.8     0.0391
       4.29      46.12     0.0191
       4.29       62.2    0.00804
      4.315       5.91     0.0651
      4.315      10.61     0.0712
      4.315      14.31     0.0386
      4.315      19.12     0.0278         5.
      4.315      21.11     0.0272
      4.315      26.01     0.0215
      4.315      30.11     0.0119
      4.315      33.63    0.00888
      4.315      37.62     0.0094         6.
      4.315       42.4    0.00686
      4.315      46.31     0.0051         8.
      4.315      62.41    0.00143        17.
       4.33       5.92     0.0893
       4.33       9.82     0.0825
       4.33       22.4     0.0755
       4.33      25.51     0.0469
       4.33      29.61     0.0291
       4.33      33.64      0.029
       4.33       37.9     0.0278
       4.33        42.     0.0186
       4.33       45.9     0.0162         6.
       4.33      61.91     0.0073         8.
      4.374       4.92      0.126
      4.374       9.91      0.113
      4.374      12.81      0.093
      4.374      18.02     0.0717
      4.374      21.92     0.0673
      4.374      25.52     0.0541
      4.374      30.21       0.03
      4.374      33.42     0.0223         5.
      4.374      37.41      0.025         4.
      4.374      40.91     0.0156        12.
      4.374       45.5     0.0135        10.
      4.374      62.01     0.0107         5.
      4.419       4.22     0.0945
      4.419       8.21     0.0888
      4.419        13.     0.0673
      4.419       16.5     0.0437
      4.419      20.41     0.0403
      4.419      25.31     0.0323
      4.419      29.11     0.0187         5.
      4.419      32.71     0.0153        11.
      4.419       36.9     0.0136        12.
      4.419       40.7    0.00918
      4.419       44.7     0.0095         5.
      4.419       61.5     0.0064        11.
      4.453        4.7      0.129
      4.453        9.7       0.11
      4.453      14.03     0.0926
      4.453       17.7      0.109
      4.453       20.8      0.118
      4.453      25.81     0.0916
      4.453      30.61     0.0538
      4.453      33.82     0.0404
      4.453       38.3     0.0403
      4.453      41.21     0.0326
      4.453      45.91     0.0285
      4.453      61.41    0.00034         7.
      4.483         4.     0.0506
      4.483        9.2     0.0629
      4.483      13.82     0.0419
      4.483      16.81     0.0365
      4.483       21.2     0.0414
      4.483      25.82     0.0287
      4.483      30.42     0.0181
      4.483      34.61     0.0114
      4.483      38.01     0.0124
      4.483      41.62    0.00023
      4.483      46.32    0.00941         5.
      4.483       62.5    0.00288         7.
      4.512        5.4     0.0768
      4.512        8.6     0.0475
      4.512      14.32      0.049
      4.512      17.71     0.0526
      4.512      21.12     0.0485
      4.512      26.02     0.0376
      4.512        29.     0.0271
      4.512       33.2     0.0207
      4.512       39.2      0.016
      4.512       42.2     0.0148
      4.512      46.33      0.015
      4.512      63.01    0.00386
      4.575        4.1       0.13
      4.575       8.41      0.125
      4.575      11.51     0.0788
      4.575       15.5     0.0436
      4.575       20.2     0.0547
      4.575       24.6     0.0545
      4.575        27.      0.032
      4.575       31.7     0.0199         9.
      4.575       37.1     0.0253
      4.575      40.62      0.018
      4.575      44.92     0.0193
      4.575       61.1     0.0042        12.
       4.62        5.3      0.181
       4.62        9.1      0.222
       4.62      13.62      0.125
       4.62      17.82     0.0658
       4.62      21.62     0.0903
       4.62       25.9      0.073
       4.62      30.81     0.0462
       4.62       33.9      0.031
       4.62      38.41     0.0314
       4.62      43.11     0.0264
       4.62      47.11     0.0283
       4.62      63.22    0.00715
       4.65       9.83     0.0603
       4.65      12.52     0.0637
       4.65      18.31     0.0555
       4.65      21.75     0.0574
       4.65      25.72     0.0456
       4.65      29.73      0.039
       4.65      34.34     0.0196
       4.65      38.02     0.0219
       4.65       42.8     0.0206
       4.65      47.12     0.0143
       4.65      63.53    0.00659
      4.679       9.51     0.0817
      4.679      14.33     0.1005
      4.679       18.4      0.108
      4.679       22.9      0.117
      4.679       26.9     0.1039
      4.679      30.52      0.061
      4.679       35.1     0.0394
      4.679      39.63     0.0441
      4.679      43.03     0.0475
      4.679      47.31     0.0274
      4.679       64.1     0.0183
      4.755        5.5     0.0853
      4.755       13.2     0.0625
      4.755       18.2     0.0544
      4.755      22.32     0.0457
      4.755       26.7      0.052
      4.755      29.74     0.0375
      4.755      33.71     0.0281         4.
      4.755      38.31     0.0191         4.
      4.755      43.12      0.017         4.
      4.755      47.32     0.0107         4.
      4.755       63.8    0.00608         6.
       4.84       5.01       0.15
       4.84       10.8       0.16
       4.84      18.71     0.0642
       4.84      22.41     0.0744
       4.84      26.23     0.0756
       4.84      30.43     0.0381
       4.84        34.     0.0241
       4.84      38.42     0.0218         4.
       4.84      42.81     0.0213         4.
       4.84      46.72     0.0127
       4.84       64.2    0.00599         6.
      4.875       5.41      0.201
      4.875       11.2      0.216
      4.875      22.01     0.0901
      4.875      26.03     0.0815
      4.875      30.62     0.0415
      4.875      35.24     0.0281
      4.875      38.91     0.0366
      4.875      42.12     0.0273
      4.875      46.83     0.0182
      4.875      63.81    0.00754         6.
      5.076       5.61     0.0904
      5.076      10.23      0.059
      5.076      14.52     0.0494
      5.076      18.72      0.078
      5.076      22.42     0.0839
      5.076      26.71     0.0716
      5.076      30.01     0.0451
      5.076      34.62     0.0343
      5.076      38.61     0.0246
      5.076      42.91     0.0199
      5.076      48.52     0.0148
      5.076      63.23    0.00054
        5.1        6.1      0.171
        5.1       9.84      0.195
        5.1      14.53      0.176
        5.1      18.21      0.193
        5.1      22.33      0.211
        5.1      26.31      0.184
        5.1      29.91      0.125
        5.1      33.81     0.0834
        5.1      37.91     0.0799
        5.1      41.63     0.0751
        5.1      44.51     0.0483
        5.1      63.82     0.0261
       5.16       4.71      0.141
       5.16       9.11      0.163
       5.16      13.83      0.143
       5.16      17.21      0.143
       5.16      21.63      0.157
       5.16      25.61      0.145
       5.16      30.22     0.0887
       5.16       34.4     0.0532
       5.16      38.13     0.0563
       5.16      42.13     0.0502
       5.16       46.4     0.0377
       5.16      62.71     0.0152
ENDDATA            661
ENDSUBENT          677
ENDENTRY             2
