ENTRY            O1162   20091109   20100809   20100806       O041
SUBENT        O1162001   20091109   20100809   20100806       O041
BIB                 12         30
TITLE      Study of the reactions Zn-66(He3,d)Ga-67 and
            Zn-66(He3,a)Zn-65.
AUTHOR     (M.G.Betigeri, P.David, J.Debrus, H.Mommsen, A.Ricatto)
REFERENCE  (J,NP/A,171,401,1971)
INSTITUTE  (3INDTRM)
           (2GERBON)
SAMPLE     The isotopically enriched Zn-66 target, 98.55% with
           other Zn impurities-Zn-64 1.08%, Zn-67 0.12%,
           Zn-68 0.25% and Zn-70 0.05%, was used.
FACILITY   (VDGT,2GERMPH) The Heidelberg EN tandem accelerator.
DETECTOR   (MAGSP) A broad-range magnetic spectrograph of the
           Browne-Buechner type.
METHOD     (SITA)
ADD-RES    (COMP).DWBA analysis.
           Spectrum of deuterons from the Zn-66(He3,d)Ga-67
           reaction was observed.
           Spectrum of alpha-particles from the Zn-66(He3,a)Zn-65
           reaction was observed.
           Analogue states in Zn-5 corresponding to low-lying
           levels in Cu-65 and in Ga-67 corresponding to low-lying
           levels in Zn-67 have been identified.
ERR-ANALYS (ERR-DIG).Digitizing error of data.
           (ANG-ERR-D).Digitizing error of angle.
           (E-LVL-ERR).Level energy error
           (ERR-S).Statistical error is reported by authors on
           figure.
           (ERR-1).The error in absolute cross section is
            estimated to be 15%.
STATUS     (CURVE) By CAJAD
HISTORY    (20091109C) SB
ENDBIB              30
COMMON               5          3
EN         E-LVL-ERR  ANG-ERR-D  ERR-DIG    ERR-1
MEV        KEV        ADEG       PER-CENT   PER-CENT
18.        20.        0.17       3.         15.
ENDCOMMON            3
ENDSUBENT           37
SUBENT        O1162002   20091109   20100809   20100806       O041
BIB                  2          2
REACTION   (30-ZN-66(HE3,D)31-GA-67,PAR,DA) fig 2
EN-SEC     (E-LVL,31-GA-67)
ENDBIB               2
NOCOMMON             0          0
DATA                 4        175
E-LVL      ANG-CM     DATA-CM    ERR-S
MEV        ADEG       MB/SR      PER-CENT
    0.00000    4.97000    2.62000
    0.00000    7.79000    4.61000    5.00000
    0.00000   10.23000    4.33000    7.00000
    0.00000   17.81000    2.11000    5.00000
    0.00000   20.37000    1.26000    6.00000
    0.00000   25.38000    1.38000    5.00000
    0.00000   30.77000    1.83000    7.00000
    0.00000   35.65000    1.17000    6.00000
    0.17100    5.31000    2.42000    6.00000
    0.17100    7.76000    3.35000    5.00000
    0.17100   10.33000    3.27000    6.00000
    0.17100   17.90000    1.53000
    0.17100   20.58000    0.90000
    0.17100   25.60000    1.02000    6.00000
    0.17100   30.86000    1.31000    5.00000
    0.17100   35.99000    0.90000    6.00000
    0.36400    5.14000    0.12000   18.00000
    0.36400    7.58000    0.07900   15.00000
    0.36400   10.16000    0.14200   13.00000
    0.36400   15.31000    0.66000    5.00000
    0.36400   17.76000    0.85400
    0.36400   20.21000    1.01000
    0.36400   25.46000    1.04000
    0.36400   30.72000    0.58400    5.00000
    0.36400   35.73000    0.41100    6.00000
    0.84500    5.12000    0.89400
    0.84500    7.70000    1.50100
    0.84500   10.14000    1.55000
    0.84500   15.52000    1.22000
    0.84500   20.52000    0.42300
    0.84500   25.66000    0.53700
    0.84500   30.80000    0.68000
    0.84500   36.06000    0.58900
    1.10200    4.85000    0.50000    8.00000
    1.10200    7.18000    0.73000    7.00000
    1.10200   15.12000    0.41300
    1.10200   25.14000    0.17800    6.00000
    1.10200   30.28000    0.27500    5.00000
    1.10200   35.66000    0.19400
    1.57800    4.89000    0.02400   25.00000
    1.57800    7.67000    0.03500   17.00000
    1.57800    9.98000    0.03600   19.00000
    1.57800   15.14000    0.11200    8.00000
    1.57800   17.56000    0.13900    6.00000
    1.57800   20.36000    0.13100    6.00000
    1.57800   25.09000    0.16300   10.00000
    1.57800   30.10000    0.08600    8.00000
    1.57800   35.48000    0.04600    9.00000
    1.83500    5.08000    0.14400    8.00000
    1.83500    7.50000    0.19100    6.00000
    1.83500   10.43000    0.15700    7.00000
    1.83500   15.28000    0.19000    6.00000
    1.83500   17.97000    0.12900    9.00000
    1.83500   20.56000    0.06000    7.00000
    1.83500   25.54000    0.05300    8.00000
    1.83500   30.53000    0.05300    8.00000
    1.83500   35.49000    0.07400    7.00000
    2.09400    4.87000    0.06400   17.00000
    2.09400    7.63000    0.09400   11.00000
    2.09400   10.06000    0.08400   13.00000
    2.09400   14.97000    0.21400   13.00000
    2.09400   17.36000    0.38000    8.00000
    2.09400   20.14000    0.39300    6.00000
    2.09400   24.95000    0.69600
    2.09400   29.77000    0.88000    8.00000
    2.09400   34.86000    0.71000    7.00000
    2.16400    4.82000    0.14900    9.00000
    2.16400    7.44000    0.30100    8.00000
    2.16400   10.10000    0.30400    7.00000
    2.16400   14.95000    0.24500    5.00000
    2.16400   17.62000    0.19200    7.00000
    2.16400   20.40000    0.17700    9.00000
    2.16400   25.28000    0.06600    9.00000
    2.16400   30.23000    0.09100   20.00000
    2.16400   35.05000    0.12200    9.00000
    2.42800    5.01000    0.29600    8.00000
    2.42800    8.64000    0.25500    8.00000
    2.42800   10.22000    0.21900    5.00000
    2.42800   20.29000    0.10600    9.00000
    2.42800   25.65000    0.04400   14.00000
    2.42800   30.32000    0.11900    8.00000
    2.42800   35.28000    0.09900   11.00000
    2.55400    4.91000    0.30200    7.00000
    2.55400    7.44000    0.38200    7.00000
    2.55400    9.97000    0.40700    7.00000
    2.55400   15.18000    0.35400    7.00000
    2.55400   17.62000    0.24000    4.00000
    2.55400   20.29000    0.17300    6.00000
    2.55400   25.14000    0.13600    9.00000
    2.55400   29.95000    0.22100    8.00000
    2.55400   35.28000    0.17200    8.00000
    2.76700    5.25000    0.37300    8.00000
    2.76700    8.02000    0.47000    6.00000
    2.76700   10.43000    0.56000    7.00000
    2.76700   15.37000    0.84000    6.00000
    2.76700   17.91000    0.81000    5.00000
    2.76700   20.57000    0.81000    7.00000
    2.76700   25.30000    0.60000    8.00000
    2.76700   30.40000    0.37600    6.00000
    2.88900    8.12000    0.55000    7.00000
    2.88900   10.77000    0.65000    6.00000
    2.88900   15.47000    0.99000    5.00000
    2.88900   18.01000    0.99000
    2.88900   20.55000    0.83000
    2.88900   30.50000    0.43100    6.00000
    2.88900   35.94000    0.42400    6.00000
    3.43500    5.66000    0.09100   18.00000
    3.43500    8.32000    0.10100    9.00000
    3.43500   11.01000    0.04800   13.00000
    3.43500   15.95000    0.07300   12.00000
    3.43500   18.27000    0.04400   11.00000
    3.43500   20.93000    0.04600    9.00000
    3.43500   25.66000    0.03300   15.00000
    3.43500   30.84000    0.04600   17.00000
    3.43500   35.93000    0.03300   18.00000
    3.81800    5.55000    0.05800   22.00000
    3.81800    8.28000    0.17600   11.00000
    3.81800   10.82000    0.16300   12.00000
    3.81800   18.12000    0.05100   14.00000
    3.81800   21.13000    0.07200   14.00000
    3.81800   25.74000    0.04900   16.00000
    3.81800   30.55000    0.08300   13.00000
    3.81800   35.77000    0.05200   10.00000
    3.93500    8.26000    0.27300   10.00000
    3.93500   11.09000    0.38700    7.00000
    3.93500   13.51000    0.38200    7.00000
    3.93500   18.48000    0.40900    7.00000
    3.93500   21.10000    0.32500    9.00000
    3.93500   23.59000    0.24300    7.00000
    3.93500   28.70000    0.29900    9.00000
    3.93500   33.82000    0.18000   12.00000
    3.93500   38.91000    0.19500    7.00000
    4.19900    8.02000    0.29100    9.00000
    4.19900   10.64000    0.22500    9.00000
    4.19900   13.17000    0.20900    9.00000
    4.19900   18.19000    0.33100    7.00000
    4.19900   20.96000    0.30700    9.00000
    4.19900   23.32000    0.21700    6.00000
    4.19900   28.44000    0.12600   13.00000
    4.19900   33.48000    0.10400   13.00000
    4.19900   39.73000    0.17700   12.00000
    4.54800    8.08000    0.20400   13.00000
    4.54800   10.61000    0.40100    7.00000
    4.54800   13.27000    0.40600    6.00000
    4.54800   18.07000    0.32100    7.00000
    4.54800   20.74000    0.35500    8.00000
    4.54800   23.26000    0.31300    9.00000
    4.54800   28.29000    0.24400    8.00000
    4.54800   33.49000    0.24400    9.00000
    4.71800    7.81000    0.18700   10.00000
    4.71800   10.18000    0.29400   10.00000
    4.71800   12.85000    0.31400    8.00000
    4.71800   18.05000    0.31000   10.00000
    4.71800   20.61000    0.36000    8.00000
    4.71800   23.14000    0.33300    8.00000
    4.71800   27.91000    0.10900   14.00000
    4.71800   33.02000    0.13800    9.00000
    4.71800   38.02000    0.18200    8.00000
    4.75700    7.29000    0.95000    5.00000
    4.75700   12.35000    0.19500    8.00000
    4.75700   17.32000    0.22100    9.00000
    4.75700   19.88000    0.25100    8.00000
    4.75700   22.55000    0.26700   10.00000
    4.75700   27.52000    0.29600    7.00000
    4.75700   32.70000    0.26100    7.00000
    4.75700   37.62000    0.20800   10.00000
    4.82200    6.24000    0.11800   13.00000
    4.82200    8.90000    0.11400   13.00000
    4.82200   11.38000    0.17500    9.00000
    4.82200   16.61000    0.21600    6.00000
    4.82200   19.01000    0.19100   10.00000
    4.82200   21.67000    0.19600    8.00000
    4.82200   26.84000    0.16100   10.00000
    4.82200   31.79000    0.16000    6.00000
    4.82200   36.94000    0.12000   11.00000
ENDDATA            177
ENDSUBENT          184
SUBENT        O1162003   20091109   20100809   20100806       O041
BIB                  3          4
REACTION   (30-ZN-66(HE3,A)30-ZN-65,PAR,DA) fig 4
EN-SEC     (E-LVL,30-ZN-65)
FLAG       (1.)It is isobaric analogue states of the low-lying
           states in Cu-65.
ENDBIB               4
NOCOMMON             0          0
DATA                 5        334
E-LVL      ANG-CM     DATA-CM    ERR-S      FLAG
MEV        ADEG       MB/SR      PER-CENT   NO-DIM
    0.00000    4.57000    1.27000
    0.00000    7.34000    1.08000    9.00000
    0.00000    9.63000    1.02000
    0.00000   14.70000    0.73300
    0.00000   17.48000    0.74500
    0.00000   20.01000    0.59000    7.00000
    0.00000   24.96000    0.54000   11.00000
    0.00000   30.02000    0.28800    8.00000
    0.00000   35.33000    0.26200    7.00000
    0.06000    4.61000    0.05800   17.00000
    0.06000    7.37000    0.02800   14.00000
    0.06000    9.90000    0.01900   26.00000
    0.06000   20.29000    0.02300   22.00000
    0.06000   29.96000    0.02300   13.00000
    0.06000   35.27000    0.02600   15.00000
    0.12000    4.61000    0.46000    9.00000
    0.12000    7.26000    0.25700    9.00000
    0.12000    9.66000    0.14600   10.00000
    0.12000   14.97000    0.10400   10.00000
    0.12000   17.39000    0.17200   10.00000
    0.12000   20.05000    0.16900   11.00000
    0.12000   25.25000    0.20800   10.00000
    0.12000   30.08000    0.16000   10.00000
    0.12000   35.02000    0.10400    9.00000
    0.21000    4.63000    0.05000   22.00000
    0.21000    7.51000    0.02300   26.00000
    0.21000    9.71000    0.07600   14.00000
    0.21000   14.99000    0.01600   30.00000
    0.21000   17.77000    0.02400   21.00000
    0.21000   20.04000    0.00840   30.00000
    0.21000   25.37000    0.01300   30.00000
    0.21000   30.20000    0.01340   22.00000
    0.21000   35.38000    0.00680   26.00000
    0.77000    4.87000    0.04200   29.00000
    0.77000    7.53000    0.04800   19.00000
    0.77000   10.05000    0.02100   29.00000
    0.77000   14.89000    0.02700   22.00000
    0.77000   17.67000    0.03500   17.00000
    0.77000   20.08000    0.02600   19.00000
    0.77000   25.38000    0.01300   30.00000
    0.77000   30.45000    0.01500   27.00000
    0.87000    5.15000    0.13500   16.00000
    0.87000    7.80000    0.08300   13.00000
    0.87000   10.19000    0.03100   23.00000
    0.87000   15.40000    0.05800   10.00000
    0.87000   17.69000    0.05600   16.00000
    0.87000   20.60000    0.07200   11.00000
    0.87000   25.79000    0.07200   17.00000
    0.87000   30.61000    0.04800   13.00000
    0.87000   35.68000    0.03100   16.00000
    0.92000    4.18000    0.03200   30.00000
    0.92000    9.33000    0.01000   40.00000
    0.92000   14.59000    0.01600   25.00000
    0.92000   17.10000    0.02300   26.00000
    0.92000   19.85000    0.01900   26.00000
    0.92000   24.63000    0.03200   22.00000
    0.92000   29.89000    0.01100   27.00000
    1.07000    4.54000    0.41000   10.00000
    1.07000    7.05000    0.42000    5.00000
    1.07000    9.44000    0.48300    6.00000
    1.07000   14.47000    0.35800    7.00000
    1.07000   16.86000    0.32500    5.00000
    1.07000   19.73000    0.28000
    1.07000   24.75000    0.18600   10.00000
    1.07000   29.89000    0.12600    9.00000
    1.07000   35.15000    0.10380
    1.26000    4.54000    0.12500   14.00000
    1.26000    6.81000    0.10100    9.00000
    1.26000    9.56000    0.10200   11.00000
    1.26000   14.35000    0.07400   12.00000
    1.26000   17.10000    0.07100   13.00000
    1.26000   19.49000    0.06600   12.00000
    1.26000   24.87000    0.04600   17.00000
    1.26000   29.65000    0.03300   12.00000
    1.26000   35.03000    0.02400   21.00000
    1.37000    4.78000    0.04700   23.00000
    1.37000    7.17000    0.04300   14.00000
    1.37000    9.80000    0.03400   21.00000
    1.37000   14.94000    0.01900   21.00000
    1.37000   19.97000    0.02000   25.00000
    1.37000   30.37000    0.02100   29.00000
    1.37000   35.63000    0.00380   40.00000
    1.59000    4.78000    0.17600    9.00000
    1.59000    7.41000    0.16900   11.00000
    1.59000    9.80000    0.14100   11.00000
    1.59000   14.94000    0.18700    7.00000
    1.59000   17.34000    0.15600    9.00000
    1.59000   20.20000    0.13200   11.00000
    1.59000   24.99000    0.05300   17.00000
    1.59000   30.25000    0.03300   18.00000
    1.59000   35.51000    0.04300   14.00000
    1.95000    5.14000    0.10300   15.00000
    1.95000    7.29000    0.11100   12.00000
    1.95000   10.04000    0.09000    9.00000
    1.95000   15.06000    0.06400   13.00000
    1.95000   17.93000    0.06700   13.00000
    1.95000   20.32000    0.04600   11.00000
    1.95000   25.46000    0.03800   18.00000
    1.95000   30.72000    0.04200   14.00000
    1.95000   35.99000    0.02400   17.00000
    2.23000    4.07000    0.11600   16.00000
    2.23000    6.37000    0.11100   13.00000
    2.23000    9.40000    0.09200   10.00000
    2.23000   14.26000    0.05200   10.00000
    2.23000   16.79000    0.06400   17.00000
    2.23000   19.74000    0.01900   26.00000
    2.23000   24.56000    0.02900   24.00000
    2.23000   29.64000    0.03900   15.00000
    2.23000   35.09000    0.02500   16.00000
    2.44000    4.10000    0.12800   13.00000
    2.44000    6.88000    0.11700   13.00000
    2.44000    9.43000    0.09200   10.00000
    2.44000   14.28000    0.06300   13.00000
    2.44000   16.81000    0.08400    8.00000
    2.44000   19.48000    0.06800    7.00000
    2.44000   24.57000    0.05600   13.00000
    2.44000   29.66000    0.04100   12.00000
    2.44000   34.88000    0.02460    9.00000
    2.53000    4.48000    0.14400   15.00000
    2.53000    6.90000    0.16700   11.00000
    2.53000    9.69000    0.12500   10.00000
    2.53000   14.54000    0.09800   14.00000
    2.53000   17.20000    0.10200   12.00000
    2.53000   19.75000    0.08200   13.00000
    2.53000   24.60000    0.06700   15.00000
    2.53000   30.17000    0.04900   16.00000
    2.53000   35.29000    0.01700   24.00000
    2.69000    4.88000    0.11600   16.00000
    2.69000    7.53000    0.15800   13.00000
    2.69000   10.08000    0.12800    7.00000
    2.69000   15.05000    0.11300   10.00000
    2.69000   17.59000    0.10800   11.00000
    2.69000   19.90000    0.08700   11.00000
    2.69000   25.47000    0.06500   12.00000
    2.69000   30.58000    0.02800   14.00000
    2.69000   35.52000    0.05300   11.00000
    2.82000    7.39000    0.08000   13.00000
    2.82000    9.92000    0.09400   16.00000
    2.82000   15.02000    0.06900   16.00000
    2.82000   17.79000    0.08300   11.00000
    2.82000   25.30000    0.06700   15.00000
    2.82000   30.42000    0.02700   22.00000
    2.82000   35.63000    0.02000   20.00000
    2.88000    4.97000    0.18100    9.00000
    2.88000    7.39000    0.17500    6.00000
    2.88000   10.18000    0.15100    9.00000
    2.88000   15.26000    0.13900    9.00000
    2.88000   17.57000    0.11600   10.00000
    2.88000   20.36000    0.09700    9.00000
    2.88000   25.21000    0.07400   12.00000
    2.88000   30.55000    0.03700   14.00000
    2.88000   35.62000    0.05100   10.00000
    2.93000    4.80000    0.08200   24.00000
    2.93000    6.81000    0.10500   20.00000
    2.93000    9.67000    0.08800   16.00000
    2.93000   14.56000    0.07200   15.00000
    2.93000   17.30000    0.05700   25.00000
    2.93000   19.80000    0.05200   13.00000
    2.93000   24.73000    0.01300   40.00000
    2.93000   29.84000    0.01600   19.00000
    2.93000   34.96000    0.01500   27.00000
    3.04000    4.45000    0.10100    6.00000
    3.04000    7.16000    0.15300   10.00000
    3.04000    9.79000    0.11500    9.00000
    3.04000   14.80000    0.08900    7.00000
    3.04000   17.40000    0.11900    8.00000
    3.04000   20.02000    0.10300   11.00000
    3.04000   24.70000    0.05400   13.00000
    3.04000   30.19000    0.03900   15.00000
    3.04000   34.84000    0.02900   14.00000
    3.12000    4.72000    0.05500   20.00000
    3.12000    7.12000    0.03500   17.00000
    3.12000    9.86000    0.03400   21.00000
    3.12000   14.90000    0.01500   27.00000
    3.12000   20.12000    0.02000   20.00000
    3.12000   25.01000    0.01500   20.00000
    3.17000    5.11000    0.04000   25.00000
    3.17000    7.58000    0.06300   10.00000
    3.17000    9.97000    0.05500   15.00000
    3.17000   15.09000    0.04900   14.00000
    3.17000   17.59000    0.04300   14.00000
    3.17000   20.22000    0.03500   14.00000
    3.17000   25.10000    0.03100   19.00000
    3.17000   30.71000    0.02400   17.00000
    3.25000    4.94000    0.11800   14.00000
    3.25000    7.42000    0.17800   10.00000
    3.25000   10.03000    0.19700    9.00000
    3.25000   14.92000    0.16600    8.00000
    3.25000   17.53000    0.16700   10.00000
    3.25000   20.16000    0.14800    9.00000
    3.25000   25.29000    0.09800   13.00000
    3.25000   30.44000    0.05800   12.00000
    3.25000   35.66000    0.06500    9.00000
    3.58000    5.43000    0.12200   15.00000
    3.58000    7.79000    0.15600    8.00000
    3.58000   10.20000    0.09700   12.00000
    3.58000   15.20000    0.08300   11.00000
    3.58000   17.84000    0.05600    9.00000
    3.58000   20.21000    0.06200   11.00000
    3.58000   25.47000    0.04100   20.00000
    3.58000   30.36000    0.02800   14.00000
    3.58000   35.59000    0.03200    8.00000
    3.92000    5.39000    0.11100   18.00000
    3.92000    7.62000    0.17200   10.00000
    3.92000   10.47000    0.11800   13.00000
    3.92000   15.43000    0.12500    9.00000
    3.92000   17.90000    0.14100   10.00000
    3.92000   20.87000    0.10200    9.00000
    3.92000   25.70000    0.08000   11.00000
    3.92000   31.03000    0.04000   15.00000
    3.92000   35.86000    0.03600   14.00000
    4.10000    4.75000    0.13500   12.00000
    4.10000    7.23000    0.07100   15.00000
    4.10000   10.08000    0.07200   14.00000
    4.10000   15.03000    0.06200   10.00000
    4.10000   17.50000    0.03600   14.00000
    4.10000   20.35000    0.03100   16.00000
    4.10000   25.55000    0.02000   30.00000
    4.10000   30.88000    0.02200   18.00000
    4.10000   35.71000    0.02300   17.00000
    4.27000    7.56000    0.06400   16.00000
    4.27000   10.29000    0.06000   13.00000
    4.27000   15.11000    0.05100   16.00000
    4.27000   17.71000    0.03300   18.00000
    4.49000    5.05000    0.16700   13.00000
    4.49000    7.28000    0.12300   12.00000
    4.49000   10.01000    0.12100    9.00000
    4.49000   14.96000    0.09500   11.00000
    4.49000   17.69000    0.09300   14.00000
    4.49000   20.41000    0.10800   12.00000
    4.49000   25.98000    0.03800   21.00000
    4.49000   30.81000    0.03300   15.00000
    4.49000   35.64000    0.02700   15.00000
    4.58000    5.01000    0.10500   25.00000
    4.58000    7.25000    0.16700   10.00000
    4.58000    9.97000    0.11100   13.00000
    4.58000   15.05000    0.14500   11.00000
    4.58000   17.65000    0.12200   11.00000
    4.58000   20.50000    0.13400    8.00000
    4.58000   25.69000    0.05500   18.00000
    4.66000    4.61000    0.10600   16.00000
    4.66000    7.21000    0.12200   15.00000
    4.66000    9.93000    0.07900    9.00000
    4.66000   14.64000    0.09000   11.00000
    4.66000   17.61000    0.06100   11.00000
    4.66000   19.96000    0.06300   11.00000
    4.66000   24.91000    0.03000   17.00000
    4.66000   30.24000    0.03100   13.00000
    4.66000   35.44000    0.02200   18.00000
    4.77000    3.03000    0.10200   16.00000
    4.77000    5.65000    0.14900   11.00000
    4.77000    7.86000    0.11000    9.00000
    4.77000   12.93000    0.11500   12.00000
    4.77000   15.71000    0.12100   13.00000
    4.77000   18.53000    0.08900   11.00000
    4.77000   23.57000    0.04300   14.00000
    4.77000   28.74000    0.02000   20.00000
    4.77000   33.61000    0.04200   10.00000
    4.92000    3.46000    0.06700   25.00000
    4.92000    6.10000    0.02700   22.00000
    4.92000    8.50000    0.03300   21.00000
    4.92000   13.71000    0.03100   16.00000
    4.92000   16.14000    0.02700   15.00000
    4.92000   19.03000    0.03200   16.00000
    4.92000   23.91000    0.02300   26.00000
    4.92000   33.66000    0.03300   18.00000
    5.00000    6.83000    0.12000   13.00000
    5.00000   14.44000    0.04400   18.00000
    5.00000   16.93000    0.06600   15.00000
    5.00000   19.85000    0.06000   15.00000
    5.00000   29.89000    0.02100   19.00000
    5.00000   34.43000    0.03400   15.00000
    5.36000    4.36000    0.11000   13.00000
    5.36000    7.29000    0.09100   13.00000
    5.36000    9.70000    0.09400   13.00000
    5.36000   15.10000    0.05000   18.00000
    5.36000   17.22000    0.07600   12.00000
    5.36000   20.05000    0.05400   15.00000
    5.36000   30.10000    0.01800   28.00000
    5.81000    7.44000    0.09300   15.00000
    5.81000   10.02000    0.06400   16.00000
    5.81000   15.13000    0.05000   12.00000
    5.81000   17.54000    0.05400   11.00000
    5.81000   20.35000    0.04100   15.00000
    5.81000   30.23000    0.01930   15.00000
    7.44000    5.39000    0.50000    8.00000         1.
    7.44000    7.93000    0.61700                    1.
    7.44000   10.59000    0.44100    7.00000         1.
    7.44000   15.56000    0.27000   11.00000         1.
    7.44000   26.08000    0.21200    8.00000         1.
    7.44000   31.17000    0.09600    7.00000         1.
    7.44000   36.49000    0.10800   11.00000         1.
    8.21000    5.80000    0.30000   17.00000         1.
    8.21000    7.85000    0.34000   18.00000         1.
    8.21000   10.75000    0.40000   18.00000         1.
    8.21000   22.15000    0.04800   17.00000         1.
    8.21000   26.74000    0.06000   13.00000         1.
    8.21000   31.22000    0.04000   15.00000         1.
    8.21000   36.29000    0.07200   14.00000         1.
    8.56000    5.62000    0.05000   20.00000         1.
    8.56000    8.15000    0.11400   14.00000         1.
    8.56000   10.93000    0.09400   15.00000         1.
    8.56000   16.25000    0.10200   11.00000         1.
    8.56000   18.68000    0.03700   16.00000         1.
    8.56000   21.21000    0.07700   13.00000         1.
    8.56000   31.51000    0.02600   15.00000         1.
    8.56000   36.47000    0.01970   13.00000         1.
    8.92000    5.44000    0.11200   12.00000         1.
    8.92000    8.10000    0.18000   11.00000         1.
    8.92000   10.76000    0.12300    9.00000         1.
    8.92000   15.96000    0.15700   12.00000         1.
    8.92000   18.61000    0.18200   11.00000         1.
    8.92000   20.80000    0.12600   10.00000         1.
    8.92000   26.00000    0.10300   11.00000         1.
    8.92000   31.33000    0.04600   13.00000         1.
    8.92000   36.41000    0.03400   18.00000         1.
    9.06000    5.64000    0.15900   13.00000         1.
    9.06000    8.31000    0.08000   15.00000         1.
    9.06000   11.08000    0.10000   11.00000         1.
    9.06000   15.93000    0.06700   15.00000         1.
    9.06000   19.43000    0.05900   10.00000         1.
    9.06000   21.37000    0.06000   10.00000         1.
    9.06000   26.09000    0.04500   20.00000         1.
    9.13000    7.98000    0.09100   10.00000         1.
    9.13000   10.77000    0.05700   16.00000         1.
    9.13000   15.84000    0.09800   14.00000         1.
    9.13000   18.38000    0.09600   11.00000         1.
    9.13000   20.93000    0.03500   14.00000         1.
    9.13000   26.14000    0.02200   27.00000         1.
    9.13000   36.54000    0.01500   20.00000         1.
    9.52000    5.34000    0.05800   28.00000         1.
    9.52000    7.76000    0.10600   12.00000         1.
    9.52000   15.77000    0.10100   13.00000         1.
    9.52000   18.32000    0.09300   12.00000         1.
ENDDATA            336
ENDSUBENT          345
ENDENTRY             3
