ENTRY            12805   19840416              20050926       0000
SUBENT        12805001   19840416              20050926       0000
BIB                 12         16
INSTITUTE  (1USAANL)
REFERENCE  (J,NP/A,415,1,8403)
           (R,ANL-NDM-75,8211)
AUTHOR     (A.B.SMITH,P.T.GUENTHER,J.F.WHALEN)
TITLE      FAST-NEUTRON TOTAL AND SCATTERING CROSS SECTIONS OF
            ELEMENTAL ANTIMONY
FACILITY   (DYNAM)
INC-SOURCE (P-LI7)
METHOD     (TOF)  5.4 METER FLIGHT PATH
DETECTOR   (SCIN) PROTON RECOIL SCINTILLATORS
MONITOR    (6-C-0(N,TOT),,SIG)
INC-SPECT  BEAM RESOLUTION 50 TO 70 KEV
STATUS     (APRVD) A.B.SMITH, 83/3/18.
           DATA RECEIVED IN PRIVATE COMMUNICATION 2/4/83
HISTORY    (830217C)
           (840416A) REFERENCE ADDED.
ENDBIB              16
NOCOMMON             0          0
ENDSUBENT           19
SUBENT        12805002   19830304              20050926       0000
BIB                  5          7
REACTION   (51-SB-0(N,TOT),,SIG,,AV)
SAMPLE     METALLIC ANTIMONY CYLINDER, 2.5 CM DIAMETER AND 1.25
             CM LONG
CORRECTION DATA WERE CORRECTED FOR DEAD-TIME
ANALYSIS   DATA WERE AVERAGED OVER 50 KEV INTERVALS
ERR-ANALYS (DATA-ERR) TOTAL UNCERTAINTY. THE STATISTICAL
            UNCERTAINTY IS ABOUT 1 PERCENT.
ENDBIB               7
NOCOMMON             0          0
DATA                 3         69
EN-MEAN    DATA       DATA-ERR
MEV        B          B
  8.096E-01  6.885E+00  9.468E-02
  8.732E-01  6.700E+00  8.905E-02
  9.365E-01  6.756E+00  8.251E-02
  9.993E-01  6.678E+00  8.169E-02
  1.062E+00  6.705E+00  8.164E-02
  1.124E+00  6.631E+00  7.800E-02
  1.186E+00  6.633E+00  7.595E-02
  1.247E+00  6.425E+00  7.664E-02
  1.308E+00  6.518E+00  7.503E-02
  1.369E+00  6.514E+00  7.315E-02
  1.429E+00  6.394E+00  7.145E-02
  1.489E+00  6.207E+00  7.206E-02
  1.548E+00  6.139E+00  7.278E-02
  1.608E+00  6.165E+00  7.120E-02
  1.667E+00  6.182E+00  7.109E-02
  1.725E+00  6.145E+00  7.267E-02
  1.784E+00  6.105E+00  7.338E-02
  1.842E+00  5.930E+00  6.724E-02
  1.899E+00  5.755E+00  7.332E-02
  1.957E+00  5.818E+00  7.066E-02
  2.014E+00  5.787E+00  7.720E-02
  2.071E+00  5.765E+00  7.825E-02
  2.127E+00  5.734E+00  7.827E-02
  2.184E+00  5.584E+00  7.884E-02
  2.240E+00  5.504E+00  8.202E-02
  2.295E+00  5.437E+00  8.447E-02
  2.351E+00  5.318E+00  8.199E-02
  2.406E+00  5.396E+00  8.024E-02
  2.461E+00  5.303E+00  8.637E-02
  2.516E+00  5.202E+00  8.791E-02
  2.570E+00  5.241E+00  8.521E-02
  2.625E+00  4.962E+00  8.363E-02
  2.679E+00  5.099E+00  8.088E-02
  2.733E+00  4.992E+00  7.902E-02
  2.786E+00  5.052E+00  7.701E-02
  2.840E+00  5.033E+00  7.497E-02
  2.893E+00  4.856E+00  7.200E-02
  2.946E+00  4.758E+00  7.134E-02
  2.999E+00  4.729E+00  5.848E-02
  3.052E+00  4.738E+00  6.886E-02
  3.104E+00  4.717E+00  6.804E-02
  3.156E+00  4.663E+00  6.649E-02
  3.208E+00  4.630E+00  6.672E-02
  3.260E+00  4.780E+00  6.679E-02
  3.312E+00  4.669E+00  6.526E-02
  3.364E+00  4.652E+00  6.654E-02
  3.415E+00  4.601E+00  6.665E-02
  3.467E+00  4.715E+00  6.843E-02
  3.518E+00  4.611E+00  8.452E-02
  3.569E+00  4.531E+00  8.291E-02
  3.620E+00  4.538E+00  8.642E-02
  3.670E+00  4.421E+00  8.971E-02
  3.721E+00  4.531E+00  9.126E-02
  3.771E+00  4.604E+00  9.696E-02
  3.822E+00  4.420E+00  1.005E-01
  3.872E+00  4.567E+00  9.859E-02
  3.922E+00  4.504E+00  1.002E-01
  3.972E+00  4.508E+00  1.004E-01
  4.022E+00  4.384E+00  1.033E-01
  4.072E+00  4.385E+00  1.128E-01
  4.122E+00  4.437E+00  1.073E-01
  4.172E+00  4.373E+00  1.082E-01
  4.221E+00  4.402E+00  1.098E-01
  4.271E+00  4.533E+00  1.104E-01
  4.320E+00  4.481E+00  1.133E-01
  4.370E+00  4.336E+00  1.173E-01
  4.419E+00  4.424E+00  1.185E-01
  4.469E+00  4.414E+00  1.214E-01
  4.518E+00  4.369E+00  1.251E-01
ENDDATA             71
ENDSUBENT           83
SUBENT        12805003   19830304              20050926       0000
BIB                  5          9
REACTION   ((51-SB-0(N,EL),,DA,,AV)+(51-SB-0(N,INL),PAR,DA,,AV))
SAMPLE     METALLIC ANTIMONY CYLINDER, 2 CM DIAMETER AND 2 CM LONG
ANALYSIS   DATA WERE AVERAGED OVER 50 KEV INTERVALS
CORRECTION DATA WERE CORRECTED FOR MULTIPLE-SCATTERING, BEAM-
            ATTENUATION AND ANGULAR-RESOLUTION.
ERR-ANALYS (DATA-ERR) OVERALL UNCERTAINTY LESS THAN 5 PERCENT
              STATISTICAL UNCERTAINTY     LESS THAN 1 PERCENT
              DETECTOR NORMALIZATION                3 PERCENT
              CORRECTIONS                           1 PERCENT
ENDBIB               9
COMMON               2          3
E-EXC-MAX  ANG-RSL
KEV        ADEG
  160.       0.7
ENDCOMMON            3
DATA                 4        140
EN-MEAN    ANG        DATA       DATA-ERR
MEV        ADEG       B/SR       PER-CENT
   1.55E+00   2.10E+01   1.62E+00   5.00
   1.55E+00   3.09E+01   1.34E+00   5.00
   1.55E+00   4.88E+01   8.18E-01   5.00
   1.55E+00   6.48E+01   4.08E-01   5.00
   1.55E+00   8.17E+01   1.80E-01   5.00
   1.55E+00   9.77E+01   1.04E-01   5.00
   1.55E+00   1.14E+02   9.08E-02   5.00
   1.55E+00   1.30E+02   1.38E-01   5.00
   1.55E+00   1.47E+02   2.32E-01   5.00
   1.55E+00   1.57E+02   3.02E-01   5.00
   1.65E+00   2.10E+01   1.61E+00   5.00
   1.65E+00   3.09E+01   1.33E+00   5.00
   1.65E+00   4.88E+01   7.75E-01   5.00
   1.65E+00   6.48E+01   3.61E-01   5.00
   1.65E+00   8.17E+01   1.60E-01   5.00
   1.65E+00   9.77E+01   9.18E-02   5.00
   1.65E+00   1.14E+02   7.79E-02   5.00
   1.65E+00   1.30E+02   1.19E-01   5.00
   1.65E+00   1.47E+02   2.15E-01   5.00
   1.65E+00   1.57E+02   2.80E-01   5.00
   1.75E+00   2.10E+01   1.61E+00   5.00
   1.75E+00   3.09E+01   1.31E+00   5.00
   1.75E+00   4.88E+01   7.37E-01   5.00
   1.75E+00   6.48E+01   3.28E-01   5.00
   1.75E+00   8.17E+01   1.47E-01   5.00
   1.75E+00   9.77E+01   8.74E-02   5.00
   1.75E+00   1.14E+02   6.89E-02   5.00
   1.75E+00   1.30E+02   1.07E-01   5.00
   1.75E+00   1.47E+02   2.00E-01   5.00
   1.75E+00   1.57E+02   2.61E-01   5.00
   1.87E+00   2.10E+01   1.60E+00   5.00
   1.87E+00   3.09E+01   1.29E+00   5.00
   1.87E+00   4.88E+01   6.90E-01   5.00
   1.87E+00   6.48E+01   3.02E-01   5.00
   1.87E+00   8.17E+01   1.24E-01   5.00
   1.87E+00   9.77E+01   6.89E-02   5.00
   1.87E+00   1.14E+02   5.92E-02   5.07
   1.87E+00   1.30E+02   9.31E-02   5.00
   1.87E+00   1.47E+02   1.76E-01   5.00
   1.87E+00   1.57E+02   2.36E-01   5.00
   1.93E+00   2.10E+01   1.62E+00   5.00
   1.93E+00   3.09E+01   1.28E+00   5.00
   1.93E+00   4.88E+01   6.61E-01   5.00
   1.93E+00   6.48E+01   2.87E-01   5.00
   1.93E+00   8.17E+01   1.17E-01   5.00
   1.93E+00   9.77E+01   6.19E-02   5.00
   1.93E+00   1.14E+02   5.29E-02   5.67
   1.93E+00   1.30E+02   8.39E-02   5.00
   1.93E+00   1.47E+02   1.66E-01   5.00
   1.93E+00   1.57E+02   2.19E-01   5.00
   2.05E+00   2.10E+01   1.61E+00   5.00
   2.05E+00   3.09E+01   1.23E+00   5.00
   2.05E+00   4.78E+01   5.99E-01   5.00
   2.05E+00   6.48E+01   2.62E-01   5.00
   2.05E+00   8.08E+01   1.15E-01   5.00
   2.05E+00   9.77E+01   4.76E-02   6.30
   2.05E+00   1.14E+02   4.58E-02   6.55
   2.05E+00   1.31E+02   7.95E-02   5.00
   2.05E+00   1.47E+02   1.48E-01   5.00
   2.05E+00   1.57E+02   2.02E-01   5.00
   2.15E+00   2.10E+01   1.56E+00   5.00
   2.15E+00   3.09E+01   1.17E+00   5.00
   2.15E+00   4.78E+01   5.53E-01   5.00
   2.15E+00   6.48E+01   2.36E-01   5.00
   2.15E+00   8.08E+01   1.01E-01   5.00
   2.15E+00   9.77E+01   4.22E-02   7.11
   2.15E+00   1.14E+02   4.01E-02   7.48
   2.15E+00   1.31E+02   7.52E-02   5.00
   2.15E+00   1.47E+02   1.32E-01   5.00
   2.15E+00   1.57E+02   1.83E-01   5.00
   2.25E+00   2.10E+01   1.57E+00   5.00
   2.25E+00   3.09E+01   1.18E+00   5.00
   2.25E+00   4.78E+01   5.48E-01   5.00
   2.25E+00   6.48E+01   2.26E-01   5.00
   2.25E+00   8.08E+01   8.84E-02   5.00
   2.25E+00   9.77E+01   3.77E-02   7.96
   2.25E+00   1.14E+02   3.73E-02   8.04
   2.25E+00   1.31E+02   6.95E-02   5.00
   2.25E+00   1.47E+02   1.23E-01   5.00
   2.25E+00   1.57E+02   1.67E-01   5.00
   2.35E+00   2.10E+01   1.54E+00   5.00
   2.35E+00   3.09E+01   1.13E+00   5.00
   2.35E+00   4.78E+01   5.12E-01   5.00
   2.35E+00   6.48E+01   2.09E-01   5.00
   2.35E+00   8.08E+01   8.22E-02   5.00
   2.35E+00   9.77E+01   2.88E-02  10.40
   2.35E+00   1.14E+02   3.37E-02   8.90
   2.35E+00   1.31E+02   6.24E-02   5.00
   2.35E+00   1.47E+02   1.12E-01   5.00
   2.35E+00   1.57E+02   1.56E-01   5.00
   2.45E+00   2.10E+01   1.48E+00   5.00
   2.45E+00   3.09E+01   1.05E+00   5.00
   2.45E+00   4.78E+01   4.57E-01   5.00
   2.45E+00   6.48E+01   1.93E-01   5.00
   2.45E+00   8.08E+01   7.76E-02   5.00
   2.45E+00   9.77E+01   2.28E-02  13.20
   2.45E+00   1.14E+02   3.42E-02   8.77
   2.45E+00   1.31E+02   6.04E-02   5.00
   2.45E+00   1.47E+02   1.02E-01   5.00
   2.45E+00   1.57E+02   1.46E-01   5.00
   2.55E+00   2.10E+01   1.44E+00   5.00
   2.55E+00   3.09E+01   1.00E+00   5.00
   2.55E+00   4.78E+01   4.26E-01   5.00
   2.55E+00   6.48E+01   1.76E-01   5.00
   2.55E+00   8.08E+01   7.07E-02   5.00
   2.55E+00   9.77E+01   2.31E-02  13.00
   2.55E+00   1.14E+02   3.40E-02   8.82
   2.55E+00   1.31E+02   6.17E-02   5.00
   2.55E+00   1.47E+02   9.62E-02   5.00
   2.55E+00   1.57E+02   1.38E-01   5.00
   2.65E+00   2.10E+01   1.46E+00   5.00
   2.65E+00   3.09E+01   1.01E+00   5.00
   2.65E+00   4.78E+01   4.14E-01   5.00
   2.65E+00   6.48E+01   1.66E-01   5.00
   2.65E+00   8.08E+01   6.82E-02   5.00
   2.65E+00   9.77E+01   2.36E-02  12.70
   2.65E+00   1.14E+02   3.17E-02   9.46
   2.65E+00   1.31E+02   5.74E-02   5.23
   2.65E+00   1.47E+02   9.01E-02   5.00
   2.65E+00   1.57E+02   1.25E-01   5.00
   2.75E+00   2.10E+01   1.51E+00   5.00
   2.75E+00   3.09E+01   1.06E+00   5.00
   2.75E+00   4.78E+01   4.33E-01   5.00
   2.75E+00   6.48E+01   1.70E-01   5.00
   2.75E+00   8.08E+01   6.79E-02   5.00
   2.75E+00   9.77E+01   2.28E-02  13.20
   2.75E+00   1.14E+02   2.39E-02  12.60
   2.75E+00   1.31E+02   5.16E-02   5.81
   2.75E+00   1.47E+02   7.85E-02   5.00
   2.75E+00   1.57E+02   1.00E-01   5.00
   2.85E+00   2.10E+01   1.40E+00   5.00
   2.85E+00   3.09E+01   9.79E-01   5.00
   2.85E+00   4.78E+01   3.81E-01   5.00
   2.85E+00   6.48E+01   1.49E-01   5.00
   2.85E+00   8.08E+01   6.58E-02   5.00
   2.85E+00   9.77E+01   1.56E-02  19.20
   2.85E+00   1.14E+02   2.80E-02  10.70
   2.85E+00   1.31E+02   5.34E-02   5.62
   2.85E+00   1.47E+02   7.00E-02   5.00
   2.85E+00   1.57E+02   9.06E-02   5.00
ENDDATA            142
ENDSUBENT          160
SUBENT        12805004   19830304              20050926       0000
BIB                  4          8
REACTION   ((51-SB-0(N,EL),,DA)+(51-SB-0(N,INL),PAR,DA))
SAMPLE     METALLIC ANTIMONY CYLINDER, 2 CM DIAMETER AND 2 CM LONG
CORRECTION DATA WERE CORRECTED FOR MULTIPLE-SCATTERING, BEAM-
            ATTENUATION AND ANGULAR-RESOLUTION.
ERR-ANALYS (DATA-ERR) OVERALL UNCERTAINTY LESS THAN 5 PERCENT
              STATISTICAL UNCERTAINTY     LESS THAN 1 PERCENT
              DETECTOR NORMALIZATION                3 PERCENT
              CORRECTIONS                           1 PERCENT
ENDBIB               8
COMMON               2          3
E-EXC-MAX  ANG-RSL
KEV        ADEG
  160.       0.7
ENDCOMMON            3
DATA                 4        120
EN         ANG        DATA       DATA-ERR
MEV        ADEG       B/SR       PER-CENT
   3.00E+00   2.10E+01   1.46E+00   5.00
   3.00E+00   2.50E+01   1.17E+00   5.00
   3.00E+00   3.09E+01   1.01E+00   5.00
   3.00E+00   3.49E+01   7.37E-01   5.00
   3.00E+00   4.64E+01   4.03E-01   5.00
   3.00E+00   5.08E+01   2.62E-01   5.00
   3.00E+00   6.18E+01   1.68E-01   5.00
   3.00E+00   6.68E+01   1.25E-01   5.00
   3.00E+00   7.77E+01   8.17E-02   5.00
   3.00E+00   8.28E+01   5.45E-02   5.50
   3.00E+00   9.27E+01   3.04E-02   9.87
   3.00E+00   9.87E+01   1.59E-02  18.90
   3.00E+00   1.09E+02   1.81E-02  16.60
   3.00E+00   1.15E+02   2.86E-02  10.50
   3.00E+00   1.24E+02   4.67E-02   6.42
   3.00E+00   1.31E+02   5.40E-02   5.56
   3.00E+00   1.40E+02   5.86E-02   5.12
   3.00E+00   1.47E+02   6.48E-02   5.00
   3.00E+00   1.50E+02   6.26E-02   5.00
   3.00E+00   1.57E+02   8.06E-02   5.00
   3.20E+00   1.95E+01   1.48E+00   5.00
   3.20E+00   2.35E+01   1.33E+00   5.00
   3.20E+00   2.94E+01   9.82E-01   5.00
   3.20E+00   3.34E+01   8.19E-01   5.00
   3.20E+00   4.49E+01   3.60E-01   5.00
   3.20E+00   4.93E+01   2.80E-01   5.00
   3.20E+00   6.03E+01   1.50E-01   5.00
   3.20E+00   6.53E+01   1.26E-01   5.00
   3.20E+00   7.62E+01   8.24E-02   5.00
   3.20E+00   8.13E+01   6.49E-02   5.00
   3.20E+00   9.12E+01   2.46E-02  12.20
   3.20E+00   9.72E+01   1.57E-02  19.00
   3.20E+00   1.07E+02   1.89E-02  15.90
   3.20E+00   1.13E+02   2.81E-02  10.60
   3.20E+00   1.22E+02   5.63E-02   5.32
   3.20E+00   1.30E+02   6.05E-02   5.00
   3.20E+00   1.39E+02   6.21E-02   5.00
   3.20E+00   1.46E+02   6.23E-02   5.00
   3.20E+00   1.48E+02   5.92E-02   5.05
   3.20E+00   1.55E+02   6.33E-02   5.00
   3.40E+00   1.95E+01   1.51E+00   5.00
   3.40E+00   2.35E+01   1.33E+00   5.00
   3.40E+00   2.94E+01   9.63E-01   5.00
   3.40E+00   3.34E+01   7.84E-01   5.00
   3.40E+00   4.49E+01   3.26E-01   5.00
   3.40E+00   4.93E+01   2.52E-01   5.00
   3.40E+00   6.03E+01   1.54E-01   5.00
   3.40E+00   6.53E+01   1.23E-01   5.00
   3.40E+00   7.62E+01   8.81E-02   5.00
   3.40E+00   8.13E+01   6.72E-02   5.00
   3.40E+00   9.12E+01   2.32E-02  12.90
   3.40E+00   9.72E+01   1.47E-02  20.40
   3.40E+00   1.07E+02   1.98E-02  15.10
   3.40E+00   1.13E+02   3.11E-02   9.62
   3.40E+00   1.22E+02   5.75E-02   5.20
   3.40E+00   1.30E+02   6.10E-02   5.00
   3.40E+00   1.39E+02   6.04E-02   5.00
   3.40E+00   1.46E+02   5.41E-02   5.54
   3.40E+00   1.48E+02   5.51E-02   5.42
   3.40E+00   1.55E+02   5.57E-02   5.38
   3.60E+00   2.10E+01   1.33E+00   5.00
   3.60E+00   2.50E+01   1.13E+00   5.00
   3.60E+00   3.09E+01   7.76E-01   5.00
   3.60E+00   3.49E+01   6.05E-01   5.00
   3.60E+00   4.64E+01   2.25E-01   5.00
   3.60E+00   5.08E+01   1.77E-01   5.00
   3.60E+00   6.18E+01   1.22E-01   5.00
   3.60E+00   6.68E+01   1.17E-01   5.00
   3.60E+00   7.77E+01   7.97E-02   5.00
   3.60E+00   8.28E+01   5.76E-02   5.21
   3.60E+00   9.27E+01   1.88E-02  16.00
   3.60E+00   9.87E+01   1.36E-02  22.10
   3.60E+00   1.09E+02   2.46E-02  12.20
   3.60E+00   1.15E+02   4.17E-02   7.19
   3.60E+00   1.24E+02   6.49E-02   5.00
   3.60E+00   1.31E+02   6.94E-02   5.00
   3.60E+00   1.40E+02   5.50E-02   5.45
   3.60E+00   1.47E+02   4.74E-02   6.33
   3.60E+00   1.50E+02   4.56E-02   6.58
   3.60E+00   1.57E+02   4.66E-02   6.44
   3.80E+00   2.10E+01   1.37E+00   5.00
   3.80E+00   2.50E+01   1.10E+00   5.00
   3.80E+00   3.09E+01   7.88E-01   5.00
   3.80E+00   3.49E+01   5.66E-01   5.00
   3.80E+00   4.64E+01   1.99E-01   5.00
   3.80E+00   5.08E+01   1.43E-01   5.00
   3.80E+00   6.18E+01   1.06E-01   5.00
   3.80E+00   6.68E+01   1.04E-01   5.00
   3.80E+00   7.77E+01   8.34E-02   5.00
   3.80E+00   8.28E+01   6.11E-02   5.00
   3.80E+00   9.27E+01   2.29E-02  11.80
   3.80E+00   9.87E+01   1.21E-02  22.40
   3.80E+00   1.09E+02   1.65E-02  16.40
   3.80E+00   1.15E+02   3.20E-02   8.43
   3.80E+00   1.24E+02   5.98E-02   5.00
   3.80E+00   1.31E+02   6.43E-02   5.00
   3.80E+00   1.40E+02   5.49E-02   5.00
   3.80E+00   1.47E+02   4.46E-02   6.05
   3.80E+00   1.50E+02   3.64E-02   7.43
   3.80E+00   1.57E+02   3.00E-02   9.01
   4.00E+00   2.10E+01   1.31E+00   5.00
   4.00E+00   2.50E+01   1.10E+00   5.00
   4.00E+00   3.09E+01   7.21E-01   5.00
   4.00E+00   3.49E+01   5.31E-01   5.00
   4.00E+00   4.64E+01   1.55E-01   5.00
   4.00E+00   5.08E+01   1.23E-01   5.00
   4.00E+00   6.18E+01   1.13E-01   5.00
   4.00E+00   6.68E+01   1.13E-01   5.00
   4.00E+00   7.77E+01   9.02E-02   5.00
   4.00E+00   8.28E+01   6.48E-02   5.00
   4.00E+00   9.27E+01   2.05E-02  14.60
   4.00E+00   9.87E+01   1.11E-02  27.00
   4.00E+00   1.09E+02   2.52E-02  11.90
   4.00E+00   1.15E+02   4.44E-02   6.76
   4.00E+00   1.24E+02   7.53E-02   5.00
   4.00E+00   1.31E+02   7.37E-02   5.00
   4.00E+00   1.40E+02   5.48E-02   5.47
   4.00E+00   1.47E+02   3.71E-02   8.09
   4.00E+00   1.50E+02   3.27E-02   9.17
   4.00E+00   1.57E+02   2.82E-02  10.60
ENDDATA            122
ENDSUBENT          139
SUBENT        12805005   19830304              20050926       0000
BIB                  5          9
REACTION   (51-SB-0(N,INL),PAR,SIG)
SAMPLE     METALLIC ANTIMONY CYLINDER, 2 CM DIAMETER AND 2 CM LONG
CORRECTION DATA FOR 491. KEV EXCITATION CORRECTED FOR CONTRIBUTION
            OF SECOND SOURCE NEUTRON GROUP.
ANALYSIS   (INTAD) OBTAINED FROM INTEGRATING A SECOND ORDER
            LEGENDRE FIT TO DIFFERENTIAL DATA.
ERR-ANALYS (DATA-ERR) OVERALL UNCERTAINTY FROM 15 TO 30 PERCENT
              DETECTOR NORMALIZATION                3 PERCENT
              CORRECTIONS                           1 PERCENT
ENDBIB               9
NOCOMMON             0          0
DATA                 5         33
E-EXC      E-EXC-ERR  EN         DATA       DATA-ERR
KEV        KEV        MEV        B          B
   491.                 1.900E+00  2.100E-01  8.040E-02
   491.                 2.000E+00  1.650E-01  7.890E-02
   491.                 2.100E+00  1.090E-01  7.190E-02
   491.                 2.200E+00  9.300E-02  7.130E-02
   491.                 2.300E+00  8.500E-02  7.370E-02
  1050.    32.          1.900E+00  4.400E-01  2.200E-01
  1050.    32.          2.100E+00  5.280E-01  1.320E-01
  1050.    32.          2.200E+00  5.330E-01  1.070E-01
  1050.    32.          2.300E+00  5.370E-01  8.050E-02
  1050.    32.          2.400E+00  4.340E-01  8.680E-02
  1050.    32.          2.500E+00  4.360E-01  8.720E-02
  1050.    32.          2.600E+00  3.600E-01  6.480E-02
  1050.    32.          2.700E+00  3.370E-01  6.740E-02
  1050.    32.          2.800E+00  2.560E-01  5.120E-02
  1050.    32.          2.900E+00  2.400E-01  6.000E-02
  1050.    32.          3.000E+00  2.100E-01  3.780E-02
  1050.    32.          3.200E+00  1.970E-01  4.930E-02
  1050.    32.          3.400E+00  1.700E-01  5.100E-02
  1050.    32.          3.600E+00  1.390E-01  4.170E-02
  1050.    32.          3.800E+00  1.220E-01  4.270E-02
  1050.    32.          4.000E+00  1.280E-01  4.480E-02
  1436.    33.          2.400E+00  3.900E-01  1.370E-01
  1436.    33.          2.500E+00  5.060E-01  1.770E-01
  1436.    33.          2.600E+00  5.050E-01  1.510E-01
  1436.    33.          2.700E+00  4.730E-01  1.420E-01
  1436.    33.          2.800E+00  3.300E-01  7.560E-02
  1436.    33.          2.900E+00  3.000E-01  9.000E-02
  1436.    33.          3.000E+00  2.610E-01  6.520E-02
  1436.    33.          3.200E+00  2.050E-01  4.100E-02
  1436.    33.          3.400E+00  1.620E-01  4.050E-02
  1805.    30.          2.900E+00  2.480E-01  7.440E-02
  1805.    30.          3.000E+00  2.330E-01  6.990E-02
  1805.    30.          3.200E+00  1.780E-01  5.340E-02
ENDDATA             35
ENDSUBENT           49
ENDENTRY             5
