ENTRY            12835     850404              20050926       0000
SUBENT        12835001     850404              20050926       0000
BIB                  6         13
INSTITUTE  (1USAANL,3SAFSUN) NATIONAL ACCELERATOR, FAURE AND
                             UNIVERSITY OF WESTERN CAPE,BELLVILLE
REFERENCE  (J,ZP,319,47,8410)
           (J,NP/A,415,1,8403)
           (R,ANL-NDM-79,8209)
AUTHOR     (C.BUDTZ-JORGENSEN,P.GUENTHER,A.SMITH,J.WHALEN,
           W.MACMURRAY,M.RENAN,I.VANHEERDEN)
TITLE      NEUTRON TOTAL,SCATTERING AND INELASTIC GAMMA-RAY
           PRODUCTION CROSS SECTIONS OF YTTRIUM AT FEW MEV
           ENERGIES.
STATUS     (APRVD) A.B.SMITH, 85/3/29. DATA TAKEN FROM PRIVATE
                   COMM., A.B.SMITH, 85/2/1.
HISTORY    (850220C)
ENDBIB              13
NOCOMMON             0          0 0
ENDSUBENT           16
SUBENT        12835002     850404              20050926       0000
BIB                 10         20
REACTION   (39-Y-89(N,TOT),,SIG,,AV)
FACILITY   ANL FAST-NEUTRON GENERATOR FACILITY.
INC-SPECT  ENERGY RESOLUTION VARIED FROM 50 KEV AT 0.5 MEV TO
            100 KEV AT 4.2 MEV.
METHOD     (TOF) 5.5-M FIGHT PATH
INC-SOURCE (P-LI7)
DETECTOR   ARGONNE TEN-ANGLE DETECTION SYSTEM
SAMPLE     ELEMENTAL METAL 2.54-CM DIAMETER WITH VARYING LENGTHS
             FROM 1.0 TO 4.75 CM.
CORRECTION CORRECTIONS WERE MADE FOR-
           .    DEAD-TIME EFFECTS
           .    INSCATTERING EFFECTS WERE NEGLIGIBLY SMALL.
ANALYSIS   TOTAL CROSS SECTIONS MEASURED FOR VARYING SAMPLE
             THICKNESSES WERE AVERAGED OVER 100 KEV IN ORDER TO
             SMOOTH THE FLUCTUATIONS.
ERR-ANALYS (ERR-S) THE STATISTICAL UNCERTAINTIES VARIED FROM
                        1 TO 5 PERCENT.
                      THE STATISTICAL UNCERTAINTIES OF THE
                        AVERAGED CROSS SECTIONS  WERE 1 TO 3
                        PERCENT.
ENDBIB              20
NOCOMMON             0          0
DATA                 3         37
EN-MEAN    DATA       ERR-S
MEV        B          B
 0.4723E+00 0.8988E+01 0.1166E+00
 0.5692E+00 0.8343E+01 0.8909E-01
 0.6619E+00 0.8151E+01 0.9716E-01
 0.7607E+00 0.7424E+01 0.1023E+00
 0.8688E+00 0.6860E+01 0.9415E-01
 0.9378E+00 0.6836E+01 0.1179E+00
 0.1052E+01 0.6449E+01 0.9108E-01
 0.1169E+01 0.5978E+01 0.8408E-01
 0.1247E+01 0.5892E+01 0.8687E-01
 0.1329E+01 0.5752E+01 0.8405E-01
 0.1430E+01 0.5404E+01 0.8542E-01
 0.1548E+01 0.5134E+01 0.8319E-01
 0.1678E+01 0.4923E+01 0.8412E-01
 0.1770E+01 0.4880E+01 0.8535E-01
 0.1846E+01 0.4582E+01 0.8907E-01
 0.1928E+01 0.4645E+01 0.8367E-01
 0.2047E+01 0.4573E+01 0.8418E-01
 0.2169E+01 0.4370E+01 0.8624E-01
 0.2269E+01 0.4302E+01 0.8713E-01
 0.2375E+01 0.4327E+01 0.8432E-01
 0.2453E+01 0.4225E+01 0.8414E-01
 0.2531E+01 0.4293E+01 0.8785E-01
 0.2636E+01 0.4161E+01 0.7926E-01
 0.2735E+01 0.4141E+01 0.1031E+00
 0.2828E+01 0.4126E+01 0.6992E-01
 0.2930E+01 0.4014E+01 0.6270E-01
 0.3038E+01 0.4065E+01 0.7858E-01
 0.3140E+01 0.4064E+01 0.6681E-01
 0.3241E+01 0.4106E+01 0.6993E-01
 0.3349E+01 0.4052E+01 0.6732E-01
 0.3450E+01 0.4033E+01 0.6858E-01
 0.3552E+01 0.3992E+01 0.6924E-01
 0.3654E+01 0.3959E+01 0.7084E-01
 0.3755E+01 0.4015E+01 0.7258E-01
 0.3849E+01 0.3910E+01 0.7559E-01
 0.3956E+01 0.3860E+01 0.7628E-01
 0.4055E+01 0.3852E+01 0.6616E-01
ENDDATA             39
ENDSUBENT           64
SUBENT        12835003     850404              20050926       0000
BIB                 10         25
REACTION   (39-Y-89(N,EL)39-Y-89,,DA,,AV)
FACILITY   ANL FAST-NEUTRON GENERATOR FACILITY.
METHOD     (TOF) 5.5-M FIGHT PATH
INC-SOURCE (P-LI7)
DETECTOR   ARGONNE TEN-ANGLE DETECTION SYSTEM
CORRECTION CORRECTIONS WERE MADE FOR-
           .    DEAD-TIME EFFECTS
           .    INSCATTERING EFFECTS WERE NEGLIGIBLY SMALL.
INC-SPECT  INCIDENT NEUTRON RESOLUTIONS- 50 TO 75 KEV.
           SEVERAL MEASUREMENTS WERE MADE WITH 15 KEV RESOLUTION.
MONITOR    (6-C-12(N,TOT),,SIG) CARBON-VERIFICATION SAMPLE USED.
ANALYSIS   THE MEASURED DIFFERENTIAL ELASTIC CROSS SECTIONS
             WERE AVERAGED OVER 200-KEV INCREMENTS IN STEPS OF
             100 KEV TO SMOOTH THE FLUCTUATIONS.
ERR-ANALYS (ERR-T) OVERALL UNCERTAITY FOR INDIVIDUAL
                      MEASUREMENTS ABOUT 5 PERCENT.
                 .   STATISTICAL UNCERTAINTY OF THE INDIVIDUAL
                       DIFFERENTIAL WAS LESS THAN 2 PERCENT.
                 .   UNCERTAINTY DUE TO DETECTOR CALIBRATION
                       LESS THAN 3 PERCENT.
                 .   THE RELATIVE ANGULAR SCALE KNOWN TO 0.1
                       DEGREE AND THE ABSOLUTE ANGULAR SCALE TO
                       0.5 DEGREE.
                 .   CORRECTION PROCEDURE INTRODUCED ABOUT 1
                       PERCENT UNCERTAINTY.
ENDBIB              25
COMMON               1          3
EN-RSL
KEV
 200.
ENDCOMMON            3
DATA                 4        250
EN-MEAN    ANG        DATA       ERR-T
MEV        ADEG       B/SR       PER-CENT
 1.54        0.183E+02  0.135E+01  0.600E+01
 1.54        0.282E+02  0.115E+01  0.600E+01
 1.54        0.451E+02  0.738E+00  0.600E+01
 1.54        0.641E+02  0.417E+00  0.600E+01
 1.54        0.820E+02  0.284E+00  0.600E+01
 1.54        0.100E+03  0.216E+00  0.600E+01
 1.54        0.117E+03  0.169E+00  0.600E+01
 1.54        0.132E+03  0.164E+00  0.600E+01
 1.54        0.147E+03  0.234E+00  0.600E+01
 1.54        0.157E+03  0.319E+00  0.600E+01
 1.69        0.210E+02  0.121E+01  0.500E+01
 1.69        0.309E+02  0.964E+00  0.500E+01
 1.69        0.488E+02  0.557E+00  0.500E+01
 1.69        0.648E+02  0.346E+00  0.500E+01
 1.69        0.817E+02  0.250E+00  0.500E+01
 1.69        0.977E+02  0.218E+00  0.500E+01
 1.69        0.114E+03  0.159E+00  0.500E+01
 1.69        0.130E+03  0.138E+00  0.500E+01
 1.69        0.147E+03  0.218E+00  0.500E+01
 1.69        0.157E+03  0.306E+00  0.500E+01
 1.79        0.210E+02  0.116E+01  0.500E+01
 1.79        0.309E+02  0.912E+00  0.500E+01
 1.79        0.488E+02  0.508E+00  0.500E+01
 1.79        0.648E+02  0.298E+00  0.500E+01
 1.79        0.817E+02  0.230E+00  0.500E+01
 1.79        0.977E+02  0.197E+00  0.500E+01
 1.79        0.114E+03  0.141E+00  0.500E+01
 1.79        0.130E+03  0.123E+00  0.500E+01
 1.79        0.147E+03  0.206E+00  0.500E+01
 1.79        0.157E+03  0.287E+00  0.500E+01
 1.90        0.210E+02  0.111E+01  0.500E+01
 1.90        0.309E+02  0.850E+00  0.500E+01
 1.90        0.488E+02  0.435E+00  0.500E+01
 1.90        0.648E+02  0.249E+00  0.500E+01
 1.90        0.817E+02  0.203E+00  0.500E+01
 1.90        0.977E+02  0.174E+00  0.500E+01
 1.90        0.114E+03  0.121E+00  0.500E+01
 1.90        0.130E+03  0.104E+00  0.500E+01
 1.90        0.147E+03  0.183E+00  0.500E+01
 1.90        0.157E+03  0.265E+00  0.500E+01
 1.97        0.210E+02  0.109E+01  0.500E+01
 1.97        0.309E+02  0.814E+00  0.500E+01
 1.97        0.488E+02  0.395E+00  0.500E+01
 1.97        0.648E+02  0.233E+00  0.500E+01
 1.97        0.817E+02  0.193E+00  0.500E+01
 1.97        0.977E+02  0.164E+00  0.500E+01
 1.97        0.114E+03  0.114E+00  0.500E+01
 1.97        0.130E+03  0.941E-01  0.500E+01
 1.97        0.147E+03  0.172E+00  0.500E+01
 1.97        0.157E+03  0.256E+00  0.500E+01
 2.07        0.210E+02  0.106E+01  0.500E+01
 2.07        0.309E+02  0.754E+00  0.500E+01
 2.07        0.488E+02  0.347E+00  0.500E+01
 2.07        0.648E+02  0.212E+00  0.500E+01
 2.07        0.817E+02  0.184E+00  0.500E+01
 2.07        0.977E+02  0.155E+00  0.500E+01
 2.07        0.114E+03  0.106E+00  0.500E+01
 2.07        0.130E+03  0.879E-01  0.500E+01
 2.07        0.147E+03  0.162E+00  0.500E+01
 2.07        0.157E+03  0.247E+00  0.500E+01
 2.19        0.210E+02  0.102E+01  0.500E+01
 2.19        0.309E+02  0.711E+00  0.500E+01
 2.19        0.478E+02  0.311E+00  0.500E+01
 2.19        0.648E+02  0.193E+00  0.500E+01
 2.19        0.808E+02  0.177E+00  0.500E+01
 2.19        0.977E+02  0.146E+00  0.500E+01
 2.19        0.114E+03  0.970E-01  0.500E+01
 2.19        0.131E+03  0.836E-01  0.500E+01
 2.19        0.147E+03  0.160E+00  0.500E+01
 2.19        0.157E+03  0.243E+00  0.500E+01
 2.29        0.210E+02  0.102E+01  0.600E+01
 2.29        0.309E+02  0.697E+00  0.600E+01
 2.29        0.478E+02  0.289E+00  0.600E+01
 2.29        0.648E+02  0.177E+00  0.600E+01
 2.29        0.808E+02  0.175E+00  0.600E+01
 2.29        0.977E+02  0.142E+00  0.600E+01
 2.29        0.114E+03  0.887E-01  0.600E+01
 2.29        0.131E+03  0.751E-01  0.600E+01
 2.29        0.147E+03  0.155E+00  0.600E+01
 2.29        0.157E+03  0.244E+00  0.600E+01
 2.39        0.210E+02  0.102E+01  0.600E+01
 2.39        0.309E+02  0.679E+00  0.600E+01
 2.39        0.478E+02  0.262E+00  0.600E+01
 2.39        0.648E+02  0.162E+00  0.600E+01
 2.39        0.808E+02  0.168E+00  0.600E+01
 2.39        0.977E+02  0.135E+00  0.600E+01
 2.39        0.114E+03  0.814E-01  0.600E+01
 2.39        0.131E+03  0.682E-01  0.600E+01
 2.39        0.147E+03  0.147E+00  0.600E+01
 2.39        0.157E+03  0.233E+00  0.600E+01
 2.49        0.210E+02  0.101E+01  0.600E+01
 2.49        0.309E+02  0.662E+00  0.600E+01
 2.49        0.478E+02  0.244E+00  0.600E+01
 2.49        0.648E+02  0.158E+00  0.600E+01
 2.49        0.808E+02  0.168E+00  0.600E+01
 2.49        0.977E+02  0.131E+00  0.600E+01
 2.49        0.114E+03  0.795E-01  0.600E+01
 2.49        0.131E+03  0.684E-01  0.600E+01
 2.49        0.147E+03  0.144E+00  0.600E+01
 2.49        0.157E+03  0.226E+00  0.600E+01
 2.59        0.210E+02  0.101E+01  0.500E+01
 2.59        0.309E+02  0.632E+00  0.500E+01
 2.59        0.478E+02  0.221E+00  0.500E+01
 2.59        0.648E+02  0.148E+00  0.500E+01
 2.59        0.808E+02  0.168E+00  0.500E+01
 2.59        0.977E+02  0.132E+00  0.500E+01
 2.59        0.114E+03  0.779E-01  0.500E+01
 2.59        0.131E+03  0.661E-01  0.500E+01
 2.59        0.147E+03  0.143E+00  0.500E+01
 2.59        0.157E+03  0.230E+00  0.500E+01
 2.70        0.210E+02  0.101E+01  0.500E+01
 2.70        0.309E+02  0.617E+00  0.500E+01
 2.70        0.478E+02  0.199E+00  0.500E+01
 2.70        0.648E+02  0.145E+00  0.500E+01
 2.70        0.808E+02  0.170E+00  0.500E+01
 2.70        0.977E+02  0.132E+00  0.500E+01
 2.70        0.114E+03  0.744E-01  0.500E+01
 2.70        0.131E+03  0.661E-01  0.500E+01
 2.70        0.147E+03  0.145E+00  0.500E+01
 2.70        0.157E+03  0.231E+00  0.500E+01
 2.80        0.210E+02  0.104E+01  0.500E+01
 2.80        0.309E+02  0.624E+00  0.500E+01
 2.80        0.478E+02  0.192E+00  0.500E+01
 2.80        0.648E+02  0.144E+00  0.500E+01
 2.80        0.808E+02  0.170E+00  0.500E+01
 2.80        0.977E+02  0.131E+00  0.500E+01
 2.80        0.114E+03  0.748E-01  0.500E+01
 2.80        0.131E+03  0.662E-01  0.500E+01
 2.80        0.147E+03  0.143E+00  0.500E+01
 2.80        0.157E+03  0.225E+00  0.500E+01
 2.88        0.210E+02  0.107E+01  0.500E+01
 2.88        0.309E+02  0.632E+00  0.500E+01
 2.88        0.478E+02  0.186E+00  0.500E+01
 2.88        0.648E+02  0.144E+00  0.500E+01
 2.88        0.808E+02  0.174E+00  0.500E+01
 2.88        0.977E+02  0.131E+00  0.500E+01
 2.88        0.114E+03  0.729E-01  0.500E+01
 2.88        0.131E+03  0.651E-01  0.500E+01
 2.88        0.147E+03  0.139E+00  0.500E+01
 2.88        0.157E+03  0.224E+00  0.500E+01
 2.97        0.210E+02  0.109E+01  0.500E+01
 2.97        0.309E+02  0.630E+00  0.500E+01
 2.97        0.478E+02  0.174E+00  0.500E+01
 2.97        0.648E+02  0.142E+00  0.500E+01
 2.97        0.808E+02  0.177E+00  0.500E+01
 2.97        0.977E+02  0.130E+00  0.500E+01
 2.97        0.114E+03  0.691E-01  0.500E+01
 2.97        0.131E+03  0.643E-01  0.500E+01
 2.97        0.147E+03  0.139E+00  0.500E+01
 2.97        0.157E+03  0.226E+00  0.500E+01
 3.08        0.208E+02  0.112E+01  0.500E+01
 3.08        0.307E+02  0.631E+00  0.500E+01
 3.08        0.486E+02  0.146E+00  0.500E+01
 3.08        0.655E+02  0.139E+00  0.500E+01
 3.08        0.835E+02  0.173E+00  0.500E+01
 3.08        0.995E+02  0.113E+00  0.500E+01
 3.08        0.116E+03  0.622E-01  0.500E+01
 3.08        0.133E+03  0.682E-01  0.500E+01
 3.08        0.149E+03  0.151E+00  0.500E+01
 3.08        0.159E+03  0.245E+00  0.500E+01
 3.17        0.208E+02  0.116E+01  0.500E+01
 3.17        0.307E+02  0.649E+00  0.500E+01
 3.17        0.476E+02  0.147E+00  0.500E+01
 3.17        0.641E+02  0.129E+00  0.500E+01
 3.17        0.815E+02  0.179E+00  0.500E+01
 3.17        0.975E+02  0.119E+00  0.500E+01
 3.17        0.114E+03  0.590E-01  0.500E+01
 3.17        0.131E+03  0.578E-01  0.500E+01
 3.17        0.147E+03  0.128E+00  0.500E+01
 3.17        0.157E+03  0.217E+00  0.500E+01
 3.26        0.208E+02  0.118E+01  0.500E+01
 3.26        0.307E+02  0.655E+00  0.500E+01
 3.26        0.476E+02  0.140E+00  0.500E+01
 3.26        0.641E+02  0.127E+00  0.500E+01
 3.26        0.815E+02  0.179E+00  0.500E+01
 3.26        0.975E+02  0.113E+00  0.500E+01
 3.26        0.114E+03  0.516E-01  0.500E+01
 3.26        0.131E+03  0.515E-01  0.500E+01
 3.26        0.147E+03  0.120E+00  0.500E+01
 3.26        0.157E+03  0.203E+00  0.500E+01
 3.39        0.208E+02  0.116E+01  0.500E+01
 3.39        0.307E+02  0.628E+00  0.500E+01
 3.39        0.486E+02  0.111E+00  0.500E+01
 3.39        0.655E+02  0.132E+00  0.500E+01
 3.39        0.835E+02  0.166E+00  0.500E+01
 3.39        0.995E+02  0.918E-01  0.500E+01
 3.39        0.116E+03  0.400E-01  0.500E+01
 3.39        0.133E+03  0.482E-01  0.500E+01
 3.39        0.149E+03  0.117E+00  0.500E+01
 3.39        0.159E+03  0.192E+00  0.500E+01
 3.46        0.237E+02  0.979E+00  0.500E+01
 3.46        0.337E+02  0.475E+00  0.500E+01
 3.46        0.496E+02  0.974E-01  0.500E+01
 3.46        0.665E+02  0.134E+00  0.500E+01
 3.46        0.835E+02  0.162E+00  0.500E+01
 3.46        0.995E+02  0.883E-01  0.500E+01
 3.46        0.116E+03  0.374E-01  0.500E+01
 3.46        0.133E+03  0.436E-01  0.500E+01
 3.46        0.149E+03  0.110E+00  0.500E+01
 3.46        0.159E+03  0.186E+00  0.500E+01
 3.57        0.208E+02  0.109E+01  0.500E+01
 3.57        0.307E+02  0.571E+00  0.500E+01
 3.57        0.476E+02  0.100E-00  0.500E+01
 3.57        0.641E+02  0.120E+00  0.500E+01
 3.57        0.815E+02  0.167E+00  0.500E+01
 3.57        0.975E+02  0.915E-01  0.500E+01
 3.57        0.114E+03  0.344E-01  0.500E+01
 3.57        0.131E+03  0.376E-01  0.500E+01
 3.57        0.147E+03  0.948E-01  0.500E+01
 3.57        0.157E+03  0.162E+00  0.500E+01
 3.72        0.208E+02  0.107E+01  0.500E+01
 3.72        0.247E+02  0.862E+00  0.500E+01
 3.72        0.307E+02  0.560E+00  0.500E+01
 3.72        0.346E+02  0.390E+00  0.500E+01
 3.72        0.462E+02  0.948E-01  0.500E+01
 3.72        0.506E+02  0.641E-01  0.500E+01
 3.72        0.616E+02  0.992E-01  0.500E+01
 3.72        0.665E+02  0.134E+00  0.500E+01
 3.72        0.774E+02  0.172E+00  0.500E+01
 3.72        0.825E+02  0.166E+00  0.500E+01
 3.72        0.925E+02  0.112E+00  0.500E+01
 3.72        0.985E+02  0.770E-01  0.500E+01
 3.72        0.109E+03  0.355E-01  0.500E+01
 3.72        0.114E+03  0.273E-01  0.500E+01
 3.72        0.124E+03  0.289E-01  0.500E+01
 3.72        0.130E+03  0.373E-01  0.500E+01
 3.72        0.140E+03  0.630E-01  0.500E+01
 3.72        0.147E+03  0.906E-01  0.500E+01
 3.72        0.150E+03  0.105E+00  0.500E+01
 3.72        0.157E+03  0.144E+00  0.500E+01
 3.83        0.183E+02  0.124E+01  0.500E+01
 3.83        0.282E+02  0.669E+00  0.500E+01
 3.83        0.451E+02  0.983E-01  0.500E+01
 3.83        0.641E+02  0.119E+00  0.500E+01
 3.83        0.820E+02  0.161E+00  0.500E+01
 3.83        0.100E+03  0.646E-01  0.500E+01
 3.83        0.117E+03  0.263E-01  0.500E+01
 3.83        0.132E+03  0.418E-01  0.500E+01
 3.83        0.147E+03  0.882E-01  0.500E+01
 3.83        0.157E+03  0.135E+00  0.500E+01
 3.94        0.173E+02  0.135E+01  0.500E+01
 3.94        0.272E+02  0.740E+00  0.500E+01
 3.94        0.441E+02  0.109E+00  0.500E+01
 3.94        0.631E+02  0.116E+00  0.500E+01
 3.94        0.810E+02  0.165E+00  0.500E+01
 3.94        0.990E+02  0.708E-01  0.500E+01
 3.94        0.116E+03  0.239E-01  0.500E+01
 3.94        0.131E+03  0.392E-01  0.500E+01
 3.94        0.146E+03  0.783E-01  0.500E+01
 3.94        0.156E+03  0.127E+00  0.500E+01
ENDDATA            252
ENDSUBENT          286
SUBENT        12835004     850404              20050926       0000
BIB                  9         22
REACTION   (39-Y-89(N,INL)39-Y-89,PAR,SIG)
FACILITY   ANL FAST-NEUTRON GENERATOR FACILITY.
METHOD     (TOF) 5.5-M FIGHT PATH
INC-SOURCE (P-LI7)
DETECTOR   ARGONNE TEN-ANGLE DETECTION SYSTEM
CORRECTION CORRECTIONS WERE MADE FOR-
           .    DEAD-TIME EFFECTS
           .    INSCATTERING EFFECTS WERE NEGLIGIBLY SMALL.
MONITOR    (6-C-12(N,TOT),,SIG) CARBON-VERIFICATION SAMPLE USED.
ANALYSIS   DISTORTION INTRODUCED BY THE SECOND LI-7(P,N) GROUP
             WAS ELIMINATED WITH APPROPRIATE CORRECTIONS.
ERR-ANALYS (ERR-T) THE UNCERTAINTIES RANGED BETWEEN 10 AND 20
                      PERCENT.
                 .   STATISTICAL UNCERTAINTY OF THE INDIVIDUAL
                       DIFFERENTIAL WAS MORE THAN 2 PERCENT.
                 .   UNCERTAINTY DUE TO DETECTOR CALIBRATION
                       LESS THAN 3 PERCENT.
                 .   THE RELATIVE ANGULAR SCALE KNOWN TO 0.1
                       DEGREE AND THE ABSOLUTE ANGULAR SCALE TO
                       0.5 DEGREE.
                 .   CORRECTION PROCEDURE INTRODUCED ABOUT 1
                       PERCENT UNCERTAINTY.
ENDBIB              22
NOCOMMON             0          0
DATA                 4        125
E-EXC      EN         DATA       ERR-T
MEV        MEV        B          B
 0.915       0.167E+01  0.176E+00  0.352E-01
 0.915       0.177E+01  0.201E+00  0.402E-01
 0.915       0.186E+01  0.195E+00  0.390E-01
 0.915       0.194E+01  0.213E+00  0.319E-01
 0.915       0.203E+01  0.257E+00  0.386E-01
 0.915       0.214E+01  0.235E+00  0.352E-01
 0.915       0.224E+01  0.247E+00  0.371E-01
 0.915       0.234E+01  0.251E+00  0.377E-01
 0.915       0.244E+01  0.244E+00  0.244E-01
 0.915       0.254E+01  0.229E+00  0.229E-01
 0.915       0.264E+01  0.208E+00  0.208E-01
 0.915       0.274E+01  0.202E+00  0.202E-01
 0.915       0.280E+01  0.184E+00  0.200E-01
 0.915       0.284E+01  0.191E+00  0.191E-01
 0.915       0.295E+01  0.183E+00  0.183E-01
 0.915       0.300E+01  0.198E+00  0.250E-01
 0.915       0.305E+01  0.181E+00  0.181E-01
 0.915       0.310E+01  0.170E+00  0.200E-01
 0.915       0.318E+01  0.169E+00  0.178E-01
 0.915       0.328E+01  0.146E+00  0.188E-01
 0.915       0.338E+01  0.147E+00  0.166E-01
 0.915       0.344E+01  0.139E+00  0.180E-01
 0.915       0.355E+01  0.128E+00  0.179E-01
 0.915       0.359E+01  0.135E+00  0.160E-01
 0.915       0.365E+01  0.134E+00  0.201E-01
 0.915       0.376E+01  0.127E+00  0.191E-01
 0.915       0.385E+01  0.113E+00  0.170E-01
 0.915       0.397E+01  0.968E-01  0.145E-01
 1.509       0.218E+01  0.487E+00  0.974E-01
 1.509       0.228E+01  0.477E+00  0.859E-01
 1.509       0.235E+01  0.497E+00  0.795E-01
 1.509       0.242E+01  0.503E+00  0.705E-01
 1.509       0.246E+01  0.572E+00  0.686E-01
 1.509       0.252E+01  0.580E+00  0.580E-01
 1.509       0.256E+01  0.592E+00  0.592E-01
 1.509       0.262E+01  0.520E+00  0.520E-01
 1.509       0.266E+01  0.533E+00  0.533E-01
 1.509       0.273E+01  0.492E+00  0.492E-01
 1.509       0.278E+01  0.513E+00  0.542E-01
 1.509       0.281E+01  0.497E+00  0.497E-01
 1.509       0.288E+01  0.500E+00  0.500E-01
 1.509       0.292E+01  0.493E+00  0.493E-01
 1.509       0.297E+01  0.487E+00  0.520E-01
 1.509       0.303E+01  0.483E+00  0.483E-01
 1.509       0.310E+01  0.484E+00  0.482E-01
 1.509       0.314E+01  0.462E+00  0.463E-01
 1.509       0.320E+01  0.456E+00  0.470E-01
 1.509       0.322E+01  0.445E+00  0.445E-01
 1.509       0.330E+01  0.397E+00  0.425E-01
 1.509       0.335E+01  0.386E+00  0.386E-01
 1.509       0.340E+01  0.315E+00  0.400E-01
 1.509       0.342E+01  0.341E+00  0.341E-01
 1.509       0.350E+01  0.311E+00  0.357E-01
 1.509       0.355E+01  0.278E+00  0.278E-01
 1.509       0.362E+01  0.265E+00  0.265E-01
 1.509       0.369E+01  0.250E+00  0.300E-01
 1.509       0.375E+01  0.234E+00  0.281E-01
 1.509       0.382E+01  0.221E+00  0.309E-01
 1.509       0.389E+01  0.218E+00  0.326E-01
 1.509       0.392E+01  0.177E+00  0.177E-01
 1.509       0.396E+01  0.189E+00  0.231E-01
 1.748       0.248E+01  0.570E+00  0.114E+00
 1.748       0.255E+01  0.554E+00  0.998E-01
 1.748       0.262E+01  0.571E+00  0.913E-01
 1.748       0.266E+01  0.584E+00  0.817E-01
 1.748       0.273E+01  0.544E+00  0.609E-01
 1.748       0.278E+01  0.542E+00  0.535E-01
 1.748       0.281E+01  0.490E+00  0.490E-01
 1.748       0.288E+01  0.539E+00  0.540E-01
 1.748       0.292E+01  0.555E+00  0.555E-01
 1.748       0.296E+01  0.536E+00  0.536E-01
 1.748       0.303E+01  0.530E+00  0.530E-01
 1.748       0.309E+01  0.516E+00  0.516E-01
 1.748       0.314E+01  0.507E+00  0.507E-01
 1.748       0.320E+01  0.495E+00  0.490E-01
 1.748       0.322E+01  0.478E+00  0.478E-01
 1.748       0.330E+01  0.422E+00  0.423E-01
 1.748       0.335E+01  0.418E+00  0.418E-01
 1.748       0.342E+01  0.373E+00  0.373E-01
 1.748       0.350E+01  0.337E+00  0.333E-01
 1.748       0.355E+01  0.303E+00  0.303E-01
 1.748       0.363E+01  0.283E+00  0.295E-01
 1.748       0.369E+01  0.260E+00  0.312E-01
 1.748       0.375E+01  0.241E+00  0.313E-01
 1.748       0.382E+01  0.227E+00  0.318E-01
 1.748       0.388E+01  0.223E+00  0.283E-01
 1.748       0.392E+01  0.194E+00  0.291E-01
 1.748       0.396E+01  0.207E+00  0.311E-01
 2.225       0.296E+01  0.141E+00  0.424E-01
 2.225       0.304E+01  0.133E+00  0.400E-01
 2.225       0.308E+01  0.147E+00  0.442E-01
 2.225       0.314E+01  0.149E+00  0.456E-01
 2.225       0.322E+01  0.186E+00  0.466E-01
 2.225       0.329E+01  0.175E+00  0.437E-01
 2.225       0.335E+01  0.175E+00  0.438E-01
 2.225       0.342E+01  0.161E+00  0.403E-01
 2.225       0.349E+01  0.147E+00  0.368E-01
 2.225       0.355E+01  0.125E+00  0.313E-01
 2.225       0.362E+01  0.127E+00  0.317E-01
 2.225       0.369E+01  0.130E+00  0.326E-01
 2.225       0.375E+01  0.140E+00  0.350E-01
 2.225       0.382E+01  0.130E+00  0.326E-01
 2.225       0.388E+01  0.131E+00  0.327E-01
 2.225       0.392E+01  0.101E+00  0.253E-01
 2.225       0.397E+01  0.105E+00  0.315E-01
 2.568       0.328E+01  0.169E+00  0.508E-01
 2.568       0.339E+01  0.160E+00  0.359E-01
 2.568       0.349E+01  0.166E+00  0.385E-01
 2.568       0.358E+01  0.186E+00  0.465E-01
 2.568       0.368E+01  0.190E+00  0.476E-01
 2.568       0.375E+01  0.189E+00  0.378E-01
 2.568       0.382E+01  0.188E+00  0.376E-01
 2.568       0.387E+01  0.168E+00  0.336E-01
 2.568       0.392E+01  0.168E+00  0.421E-01
 2.568       0.397E+01  0.188E+00  0.563E-01
 2.895       0.348E+01  0.214E+00  0.400E-01
 2.895       0.358E+01  0.165E+00  0.494E-01
 2.895       0.368E+01  0.230E+00  0.464E-01
 2.895       0.378E+01  0.221E+00  0.552E-01
 2.895       0.388E+01  0.231E+00  0.579E-01
 2.895       0.392E+01  0.215E+00  0.538E-01
 2.895       0.397E+01  0.218E+00  0.544E-01
 3.108       0.378E+01  0.392E+00  0.118E+00
 3.108       0.387E+01  0.400E+00  0.110E+00
 3.108       0.396E+01  0.390E+00  0.973E-01
ENDDATA            127
ENDSUBENT          154
SUBENT        12835005     851106              20050926       0000
BIB                  8         13
REACTION   (39-Y-89(N,INL)39-Y-89,PAR,DA,G,4PI)
FACILITY   (VDG,3SAFSUN) 6 MEV VAN-DE-GRAAFF.
DETECTOR   (GELI)
MONITOR    (6-C-12(N,TOT),,SIG) CARBON-VERIFICATION SAMPLE USED.
ANALYSIS   DISTORTION INTRODUCED BY THE SECOND LI-7(P,N) GROUP
             WAS ELIMINATED WITH APPROPRIATE CORRECTIONS.
ERR-ANALYS (ERR-T) TOTAL UNCERTAINTY.
            STATISTICAL UNCERTAINTY GENERALLY LESS THAN 6 PERCENT.
            NORMALIZATION UNCERTAINTY 6 PERCENT.
CORRECTION NOT CORRECTED FOR MULTIPLE SCATTERING OR NEUTRON
            ATTENUATION EFFECTS WITHIN SAMPLE, FOUND TO HAVE
            PRODUCED OPPOSITE AND NEARLY EQUAL CORRECTIONS.
HISTORY    (851106A) REACTION CORRECTED.
ENDBIB              13
COMMON               2          3
EN-RSL     ANG
KEV        ADEG
 50.        125.
ENDCOMMON            3
DATA                 4        136
E-LVL      EN         DATA       ERR-T
MEV        MEV        B          B
 1.5074     0.1600E+01 0.1595E+00 0.1595E-01
 1.5074     0.1700E+01 0.3387E+00 0.3387E-01
 1.5074     0.1800E+01 0.4737E+00 0.4737E-01
 1.5074     0.1900E+01 0.4970E+00 0.4970E-01
 1.5074     0.2000E+01 0.5003E+00 0.5003E-01
 1.5074     0.2100E+01 0.4993E+00 0.4993E-01
 1.5074     0.2200E+01 0.4639E+00 0.4639E-01
 1.5074     0.2300E+01 0.4994E+00 0.4994E-01
 1.5074     0.2400E+01 0.4601E+00 0.4601E-01
 1.5074     0.2500E+01 0.4656E+00 0.4656E-01
 1.5074     0.2600E+01 0.4622E+00 0.4622E-01
 1.5074     0.2700E+01 0.4601E+00 0.4601E-01
 1.5074     0.2800E+01 0.4414E+00 0.4414E-01
 1.5074     0.2900E+01 0.4651E+00 0.4651E-01
 1.5074     0.3000E+01 0.4099E+00 0.4099E-01
 1.5074     0.3100E+01 0.3952E+00 0.3952E-01
 1.5074     0.3200E+01 0.3784E+00 0.3784E-01
 1.5074     0.3300E+01 0.3461E+00 0.3461E-01
 1.5074     0.3400E+01 0.3259E+00 0.3259E-01
 1.5074     0.3500E+01 0.3185E+00 0.3185E-01
 1.5074     0.3600E+01 0.3094E+00 0.3094E-01
 1.5074     0.3700E+01 0.3017E+00 0.3017E-01
 1.5074     0.3800E+01 0.2997E+00 0.2997E-01
 1.7445     0.1800E+01 0.5690E-01 0.5690E-02
 1.7445     0.1900E+01 0.2140E+00 0.2140E-01
 1.7445     0.2000E+01 0.3365E+00 0.3365E-01
 1.7445     0.2100E+01 0.4203E+00 0.4203E-01
 1.7445     0.2200E+01 0.4731E+00 0.4731E-01
 1.7445     0.2300E+01 0.4888E+00 0.4888E-01
 1.7445     0.2400E+01 0.4949E+00 0.4949E-01
 1.7445     0.2500E+01 0.4786E+00 0.4786E-01
 1.7445     0.2600E+01 0.5131E+00 0.5131E-01
 1.7445     0.2700E+01 0.4999E+00 0.4999E-01
 1.7445     0.2800E+01 0.4852E+00 0.4852E-01
 1.7445     0.2900E+01 0.5099E+00 0.5099E-01
 1.7445     0.3000E+01 0.4544E+00 0.4544E-01
 1.7445     0.3100E+01 0.4334E+00 0.4334E-01
 1.7445     0.3200E+01 0.4147E+00 0.4147E-01
 1.7445     0.3300E+01 0.3717E+00 0.3717E-01
 1.7445     0.3400E+01 0.3484E+00 0.3484E-01
 1.7445     0.3500E+01 0.3435E+00 0.3435E-01
 1.7445     0.3600E+01 0.3243E+00 0.3243E-01
 1.7445     0.3700E+01 0.2891E+00 0.2891E-01
 1.7445     0.3800E+01 0.2635E+00 0.2635E-01
 2.2226     0.2300E+01 0.1830E-01 0.1830E-02
 2.2226     0.2400E+01 0.6580E-01 0.6580E-02
 2.2226     0.2500E+01 0.9700E-01 0.9700E-02
 2.2226     0.2600E+01 0.1271E+00 0.1271E-01
 2.2226     0.2700E+01 0.1305E+00 0.1305E-01
 2.2226     0.2800E+01 0.1368E+00 0.1368E-01
 2.2226     0.2900E+01 0.1481E+00 0.1481E-01
 2.2226     0.3000E+01 0.1293E+00 0.1293E-01
 2.2226     0.3100E+01 0.1272E+00 0.1272E-01
 2.2226     0.3200E+01 0.1313E+00 0.1313E-01
 2.2226     0.3300E+01 0.1250E+00 0.1250E-01
 2.2226     0.3400E+01 0.1174E+00 0.1174E-01
 2.2226     0.3500E+01 0.1136E+00 0.1136E-01
 2.2226     0.3600E+01 0.1120E+00 0.1120E-01
 2.2226     0.3700E+01 0.1091E+00 0.1091E-01
 2.2226     0.3800E+01 0.1042E+00 0.1042E-01
 2.530      0.2600E+01 0.1180E-01 0.1180E-02
 2.530      0.2700E+01 0.4330E-01 0.4330E-02
 2.530      0.2800E+01 0.6290E-01 0.6290E-02
 2.530      0.2900E+01 0.7920E-01 0.7920E-02
 2.530      0.3000E+01 0.7390E-01 0.7390E-02
 2.530      0.3100E+01 0.8170E-01 0.8170E-02
 2.530      0.3200E+01 0.8660E-01 0.8660E-02
 2.530      0.3300E+01 0.8520E-01 0.8520E-02
 2.530      0.3400E+01 0.8180E-01 0.8180E-02
 2.530      0.3500E+01 0.8720E-01 0.8720E-02
 2.530      0.3600E+01 0.8600E-01 0.8600E-02
 2.530      0.3700E+01 0.8500E-01 0.8500E-02
 2.530      0.3800E+01 0.8340E-01 0.8340E-02
 2.566      0.2700E+01 0.2900E-02 0.2900E-03
 2.566      0.2800E+01 0.4900E-02 0.4900E-03
 2.566      0.2900E+01 0.7200E-02 0.7200E-03
 2.566      0.3000E+01 0.8500E-02 0.8500E-03
 2.566      0.3100E+01 0.9800E-02 0.9800E-03
 2.566      0.3200E+01 0.1100E-01 0.1100E-02
 2.566      0.3300E+01 0.1240E-01 0.1240E-02
 2.566      0.3400E+01 0.1330E-01 0.1330E-02
 2.566      0.3500E+01 0.1710E-01 0.1710E-02
 2.566      0.3600E+01 0.1840E-01 0.1840E-02
 2.566      0.3700E+01 0.1760E-01 0.1760E-02
 2.566      0.3800E+01 0.2080E-01 0.2080E-02
 2.622      0.2700E+01 0.8600E-02 0.8600E-03
 2.622      0.2800E+01 0.2210E-01 0.2210E-02
 2.622      0.2900E+01 0.2910E-01 0.2910E-02
 2.622      0.3000E+01 0.3000E-01 0.3000E-02
 2.622      0.3100E+01 0.3400E-01 0.3400E-02
 2.622      0.3200E+01 0.4140E-01 0.4140E-02
 2.622      0.3300E+01 0.4140E-01 0.4140E-02
 2.622      0.3400E+01 0.4520E-01 0.4520E-02
 2.622      0.3500E+01 0.4690E-01 0.4690E-02
 2.622      0.3600E+01 0.4890E-01 0.4890E-02
 2.622      0.3700E+01 0.4750E-01 0.4750E-02
 2.622      0.3800E+01 0.4810E-01 0.4810E-02
 2.8719     0.3000E+01 0.1290E-01 0.1290E-02
 2.8719     0.3100E+01 0.2890E-01 0.2890E-02
 2.8719     0.3200E+01 0.3890E-01 0.3890E-02
 2.8719     0.3300E+01 0.4420E-01 0.4420E-02
 2.8719     0.3400E+01 0.4760E-01 0.4760E-02
 2.8719     0.3500E+01 0.5000E-01 0.5000E-02
 2.8719     0.3600E+01 0.5180E-01 0.5180E-02
 2.8719     0.3700E+01 0.5060E-01 0.5060E-02
 2.8719     0.3800E+01 0.4860E-01 0.4860E-02
 2.880      0.3000E+01 0.2540E-01 0.2540E-02
 2.880      0.3100E+01 0.7970E-01 0.7970E-02
 2.880      0.3200E+01 0.1180E+00 0.1180E-01
 2.880      0.3300E+01 0.1326E+00 0.1326E-01
 2.880      0.3400E+01 0.1310E+00 0.1310E-01
 2.880      0.3500E+01 0.1366E+00 0.1366E-01
 2.880      0.3600E+01 0.1327E+00 0.1327E-01
 2.880      0.3700E+01 0.1252E+00 0.1252E-01
 2.880      0.3800E+01 0.1152E+00 0.1152E-01
 3.067      0.3200E+01 0.2410E-01 0.2410E-02
 3.067      0.3300E+01 0.5740E-01 0.5740E-02
 3.067      0.3400E+01 0.8090E-01 0.8090E-02
 3.067      0.3500E+01 0.9280E-01 0.9280E-02
 3.067      0.3600E+01 0.1034E+00 0.1034E-01
 3.067      0.3700E+01 0.9720E-01 0.9720E-02
 3.067      0.3800E+01 0.9490E-01 0.9490E-02
 3.107      0.3200E+01 0.1830E-01 0.1830E-02
 3.107      0.3300E+01 0.4550E-01 0.4550E-02
 3.107      0.3400E+01 0.8690E-01 0.8690E-02
 3.107      0.3500E+01 0.1091E+00 0.1091E-01
 3.107      0.3600E+01 0.1240E+00 0.1240E-01
 3.107      0.3700E+01 0.1206E+00 0.1206E-01
 3.107      0.3800E+01 0.1142E+00 0.1142E-01
 3.140      0.3200E+01 0.4300E-02 0.4300E-03
 3.140      0.3300E+01 0.3520E-01 0.3520E-02
 3.140      0.3400E+01 0.7510E-01 0.7510E-02
 3.140      0.3500E+01 0.9580E-01 0.9580E-02
 3.140      0.3600E+01 0.1170E+00 0.1170E-01
 3.140      0.3700E+01 0.1118E+00 0.1118E-01
 3.140      0.3800E+01 0.1052E+00 0.1052E-01
ENDDATA            138
ENDSUBENT          160
ENDENTRY             5
