ENTRY            12869   20220903   20230600   20230528       1504
SUBENT        12869001   20220903   20230600   20230528       1504
BIB                  8         14
TITLE      Total, scattering and gamma production cross sections
           for few-MeV neutrons on elemental copper
AUTHOR     (P.T.Guenther, D.L.Smith, A.B.Smith, J.F.Whalen)
INSTITUTE  (1USAANL)
REFERENCE  (J,NP/A,448,280,1986)
FACILITY   (DYNAM,1USAANL)
INC-SOURCE (P-LI7)
STATUS     (APRVD) P.T.Guenther, 1986/3/18.
HISTORY    (19851004C)
           (19860324A) Reference update, miscellaneous corrections
           (20091212A) VM:Updated to new date formats,lower case.
                       BIB section updated. Corrections to data
                       sets 4, 8, 9.
           (20220903A) On. 010 added.
ENDBIB              14
NOCOMMON             0          0
ENDSUBENT           17
SUBENT        12869002   20220903   20230600   20230528       1504
BIB                  8         10
REACTION   (29-CU-0(N,TOT),,SIG,,AV)
SAMPLE     Metallic Cu cylinder, 2.5 cm diameter and 1.25 cm long
INC-SPECT  Beam resolution between 50 and 100 keV.
           Energy resolution given is averaging interval.
CORRECTION Data were corrected for dead-time
ANALYSIS   Data were averaged over 200 keV intervals
ERR-ANALYS (ERR-S) Statistical uncertainty
           (EN-ERR) Energy uncertainty.
STATUS     (TABLE) Data received in private comm., 1985/9/23.
HISTORY    (20220903U) On. STATUS moved from 001.
ENDBIB              10
COMMON               2          3
EN-ERR     EN-RSL
KEV        KEV
 10.        200.
ENDCOMMON            3
DATA                 3         34
EN-MEAN    DATA       ERR-S
MEV        B          B
 1.20000    3.21314    0.02054
 1.30000    3.17582    0.02087
 1.40000    3.13515    0.02140
 1.50000    3.10086    0.02165
 1.60000    3.08388    0.02215
 1.70000    3.07711    0.02293
 1.80000    3.07568    0.02347
 1.90000    3.07570    0.02419
 2.00000    3.08504    0.02473
 2.10000    3.10515    0.02517
 2.20000    3.10330    0.02567
 2.30000    3.11204    0.02575
 2.40000    3.14263    0.02595
 2.50000    3.17104    0.02566
 2.60000    3.18504    0.02536
 2.70000    3.21010    0.02449
 2.80000    3.24303    0.02365
 2.90000    3.26503    0.02267
 3.00000    3.29219    0.02173
 3.10000    3.32017    0.02088
 3.20000    3.34858    0.02013
 3.30000    3.37965    0.02026
 3.40000    3.40008    0.02065
 3.50000    3.43604    0.02121
 3.60000    3.48048    0.02201
 3.70000    3.52031    0.02318
 3.80000    3.54562    0.02418
 3.90000    3.58669    0.02538
 4.00000    3.61252    0.02655
 4.10000    3.63720    0.02800
 4.20000    3.67144    0.02905
 4.30000    3.69429    0.03031
 4.40000    3.71263    0.03068
 4.50000    3.72610    0.03098
ENDDATA             36
ENDSUBENT           55
SUBENT        12869003   20220903   20230600   20230528       1504
BIB                 10         14
REACTION   (29-CU-0(N,EL)29-CU-0,,DA,,AV)
SAMPLE     Metallic Cu cylinder, 2.0 cm diameter and 2.0 cm long.
DETECTOR   (SCIN) Proton recoil scintillators
MONITOR    (6-C-0(N,TOT),,SIG)
INC-SPECT  Beam resolution between 50 and 100 keV.
           Energy resolution given is averaging interval.
CORRECTION Data were corrected for multiple-scattering, beam-
            attenuation and angular-resolution.
ANALYSIS   Data were averaged over 200 keV intervals.
ERR-ANALYS Total uncertainty estimated at 6% or 2-3 mb/Sr,
            whichever is greater.
           (ERR-S) Statistical uncertainty.
STATUS     (TABLE) Data received in private comm., 1985/9/23.
HISTORY    (20220903U) On. STATUS moved from 001.
ENDBIB              14
COMMON               3          3
EN-ERR     EN-RSL     ANG-ERR
KEV        KEV        ADEG
 20.        200.       0.7
ENDCOMMON            3
DATA                 4        250
EN-MEAN    ANG        DATA       ERR-S
MEV        ADEG       B/SR       B/SR
   1.50E+00  2.080E+01  6.008E-01  5.500E-03
   1.50E+00  3.070E+01  4.922E-01  4.700E-03
   1.50E+00  4.760E+01  2.853E-01  3.534E-03
   1.50E+00  6.450E+01  1.502E-01  2.769E-03
   1.50E+00  8.050E+01  1.192E-01  1.967E-03
   1.50E+00  9.750E+01  1.243E-01  2.034E-03
   1.50E+00  1.135E+02  1.326E-01  2.202E-03
   1.50E+00  1.304E+02  1.414E-01  2.301E-03
   1.50E+00  1.468E+02  1.425E-01  1.934E-03
   1.50E+00  1.568E+02  1.520E-01  2.406E-03
   1.60E+00  2.080E+01  6.028E-01  5.475E-03
   1.60E+00  3.070E+01  4.919E-01  4.675E-03
   1.60E+00  4.760E+01  2.749E-01  3.477E-03
   1.60E+00  6.450E+01  1.418E-01  2.682E-03
   1.60E+00  8.050E+01  1.140E-01  1.927E-03
   1.60E+00  9.750E+01  1.232E-01  2.051E-03
   1.60E+00  1.135E+02  1.301E-01  2.177E-03
   1.60E+00  1.304E+02  1.380E-01  2.277E-03
   1.60E+00  1.468E+02  1.381E-01  1.925E-03
   1.60E+00  1.568E+02  1.457E-01  2.333E-03
   1.70E+00  2.080E+01  6.124E-01  5.450E-03
   1.70E+00  3.070E+01  4.908E-01  4.650E-03
   1.70E+00  4.760E+01  2.619E-01  3.427E-03
   1.70E+00  6.450E+01  1.272E-01  2.532E-03
   1.70E+00  8.050E+01  1.056E-01  1.877E-03
   1.70E+00  9.750E+01  1.198E-01  2.075E-03
   1.70E+00  1.135E+02  1.269E-01  2.152E-03
   1.70E+00  1.304E+02  1.307E-01  2.228E-03
   1.70E+00  1.468E+02  1.263E-01  1.901E-03
   1.70E+00  1.568E+02  1.303E-01  2.180E-03
   1.80E+00  2.080E+01  6.223E-01  5.491E-03
   1.80E+00  3.070E+01  4.977E-01  4.671E-03
   1.80E+00  4.760E+01  2.568E-01  3.386E-03
   1.80E+00  6.450E+01  1.189E-01  2.411E-03
   1.80E+00  8.050E+01  9.748E-02  1.817E-03
   1.80E+00  9.750E+01  1.144E-01  2.056E-03
   1.80E+00  1.135E+02  1.220E-01  2.110E-03
   1.80E+00  1.304E+02  1.232E-01  2.147E-03
   1.80E+00  1.468E+02  1.168E-01  1.861E-03
   1.80E+00  1.568E+02  1.204E-01  2.079E-03
   1.90E+00  2.080E+01  6.469E-01  5.708E-03
   1.90E+00  3.070E+01  5.058E-01  4.835E-03
   1.90E+00  4.760E+01  2.449E-01  3.416E-03
   1.90E+00  6.450E+01  1.030E-01  2.287E-03
   1.90E+00  8.050E+01  8.655E-02  1.770E-03
   1.90E+00  9.750E+01  1.114E-01  2.111E-03
   1.90E+00  1.135E+02  1.192E-01  2.171E-03
   1.90E+00  1.304E+02  1.140E-01  2.126E-03
   1.90E+00  1.468E+02  1.048E-01  1.844E-03
   1.90E+00  1.568E+02  1.067E-01  2.014E-03
   2.00E+00  2.080E+01  6.713E-01  5.888E-03
   2.00E+00  3.070E+01  5.102E-01  4.966E-03
   2.00E+00  4.760E+01  2.362E-01  3.422E-03
   2.00E+00  6.450E+01  9.108E-02  2.182E-03
   2.00E+00  8.050E+01  7.864E-02  1.741E-03
   2.00E+00  9.750E+01  1.091E-01  2.163E-03
   2.00E+00  1.135E+02  1.179E-01  2.223E-03
   2.00E+00  1.304E+02  1.061E-01  2.101E-03
   2.00E+00  1.468E+02  9.278E-02  1.820E-03
   2.00E+00  1.568E+02  9.442E-02  1.961E-03
   2.10E+00  2.080E+01  6.865E-01  6.064E-03
   2.10E+00  3.070E+01  5.166E-01  5.104E-03
   2.10E+00  4.760E+01  2.310E-01  3.462E-03
   2.10E+00  6.450E+01  8.300E-02  2.122E-03
   2.10E+00  8.050E+01  7.274E-02  1.720E-03
   2.10E+00  9.750E+01  1.071E-01  2.204E-03
   2.10E+00  1.135E+02  1.163E-01  2.262E-03
   2.10E+00  1.304E+02  1.003E-01  2.101E-03
   2.10E+00  1.468E+02  8.544E-02  1.820E-03
   2.10E+00  1.568E+02  8.488E-02  1.903E-03
   2.20E+00  2.080E+01  7.111E-01  6.203E-03
   2.20E+00  3.070E+01  5.277E-01  5.202E-03
   2.20E+00  4.760E+01  2.266E-01  3.481E-03
   2.20E+00  6.450E+01  7.566E-02  2.063E-03
   2.20E+00  8.050E+01  6.824E-02  1.683E-03
   2.20E+00  9.750E+01  1.059E-01  2.222E-03
   2.20E+00  1.135E+02  1.150E-01  2.281E-03
   2.20E+00  1.304E+02  9.640E-02  2.101E-03
   2.20E+00  1.468E+02  7.942E-02  1.801E-03
   2.20E+00  1.568E+02  7.712E-02  1.847E-03
   2.30E+00  2.080E+01  7.356E-01  6.301E-03
   2.30E+00  3.070E+01  5.389E-01  5.241E-03
   2.30E+00  4.760E+01  2.233E-01  3.442E-03
   2.30E+00  6.450E+01  7.038E-02  1.984E-03
   2.30E+00  8.050E+01  6.468E-02  1.644E-03
   2.30E+00  9.750E+01  1.060E-01  2.241E-03
   2.30E+00  1.135E+02  1.145E-01  2.262E-03
   2.30E+00  1.304E+02  9.216E-02  2.045E-03
   2.30E+00  1.468E+02  7.282E-02  1.763E-03
   2.30E+00  1.568E+02  7.056E-02  1.767E-03
   2.40E+00  2.080E+01  7.520E-01  6.321E-03
   2.40E+00  3.070E+01  5.471E-01  5.221E-03
   2.40E+00  4.760E+01  2.184E-01  3.381E-03
   2.40E+00  6.450E+01  6.438E-02  1.884E-03
   2.40E+00  8.050E+01  6.052E-02  1.583E-03
   2.40E+00  9.750E+01  1.036E-01  2.202E-03
   2.40E+00  1.135E+02  1.118E-01  2.202E-03
   2.40E+00  1.304E+02  8.542E-02  1.965E-03
   2.40E+00  1.468E+02  6.436E-02  1.684E-03
   2.40E+00  1.568E+02  6.324E-02  1.666E-03
   2.50E+00  2.080E+01  7.788E-01  6.380E-03
   2.50E+00  3.070E+01  5.680E-01  5.260E-03
   2.50E+00  4.760E+01  2.197E-01  3.362E-03
   2.50E+00  6.450E+01  6.028E-02  1.806E-03
   2.50E+00  8.050E+01  5.684E-02  1.523E-03
   2.50E+00  9.750E+01  1.015E-01  2.161E-03
   2.50E+00  1.135E+02  1.087E-01  2.142E-03
   2.50E+00  1.304E+02  8.042E-02  1.886E-03
   2.50E+00  1.468E+02  5.874E-02  1.606E-03
   2.50E+00  1.568E+02  5.704E-02  1.563E-03
   2.60E+00  2.080E+01  8.034E-01  6.322E-03
   2.60E+00  3.070E+01  5.771E-01  5.163E-03
   2.60E+00  4.760E+01  2.151E-01  3.246E-03
   2.60E+00  6.450E+01  5.552E-02  1.689E-03
   2.60E+00  8.050E+01  5.436E-02  1.442E-03
   2.60E+00  9.750E+01  9.836E-02  2.082E-03
   2.60E+00  1.135E+02  1.041E-01  2.045E-03
   2.60E+00  1.304E+02  7.466E-02  1.767E-03
   2.60E+00  1.468E+02  5.230E-02  1.507E-03
   2.60E+00  1.568E+02  5.254E-02  1.485E-03
   2.70E+00  2.080E+01  8.222E-01  6.205E-03
   2.70E+00  3.070E+01  5.790E-01  5.009E-03
   2.70E+00  4.760E+01  2.082E-01  3.089E-03
   2.70E+00  6.450E+01  5.006E-02  1.555E-03
   2.70E+00  8.050E+01  5.330E-02  1.403E-03
   2.70E+00  9.750E+01  9.910E-02  2.025E-03
   2.70E+00  1.135E+02  1.026E-01  1.965E-03
   2.70E+00  1.304E+02  7.056E-02  1.648E-03
   2.70E+00  1.468E+02  4.700E-02  1.391E-03
   2.70E+00  1.568E+02  5.004E-02  1.407E-03
   2.80E+00  2.080E+01  8.384E-01  5.976E-03
   2.80E+00  3.070E+01  5.739E-01  4.971E-03
   2.80E+00  4.760E+01  1.943E-01  3.217E-03
   2.80E+00  6.450E+01  4.311E-02  2.635E-03
   2.80E+00  8.050E+01  5.370E-02  1.610E-03
   2.80E+00  9.750E+01  9.828E-02  2.485E-03
   2.80E+00  1.135E+02  9.807E-02  1.790E-03
   2.80E+00  1.304E+02  6.526E-02  1.606E-03
   2.80E+00  1.468E+02  4.158E-02  1.297E-03
   2.80E+00  1.568E+02  4.668E-02  1.308E-03
   2.90E+00  2.080E+01  8.630E-01  5.857E-03
   2.90E+00  3.070E+01  5.831E-01  4.856E-03
   2.90E+00  4.760E+01  1.933E-01  3.108E-03
   2.90E+00  6.450E+01  3.939E-02  2.574E-03
   2.90E+00  8.050E+01  5.204E-02  1.556E-03
   2.90E+00  9.750E+01  9.721E-02  2.422E-03
   2.90E+00  1.135E+02  9.541E-02  1.701E-03
   2.90E+00  1.304E+02  6.322E-02  1.524E-03
   2.90E+00  1.468E+02  3.951E-02  1.226E-03
   2.90E+00  1.568E+02  4.452E-02  1.208E-03
   3.00E+00  2.080E+01  9.073E-01  5.730E-03
   3.00E+00  3.070E+01  6.041E-01  4.872E-03
   3.00E+00  4.760E+01  1.954E-01  3.279E-03
   3.00E+00  6.450E+01  3.574E-02  3.188E-03
   3.00E+00  8.050E+01  4.949E-02  1.718E-03
   3.00E+00  9.750E+01  9.494E-02  2.759E-03
   3.00E+00  1.135E+02  9.258E-02  1.575E-03
   3.00E+00  1.304E+02  6.000E-02  1.476E-03
   3.00E+00  1.468E+02  3.528E-02  1.171E-03
   3.00E+00  1.568E+02  4.188E-02  1.109E-03
   3.10E+00  2.080E+01  9.252E-01  5.644E-03
   3.10E+00  3.070E+01  6.087E-01  4.779E-03
   3.10E+00  4.760E+01  1.915E-01  3.200E-03
   3.10E+00  6.450E+01  3.338E-02  3.162E-03
   3.10E+00  8.050E+01  4.896E-02  1.689E-03
   3.10E+00  9.750E+01  9.414E-02  2.724E-03
   3.10E+00  1.135E+02  9.121E-02  1.516E-03
   3.10E+00  1.304E+02  5.732E-02  1.414E-03
   3.10E+00  1.468E+02  3.375E-02  1.128E-03
   3.10E+00  1.568E+02  4.014E-02  1.027E-03
   3.20E+00  2.080E+01  9.513E-01  5.613E-03
   3.20E+00  3.070E+01  6.244E-01  4.867E-03
   3.20E+00  4.760E+01  1.922E-01  3.338E-03
   3.20E+00  6.450E+01  3.186E-02  3.555E-03
   3.20E+00  8.050E+01  4.678E-02  1.780E-03
   3.20E+00  9.750E+01  9.073E-02  2.940E-03
   3.20E+00  1.135E+02  8.853E-02  1.428E-03
   3.20E+00  1.304E+02  5.337E-02  1.389E-03
   3.20E+00  1.468E+02  3.111E-02  1.093E-03
   3.20E+00  1.568E+02  3.694E-02  9.455E-04
   3.30E+00  2.080E+01  9.953E-01  5.630E-03
   3.30E+00  3.070E+01  6.533E-01  4.766E-03
   3.30E+00  4.760E+01  1.989E-01  3.154E-03
   3.30E+00  6.450E+01  3.063E-02  3.142E-03
   3.30E+00  8.050E+01  4.394E-02  1.620E-03
   3.30E+00  9.750E+01  8.720E-02  2.665E-03
   3.30E+00  1.135E+02  8.669E-02  1.411E-03
   3.30E+00  1.304E+02  5.060E-02  1.271E-03
   3.30E+00  1.468E+02  2.821E-02  1.006E-03
   3.30E+00  1.568E+02  3.474E-02  9.022E-04
   3.40E+00  2.080E+01  1.010E+00  5.716E-03
   3.40E+00  3.070E+01  6.550E-01  4.937E-03
   3.40E+00  4.760E+01  1.900E-01  3.343E-03
   3.40E+00  6.450E+01  2.859E-02  3.625E-03
   3.40E+00  8.050E+01  4.444E-02  1.747E-03
   3.40E+00  9.750E+01  8.579E-02  2.951E-03
   3.40E+00  1.135E+02  8.381E-02  1.352E-03
   3.40E+00  1.304E+02  4.598E-02  1.289E-03
   3.40E+00  1.468E+02  2.603E-02  1.000E-03
   3.40E+00  1.568E+02  3.270E-02  8.614E-04
   3.50E+00  2.080E+01  1.020E+00  5.807E-03
   3.50E+00  3.070E+01  6.547E-01  4.860E-03
   3.50E+00  4.760E+01  1.810E-01  3.108E-03
   3.50E+00  6.450E+01  2.654E-02  3.207E-03
   3.50E+00  8.050E+01  4.457E-02  1.582E-03
   3.50E+00  9.750E+01  8.307E-02  2.657E-03
   3.50E+00  1.135E+02  8.037E-02  1.341E-03
   3.50E+00  1.304E+02  4.196E-02  1.201E-03
   3.50E+00  1.468E+02  2.409E-02  9.351E-04
   3.50E+00  1.568E+02  3.200E-02  8.614E-04
   3.60E+00  2.080E+01  1.065E+00  6.117E-03
   3.60E+00  3.070E+01  6.822E-01  5.265E-03
   3.60E+00  4.760E+01  1.832E-01  3.494E-03
   3.60E+00  6.450E+01  2.608E-02  3.851E-03
   3.60E+00  8.050E+01  4.383E-02  1.780E-03
   3.60E+00  9.750E+01  8.206E-02  3.091E-03
   3.60E+00  1.135E+02  7.837E-02  1.327E-03
   3.60E+00  1.304E+02  4.013E-02  1.276E-03
   3.60E+00  1.468E+02  2.268E-02  9.630E-04
   3.60E+00  1.568E+02  3.120E-02  8.414E-04
   3.70E+00  2.080E+01  1.093E+00  6.404E-03
   3.70E+00  3.070E+01  6.895E-01  5.331E-03
   3.70E+00  4.760E+01  1.758E-01  3.363E-03
   3.70E+00  6.450E+01  2.443E-02  3.527E-03
   3.70E+00  8.050E+01  4.474E-02  1.690E-03
   3.70E+00  9.750E+01  8.052E-02  2.892E-03
   3.70E+00  1.135E+02  7.487E-02  1.356E-03
   3.70E+00  1.304E+02  3.775E-02  1.244E-03
   3.70E+00  1.468E+02  2.130E-02  9.499E-04
   3.70E+00  1.568E+02  3.137E-02  8.515E-04
   3.80E+00  2.080E+01  1.111E+00  6.656E-03
   3.80E+00  3.070E+01  6.911E-01  5.548E-03
   3.80E+00  4.760E+01  1.719E-01  3.909E-03
   3.80E+00  6.450E+01  2.384E-02  3.713E-03
   3.80E+00  8.050E+01  4.418E-02  2.834E-03
   3.80E+00  9.750E+01  7.767E-02  2.838E-03
   3.80E+00  1.135E+02  7.018E-02  1.402E-03
   3.80E+00  1.304E+02  3.523E-02  1.289E-03
   3.80E+00  1.468E+02  2.011E-02  9.681E-04
   3.80E+00  1.568E+02  3.017E-02  8.789E-04
   3.90E+00  2.080E+01  1.152E+00  6.967E-03
   3.90E+00  3.070E+01  7.096E-01  5.778E-03
   3.90E+00  4.760E+01  1.736E-01  4.242E-03
   3.90E+00  6.450E+01  2.392E-02  3.808E-03
   3.90E+00  8.050E+01  4.381E-02  3.340E-03
   3.90E+00  9.750E+01  7.477E-02  2.818E-03
   3.90E+00  1.135E+02  6.684E-02  1.451E-03
   3.90E+00  1.304E+02  3.361E-02  1.312E-03
   3.90E+00  1.468E+02  1.914E-02  9.842E-04
   3.90E+00  1.568E+02  2.945E-02  9.055E-04
ENDDATA            252
ENDSUBENT          275
SUBENT        12869004   20220903   20230600   20230528       1504
BIB                 10         15
REACTION   (29-CU-0(N,INL)29-CU-0,PAR,SIG,,AV)
SAMPLE     Metallic Cu cylinder, 2.0 cm diameter and 2.0 cm long
DETECTOR   (SCIN) Proton recoil scintillators
MONITOR    (6-C-0(N,TOT),,SIG)
INC-SPECT  Beam resolution between 50 and 100 keV
           Energy resolution given is averaging interval.
CORRECTION Data were corrected for multiple-scattering and
            beam-attenuation.
ANALYSIS   Data were integrated over angle and averaged over
            200 keV intervals.
ERR-ANALYS (DATA-ERR) Total uncertainty.
STATUS     (TABLE) Data received in private comm., 1985/9/23.
HISTORY    (20091212A) Reaction product added. Error heading
                       corrected.
           (20220903U) On. STATUS moved from 001.
ENDBIB              15
COMMON               1          3
EN-RSL
KEV
 200.
ENDCOMMON            3
DATA                 5        136
E-LVL-MEAN E-LVL-ERR  EN-MEAN    DATA       DATA-ERR
MEV        MEV        MEV        B          B
 0.72       0.02       1.90000    0.19653    0.03931
 0.72       0.02       2.00000    0.19170    0.03834
 0.72       0.02       2.10000    0.19020    0.03804
 0.72       0.02       2.20000    0.18122    0.03624
 0.72       0.02       2.30000    0.17548    0.03510
 0.72       0.02       2.40000    0.16154    0.03231
 0.72       0.02       2.50000    0.15248    0.03050
 0.72       0.02       2.60000    0.14114    0.02823
 0.72       0.02       2.70000    0.13146    0.02629
 0.72       0.02       2.80000    0.12370    0.02474
 0.72       0.02       2.90000    0.11690    0.02338
 0.72       0.02       3.00000    0.10934    0.02187
 0.72       0.02       3.10000    0.10305    0.02061
 0.72       0.02       3.20000    0.09726    0.01945
 0.72       0.02       3.30000    0.09128    0.01826
 0.72       0.02       3.40000    0.08607    0.01721
 0.72       0.02       3.50000    0.08235    0.01647
 0.72       0.02       3.60000    0.07802    0.01560
 0.72       0.02       3.70000    0.07525    0.01505
 0.72       0.02       3.80000    0.07306    0.01461
 0.72       0.02       3.90000    0.07033    0.01406
 0.96       0.01       2.00000    0.22040    0.03306
 0.96       0.01       2.10000    0.21890    0.03284
 0.96       0.01       2.20000    0.21250    0.03188
 0.96       0.01       2.30000    0.21140    0.03171
 0.96       0.01       2.40000    0.19900    0.02985
 0.96       0.01       2.50000    0.18990    0.02849
 0.96       0.01       2.60000    0.17670    0.02650
 0.96       0.01       2.70000    0.16790    0.02519
 0.96       0.01       2.80000    0.15340    0.02301
 0.96       0.01       2.90000    0.14620    0.02193
 0.96       0.01       3.00000    0.13490    0.02024
 0.96       0.01       3.10000    0.13040    0.01956
 0.96       0.01       3.20000    0.12430    0.01865
 0.96       0.01       3.30000    0.11670    0.01751
 0.96       0.01       3.40000    0.11000    0.01650
 0.96       0.01       3.50000    0.10470    0.01571
 0.96       0.01       3.60000    0.09905    0.01486
 0.96       0.01       3.70000    0.09391    0.01409
 0.96       0.01       3.80000    0.08895    0.01334
 0.96       0.01       3.90000    0.08400    0.01260
 1.15       0.01       2.20000    0.11040    0.01656
 1.15       0.01       2.30000    0.11250    0.01687
 1.15       0.01       2.40000    0.10820    0.01623
 1.15       0.01       2.50000    0.10540    0.01581
 1.15       0.01       2.60000    0.10120    0.01518
 1.15       0.01       2.70000    0.09522    0.01428
 1.15       0.01       2.80000    0.08664    0.01300
 1.15       0.01       2.90000    0.08561    0.01284
 1.15       0.01       3.00000    0.07983    0.01197
 1.15       0.01       3.10000    0.07821    0.01173
 1.15       0.01       3.20000    0.07481    0.01122
 1.15       0.01       3.30000    0.06991    0.01049
 1.15       0.01       3.40000    0.06702    0.01005
 1.15       0.01       3.50000    0.06306    0.00946
 1.15       0.01       3.60000    0.06007    0.00901
 1.15       0.01       3.70000    0.05701    0.00855
 1.15       0.01       3.80000    0.05526    0.00829
 1.15       0.01       3.90000    0.05264    0.00789
 1.37       0.01       2.50000    0.27440    0.04116
 1.37       0.01       2.60000    0.26780    0.04017
 1.37       0.01       2.70000    0.25760    0.03864
 1.37       0.01       2.80000    0.24410    0.03662
 1.37       0.01       2.90000    0.23620    0.03543
 1.37       0.01       3.00000    0.22210    0.03332
 1.37       0.01       3.10000    0.21460    0.03219
 1.37       0.01       3.20000    0.20460    0.03069
 1.37       0.01       3.30000    0.18830    0.02825
 1.37       0.01       3.40000    0.18130    0.02720
 1.37       0.01       3.50000    0.17150    0.02573
 1.37       0.01       3.60000    0.16220    0.02433
 1.37       0.01       3.70000    0.15440    0.02316
 1.37       0.01       3.80000    0.14670    0.02201
 1.37       0.01       3.90000    0.13630    0.02044
 1.63       0.01       2.80000    0.22620    0.03393
 1.63       0.01       2.90000    0.22150    0.03322
 1.63       0.01       3.00000    0.21020    0.03153
 1.63       0.01       3.10000    0.19980    0.02997
 1.63       0.01       3.20000    0.18870    0.02831
 1.63       0.01       3.30000    0.17500    0.02625
 1.63       0.01       3.40000    0.16350    0.02453
 1.63       0.01       3.50000    0.15280    0.02292
 1.63       0.01       3.60000    0.14570    0.02185
 1.63       0.01       3.70000    0.13710    0.02057
 1.63       0.01       3.80000    0.13100    0.01965
 1.63       0.01       3.90000    0.12320    0.01849
 1.88       0.01       2.80000    0.10100    0.03015
 1.88       0.01       2.90000    0.09700    0.02955
 1.88       0.01       3.00000    0.09504    0.01426
 1.88       0.01       3.10000    0.09126    0.01369
 1.88       0.01       3.20000    0.08312    0.01247
 1.88       0.01       3.30000    0.08002    0.01200
 1.88       0.01       3.40000    0.07784    0.01168
 1.88       0.01       3.50000    0.07319    0.01098
 1.88       0.01       3.60000    0.07127    0.01069
 1.88       0.01       3.70000    0.06868    0.01030
 1.88       0.01       3.80000    0.06627    0.00994
 1.88       0.01       3.90000    0.06374    0.00956
 2.07       0.01       2.80000    0.21800    0.04360
 2.07       0.01       2.90000    0.21850    0.04370
 2.07       0.01       3.00000    0.22000    0.04400
 2.07       0.01       3.10000    0.21860    0.04372
 2.07       0.01       3.20000    0.21480    0.04296
 2.07       0.01       3.30000    0.20902    0.04180
 2.07       0.01       3.40000    0.20682    0.04136
 2.07       0.01       3.50000    0.20210    0.03032
 2.07       0.01       3.60000    0.19090    0.02864
 2.07       0.01       3.70000    0.17840    0.02676
 2.07       0.01       3.80000    0.16790    0.02519
 2.07       0.01       3.90000    0.15610    0.02341
 2.22       0.01       3.00000    0.07753    0.01551
 2.22       0.01       3.10000    0.07957    0.01591
 2.22       0.01       3.20000    0.08130    0.01626
 2.22       0.01       3.30000    0.08148    0.01630
 2.22       0.01       3.40000    0.08225    0.01645
 2.22       0.01       3.50000    0.08013    0.01603
 2.22       0.01       3.60000    0.07839    0.01568
 2.22       0.01       3.70000    0.07529    0.01506
 2.22       0.01       3.80000    0.07517    0.01503
 2.22       0.01       3.90000    0.07306    0.01461
 2.37       0.01       3.10000    0.14173    0.02835
 2.37       0.01       3.20000    0.13888    0.02778
 2.37       0.01       3.30000    0.13906    0.02781
 2.37       0.01       3.40000    0.13686    0.02737
 2.37       0.01       3.50000    0.13324    0.02665
 2.37       0.01       3.60000    0.13156    0.02631
 2.37       0.01       3.70000    0.13202    0.02640
 2.37       0.01       3.80000    0.12876    0.02575
 2.37       0.01       3.90000    0.12740    0.02548
 2.53       0.01       3.30000    0.20257    0.04051
 2.53       0.01       3.40000    0.19943    0.03989
 2.53       0.01       3.50000    0.19948    0.03990
 2.53       0.01       3.60000    0.19786    0.03957
 2.53       0.01       3.70000    0.19846    0.03969
 2.53       0.01       3.80000    0.19626    0.03925
 2.53       0.01       3.90000    0.19590    0.03918
ENDDATA            138
ENDSUBENT          162
SUBENT        12869005   20220903   20230600   20230528       1504
BIB                 10         60
REACTION   (29-CU-0(N,INL)29-CU-0,PAR,SIG,G)
SAMPLE     Metallic Cu, various sizes and shapes.
DETECTOR   (IOCH) Low-mass ionization chamber.
           (GELI)
MONITOR    (92-U-235(N,F),,SIG)  ENDF/B-V
CORRECTION Data were corrected for:
            .neutron multiple scattering,
            .geometric and neutron source effects,
            .gamma-ray detector efficiency,
            .neutron and photon absorption,
            .miscellaneous fission effects.
ANALYSIS   (4PI1A) Measurement at 55 and 125 degrees. These
            are nodes of the p2-legendre polynomial and
            distributions are assumed symmetric about 90 degrees.
COVARIANCE Correlation coefficient 0.5 is assigned to partially
           correlated uncertainties
ERR-ANALYS (ERR-T) Total uncertainty
           Systematic errors common to all cross sections:
           (ERR-1,,,P) neutron multiple scattering,
           (ERR-2,,,P) geometry,
           (ERR-3,,,P) neutron source,
           (ERR-4,,,F) standard,
           (ERR-5,,,F) gamma detector efficiency,
           (ERR-6,,,P) neutron absorption,
           (ERR-7,,,F) U deposit mass,
           (ERR-8,,,P) miscellaneous fission corrections,
           (ERR-9,,,P) neutron fluence,
           Systematic errors dependent on gamma-ray energy
            source, absorption and coherent scattering of
            gamma-rays in the target
            Correlation - 100% with the same gamma ray,
                          50% with another gamma ray
                  E(gamma) (MeV)      Error (%)
                  --------------      ---------
                     0.584               6.
                     0.609               5.
                     0.742               5.
                     0.898               5.
                     1.048               4.
                     1.129               4.
                     1.481               3.
                     1.546               3.
                     1.622               3.
                     1.724               3.
                     1.859               3.
                     2.009               3.
                     2.078               3.
                     0.365               7.
                     0.450               6.
                     0.669               5.
                     0.770               5.
                     0.961               4.
                     1.114               4.
                     1.326               4.
                     1.411               4.
STATUS     (TABLE) Data received in private comm., 1985/9/23.
HISTORY    (19860324A) BIB update, data correction.
           (20091005A) Reaction product added.
                       Error format updated.
           (20220903U) On. STATUS moved from 001.
ENDBIB              60
COMMON               9          6
ERR-1      ERR-2      ERR-3      ERR-4      ERR-5      ERR-6
ERR-7      ERR-8      ERR-9
PER-CENT   PER-CENT   PER-CENT   PER-CENT   PER-CENT   PER-CENT
PER-CENT   PER-CENT   PER-CENT
 2.         3.         3.         3.         3.         3.
 1.         1.         2.
ENDCOMMON            6
DATA                 5        327
E          EN         EN-RSL-HW  DATA       ERR-T
MEV        MEV        MEV        MB         MB
 0.365      1.4080E+00 3.9000E-02 3.1112E+01 6.5336E+00
 0.365      1.4590E+00 3.9000E-02 4.2011E+01 6.8898E+00
 0.365      1.5100E+00 3.8500E-02 3.7910E+01 8.6055E+00
 0.365      1.5130E+00 3.6000E-02 3.9451E+01 6.5883E+00
 0.365      1.5610E+00 3.8500E-02 4.1294E+01 5.2443E+00
 0.365      1.6100E+00 3.8000E-02 3.8203E+01 5.3102E+00
 0.365      1.6610E+00 3.8000E-02 4.5840E+01 6.9218E+00
 0.365      1.7110E+00 3.8500E-02 3.8020E+01 6.1972E+00
 0.365      1.7120E+00 3.8000E-02 5.0399E+01 7.8623E+00
 0.365      1.7580E+00 3.7500E-02 4.1649E+01 7.0386E+00
 0.365      1.9120E+00 3.7000E-02 4.3511E+01 6.5267E+00
 0.365      1.9140E+00 3.5000E-02 5.3258E+01 1.1823E+01
 0.365      1.9630E+00 3.7000E-02 4.4009E+01 7.4376E+00
 0.365      2.0150E+00 3.7000E-02 3.6385E+01 6.1491E+00
 0.365      2.0650E+00 3.6500E-02 3.8021E+01 6.1594E+00
 0.365      2.1130E+00 3.7500E-02 5.0850E+01 5.7460E+00
 0.365      2.1610E+00 3.7500E-02 3.9502E+01 8.4140E+00
 0.365      2.1610E+00 3.7500E-02 4.6680E+01 6.9553E+00
 0.365      2.2140E+00 3.7500E-02 4.8251E+01 7.5271E+00
 0.365      2.2140E+00 3.7500E-02 4.1906E+01 6.4954E+00
 0.450      1.4590E+00 3.9000E-02 5.7465E+00 1.3389E+00
 0.450      1.5100E+00 3.8500E-02 1.4304E+01 2.8037E+00
 0.450      1.5130E+00 3.6000E-02 1.4179E+01 2.6514E+00
 0.450      1.5610E+00 3.8500E-02 1.3795E+01 2.1657E+00
 0.450      1.6100E+00 3.8000E-02 1.4884E+01 2.0689E+00
 0.450      1.6610E+00 3.8000E-02 1.6032E+01 2.1483E+00
 0.450      1.7110E+00 3.8500E-02 2.0148E+01 2.5588E+00
 0.450      1.7120E+00 3.8000E-02 1.6101E+01 2.1576E+00
 0.450      1.7580E+00 3.7500E-02 2.0317E+01 2.7225E+00
 0.450      1.9120E+00 3.7000E-02 2.2154E+01 2.8800E+00
 0.450      1.9140E+00 3.5000E-02 2.4767E+01 3.3930E+00
 0.450      1.9630E+00 3.7000E-02 2.4506E+01 3.3329E+00
 0.450      2.0150E+00 3.7000E-02 2.6102E+01 3.3410E+00
 0.450      2.0650E+00 3.6500E-02 2.3875E+01 3.2232E+00
 0.450      2.1150E+00 3.7500E-02 2.2638E+01 2.4490E+00
 0.450      2.1610E+00 3.7500E-02 2.3594E+01 2.7133E+00
 0.450      2.1610E+00 3.7500E-02 2.6528E+01 3.1833E+00
 0.450      2.2140E+00 3.7500E-02 1.9531E+01 2.8125E+00
 0.450      2.2140E+00 3.7500E-02 2.4034E+01 3.2206E+00
 0.585      1.6100E+00 3.8000E-02 8.0859E+00 2.3045E+00
 0.585      1.6610E+00 3.8000E-02 9.5973E+00 2.9847E+00
 0.585      1.7110E+00 3.8500E-02 1.1273E+01 2.0743E+00
 0.585      1.7120E+00 3.8000E-02 1.3966E+01 2.3742E+00
 0.585      1.7580E+00 3.7500E-02 8.7001E+00 1.6182E+00
 0.585      1.9120E+00 3.7000E-02 1.2786E+01 2.3398E+00
 0.585      1.9140E+00 3.5000E-02 1.8389E+01 3.5674E+00
 0.585      1.9630E+00 3.7000E-02 1.3764E+01 2.2849E+00
 0.585      2.0150E+00 3.7000E-02 1.2510E+01 2.5770E+00
 0.585      2.0650E+00 3.6500E-02 2.0826E+01 4.0402E+00
 0.585      2.1150E+00 3.7500E-02 1.9783E+01 2.2090E+00
 0.585      2.1610E+00 3.7500E-02 1.9381E+01 3.0621E+00
 0.585      2.1610E+00 3.7500E-02 1.8091E+01 2.5690E+00
 0.585      2.2140E+00 3.7500E-02 1.7214E+01 2.9952E+00
 0.585      2.2140E+00 3.7500E-02 1.9096E+01 2.5779E+00
 0.609      1.9120E+00 3.7000E-02 9.0992E+00 2.9754E+00
 0.609      1.9630E+00 3.7000E-02 7.3754E+00 2.8690E+00
 0.609      2.0650E+00 3.6500E-02 5.6634E+00 2.4239E+00
 0.609      2.1150E+00 3.7500E-02 1.0383E+01 1.7850E+00
 0.609      2.1610E+00 3.7500E-02 9.2344E+00 3.2598E+00
 0.609      2.2140E+00 3.7500E-02 7.2740E+00 3.1642E+00
 0.609      2.2140E+00 3.7500E-02 9.5024E+00 3.0788E+00
 0.670      7.2500E-01 4.6000E-02 2.2140E+01 1.9705E+00
 0.670      7.5990E-01 4.5000E-02 5.1803E+01 4.5069E+00
 0.670      8.0600E-01 4.4500E-02 6.9781E+01 5.9314E+00
 0.670      8.0680E-01 4.3500E-02 7.2421E+01 6.3730E+00
 0.670      8.5610E-01 4.3000E-02 8.2747E+01 7.0335E+00
 0.670      9.0580E-01 4.2500E-02 8.7362E+01 7.4258E+00
 0.670      9.0750E-01 4.3000E-02 8.7516E+01 7.4388E+00
 0.670      9.5580E-01 4.2000E-02 9.3998E+01 8.0839E+00
 0.670      1.0060E+00 4.1500E-02 9.9644E+01 8.5694E+00
 0.670      1.0560E+00 4.1500E-02 1.1136E+02 9.5768E+00
 0.670      1.1070E+00 4.1000E-02 1.1226E+02 9.7670E+00
 0.670      1.1090E+00 4.1500E-02 1.0672E+02 9.2850E+00
 0.670      1.1580E+00 4.0500E-02 1.1240E+02 9.7784E+00
 0.670      1.2070E+00 4.0000E-02 1.2219E+02 1.0753E+01
 0.670      1.2580E+00 4.0000E-02 1.2682E+02 1.1160E+01
 0.670      1.3080E+00 3.9500E-02 1.2804E+02 1.1267E+01
 0.670      1.3090E+00 4.0500E-02 1.2805E+02 1.1396E+01
 0.670      1.3560E+00 3.9500E-02 1.3485E+02 1.2001E+01
 0.670      1.4080E+00 3.9000E-02 1.2932E+02 1.1510E+01
 0.670      1.4590E+00 3.9000E-02 1.2828E+02 1.1417E+01
 0.670      1.5100E+00 3.8500E-02 1.3568E+02 1.2211E+01
 0.670      1.5130E+00 3.6000E-02 1.3532E+02 1.2449E+01
 0.670      1.5610E+00 3.8500E-02 1.3405E+02 1.2064E+01
 0.670      1.6100E+00 3.8000E-02 1.4082E+02 1.2814E+01
 0.670      1.6610E+00 3.8000E-02 1.3412E+02 1.2205E+01
 0.670      1.7110E+00 3.8500E-02 1.3348E+02 1.2414E+01
 0.670      1.7120E+00 3.8000E-02 1.2883E+02 1.1853E+01
 0.670      1.7580E+00 3.7500E-02 1.3700E+02 1.2741E+01
 0.670      1.9120E+00 3.7000E-02 1.3133E+02 1.2870E+01
 0.670      1.9140E+00 3.5000E-02 1.3286E+02 1.3021E+01
 0.670      1.9630E+00 3.7000E-02 1.2999E+02 1.3129E+01
 0.670      2.0150E+00 3.7000E-02 1.2346E+02 1.2717E+01
 0.670      2.0650E+00 3.6500E-02 1.2626E+02 1.3510E+01
 0.670      2.1150E+00 3.7500E-02 1.2695E+02 1.1126E+01
 0.670      2.1610E+00 3.7500E-02 1.2812E+02 1.3965E+01
 0.670      2.1610E+00 3.7500E-02 1.2711E+02 1.3855E+01
 0.670      2.2140E+00 3.7500E-02 1.2852E+02 1.4394E+01
 0.670      2.2140E+00 3.7500E-02 1.2174E+02 1.3635E+01
 0.742      1.7110E+00 3.8500E-02 5.8138E+00 2.1104E+00
 0.742      1.9120E+00 3.7000E-02 8.8002E+00 2.3849E+00
 0.742      1.9630E+00 3.7000E-02 4.3468E+00 1.9908E+00
 0.742      2.0150E+00 3.7000E-02 5.6809E+00 2.7723E+00
 0.742      2.0650E+00 3.6500E-02 6.6762E+00 2.6171E+00
 0.742      2.1150E+00 3.7500E-02 1.0620E+01 1.6440E+00
 0.742      2.1610E+00 3.7500E-02 6.4071E+00 2.2104E+00
 0.742      2.2140E+00 3.7500E-02 8.7809E+00 2.7133E+00
 0.742      2.2140E+00 3.7500E-02 1.0656E+01 2.7599E+00
 0.771      8.0680E-01 4.3500E-02 9.3491E+00 1.3182E+00
 0.771      8.5610E-01 4.3000E-02 1.9676E+01 1.8889E+00
 0.771      9.0580E-01 4.2500E-02 2.5467E+01 2.4194E+00
 0.771      9.0750E-01 4.3000E-02 2.2861E+01 1.9889E+00
 0.771      9.5580E-01 4.2000E-02 2.4122E+01 2.2675E+00
 0.771      1.0060E+00 4.1500E-02 2.7063E+01 2.4898E+00
 0.771      1.0560E+00 4.1500E-02 3.3378E+01 3.0040E+00
 0.771      1.1070E+00 4.1000E-02 3.9200E+01 3.5280E+00
 0.771      1.1090E+00 4.1500E-02 3.8422E+01 3.4196E+00
 0.771      1.1580E+00 4.0500E-02 4.2596E+01 3.8336E+00
 0.771      1.2070E+00 4.0000E-02 4.1033E+01 3.7340E+00
 0.771      1.2580E+00 4.0000E-02 4.6060E+01 4.1454E+00
 0.771      1.3080E+00 3.9500E-02 4.9412E+01 4.5459E+00
 0.771      1.3090E+00 4.0500E-02 4.9592E+01 4.5129E+00
 0.771      1.3560E+00 3.9500E-02 5.2415E+01 4.7698E+00
 0.771      1.4080E+00 3.9000E-02 5.4698E+01 4.9775E+00
 0.771      1.4590E+00 3.9000E-02 5.3492E+01 4.9748E+00
 0.771      1.5100E+00 3.8500E-02 6.1933E+01 6.0075E+00
 0.771      1.5130E+00 3.6000E-02 5.7938E+01 6.1994E+00
 0.771      1.5610E+00 3.8500E-02 5.5927E+01 5.4809E+00
 0.771      1.6100E+00 3.8000E-02 5.8052E+01 5.6310E+00
 0.771      1.6610E+00 3.8000E-02 6.0129E+01 5.8325E+00
 0.771      1.7110E+00 3.8500E-02 6.2894E+01 5.7863E+00
 0.771      1.7120E+00 3.8000E-02 6.2928E+01 6.2299E+00
 0.771      1.7580E+00 3.7500E-02 6.3041E+01 6.1780E+00
 0.771      1.9120E+00 3.7000E-02 5.7063E+01 6.0486E+00
 0.771      1.9140E+00 3.5000E-02 6.3748E+01 6.3748E+00
 0.771      1.9630E+00 3.7000E-02 5.7580E+01 6.1611E+00
 0.771      2.0150E+00 3.7000E-02 6.5162E+01 6.9072E+00
 0.771      2.0650E+00 3.6500E-02 6.3345E+01 7.2213E+00
 0.771      2.1150E+00 3.7500E-02 6.1641E+01 5.4980E+00
 0.771      2.1610E+00 3.7500E-02 5.9116E+01 6.4437E+00
 0.771      2.1610E+00 3.7500E-02 5.5370E+01 5.2048E+00
 0.771      2.2140E+00 3.7500E-02 6.0283E+01 7.2340E+00
 0.771      2.2140E+00 3.7500E-02 4.6146E+01 4.9376E+00
 0.899      1.9120E+00 3.7000E-02 9.1563E+00 2.3074E+00
 0.899      1.9140E+00 3.5000E-02 1.0256E+01 4.3997E+00
 0.899      1.9630E+00 3.7000E-02 2.2893E+01 3.4569E+00
 0.899      2.0150E+00 3.7000E-02 1.8341E+01 2.6044E+00
 0.899      2.0650E+00 3.6500E-02 2.4967E+01 3.1458E+00
 0.899      2.1150E+00 3.7500E-02 2.5161E+01 2.6940E+00
 0.899      2.1610E+00 3.7500E-02 2.7472E+01 3.4615E+00
 0.899      2.1610E+00 3.7500E-02 2.1705E+01 3.5380E+00
 0.899      2.2140E+00 3.7500E-02 2.7242E+01 3.3508E+00
 0.899      2.2140E+00 3.7500E-02 2.4864E+01 3.0334E+00
 0.962      1.0060E+00 4.1500E-02 5.1942E+01 4.2592E+00
 0.962      1.0560E+00 4.1500E-02 1.0199E+02 8.1591E+00
 0.962      1.1070E+00 4.1000E-02 1.1887E+02 9.5099E+00
 0.962      1.1090E+00 4.1500E-02 1.2266E+02 9.6905E+00
 0.962      1.1580E+00 4.0500E-02 1.4506E+02 1.1460E+01
 0.962      1.2070E+00 4.0000E-02 1.5669E+02 1.2378E+01
 0.962      1.2580E+00 4.0000E-02 1.7622E+02 1.3921E+01
 0.962      1.3080E+00 3.9500E-02 1.9024E+02 1.5219E+01
 0.962      1.3090E+00 4.0500E-02 1.8790E+02 1.4844E+01
 0.962      1.3560E+00 3.9500E-02 2.1662E+02 1.7330E+01
 0.962      1.4080E+00 3.9000E-02 2.2511E+02 1.8009E+01
 0.962      1.4590E+00 3.9000E-02 2.4022E+02 1.9458E+01
 0.962      1.5100E+00 3.8500E-02 2.4719E+02 2.0270E+01
 0.962      1.5130E+00 3.6000E-02 2.4616E+02 1.9693E+01
 0.962      1.5610E+00 3.8500E-02 2.5671E+02 2.1307E+01
 0.962      1.6100E+00 3.8000E-02 2.6548E+02 2.2035E+01
 0.962      1.6610E+00 3.8000E-02 2.5998E+02 2.1839E+01
 0.962      1.7110E+00 3.8500E-02 2.5026E+02 1.9771E+01
 0.962      1.7120E+00 3.8000E-02 2.5088E+02 2.1074E+01
 0.962      1.7580E+00 3.7500E-02 2.7390E+02 2.3282E+01
 0.962      1.9120E+00 3.7000E-02 3.0552E+02 2.6580E+01
 0.962      1.9140E+00 3.5000E-02 3.0369E+02 2.4295E+01
 0.962      1.9630E+00 3.7000E-02 3.0061E+02 2.6153E+01
 0.962      2.0150E+00 3.7000E-02 2.9980E+02 2.6380E+01
 0.962      2.0650E+00 3.6500E-02 3.0851E+02 2.7149E+01
 0.962      2.1150E+00 3.7500E-02 3.0012E+02 2.3710E+01
 0.962      2.1610E+00 3.7500E-02 2.8650E+02 2.5785E+01
 0.962      2.1610E+00 3.7500E-02 2.8751E+02 2.2713E+01
 0.962      2.2140E+00 3.7500E-02 2.9195E+02 2.6860E+01
 0.962      2.2140E+00 3.7500E-02 2.9873E+02 2.3899E+01
 1.049      2.1130E+00 3.7500E-02 6.7510E+00 1.9440E+00
 1.049      2.1610E+00 3.7500E-02 5.1200E+00 2.8470E+00
 1.049      2.2140E+00 3.7500E-02 6.5930E+00 2.0440E+00
 1.116      1.1580E+00 4.0500E-02 2.2090E+01 2.2974E+00
 1.116      1.2070E+00 4.0000E-02 4.5028E+01 3.9625E+00
 1.116      1.2580E+00 4.0000E-02 5.1586E+01 4.2816E+00
 1.116      1.3080E+00 3.9500E-02 5.6936E+01 4.6687E+00
 1.116      1.3090E+00 4.0500E-02 5.3912E+01 4.5286E+00
 1.116      1.3560E+00 3.9500E-02 6.3285E+01 5.1894E+00
 1.116      1.4080E+00 3.9000E-02 7.3174E+01 5.9271E+00
 1.116      1.4590E+00 3.9000E-02 7.3819E+01 6.0532E+00
 1.116      1.5100E+00 3.8500E-02 8.1788E+01 6.7884E+00
 1.116      1.5130E+00 3.6000E-02 8.2385E+01 7.2499E+00
 1.116      1.5610E+00 3.8500E-02 8.9899E+01 7.4616E+00
 1.116      1.6100E+00 3.8000E-02 9.0387E+01 7.5021E+00
 1.116      1.6610E+00 3.8000E-02 1.0037E+02 8.3304E+00
 1.116      1.7110E+00 3.8500E-02 1.0332E+02 8.5758E+00
 1.116      1.7120E+00 3.8000E-02 1.0222E+02 8.5861E+00
 1.116      1.7580E+00 3.7500E-02 1.0889E+02 9.3646E+00
 1.116      1.9120E+00 3.7000E-02 1.1980E+02 1.0422E+01
 1.116      1.9140E+00 3.5000E-02 1.1990E+02 1.0432E+01
 1.116      1.9630E+00 3.7000E-02 1.2570E+02 1.1313E+01
 1.116      2.0150E+00 3.7000E-02 1.2285E+02 1.1179E+01
 1.116      2.0650E+00 3.6500E-02 1.2269E+02 1.1165E+01
 1.116      2.1150E+00 3.7500E-02 1.3257E+02 1.0932E+01
 1.116      2.1610E+00 3.7500E-02 1.2680E+02 1.1666E+01
 1.116      2.1610E+00 3.7500E-02 1.2609E+02 1.0465E+01
 1.116      2.2140E+00 3.7500E-02 1.3338E+02 1.2271E+01
 1.116      2.2140E+00 3.7500E-02 1.2923E+02 1.0597E+01
 1.131      2.1610E+00 3.7500E-02 5.5837E+00 2.3731E+00
 1.131      2.2140E+00 3.7500E-02 1.0717E+01 2.3791E+00
 1.131      2.2140E+00 3.7500E-02 1.0150E+01 2.2432E+00
 1.327      1.3560E+00 3.9500E-02 1.5834E+01 2.2325E+00
 1.327      1.4080E+00 3.9000E-02 5.6513E+01 4.8601E+00
 1.327      1.4590E+00 3.9000E-02 5.9386E+01 4.9884E+00
 1.327      1.5100E+00 3.8500E-02 6.4927E+01 5.4538E+00
 1.327      1.5130E+00 3.6000E-02 7.6733E+01 6.6758E+00
 1.327      1.5610E+00 3.8500E-02 7.6844E+01 6.3780E+00
 1.327      1.6100E+00 3.8000E-02 7.7319E+01 6.4174E+00
 1.327      1.6610E+00 3.8000E-02 8.1180E+01 6.8191E+00
 1.327      1.7110E+00 3.8500E-02 9.3091E+01 7.8197E+00
 1.327      1.7120E+00 3.8000E-02 9.4392E+01 7.7402E+00
 1.327      1.7580E+00 3.7500E-02 9.4765E+01 7.7707E+00
 1.327      1.9120E+00 3.7000E-02 1.1153E+02 9.4803E+00
 1.327      1.9140E+00 3.5000E-02 1.0898E+02 9.3727E+00
 1.327      1.9630E+00 3.7000E-02 1.1140E+02 9.5806E+00
 1.327      2.0150E+00 3.7000E-02 1.0886E+02 9.3619E+00
 1.327      2.0650E+00 3.6500E-02 1.2055E+02 1.0367E+01
 1.327      2.1150E+00 3.7500E-02 1.2655E+02 1.0130E+01
 1.327      2.1610E+00 3.7500E-02 1.1858E+02 1.0316E+01
 1.327      2.1610E+00 3.7500E-02 1.1787E+02 9.7830E+00
 1.327      2.2140E+00 3.7500E-02 1.2285E+02 1.0811E+01
 1.327      2.2140E+00 3.7500E-02 1.1536E+02 9.6906E+00
 1.412      1.4590E+00 3.9000E-02 1.6890E+01 1.6890E+00
 1.412      1.5100E+00 3.8500E-02 4.3938E+01 3.6468E+00
 1.412      1.5130E+00 3.6000E-02 4.4078E+01 4.2756E+00
 1.412      1.5610E+00 3.8500E-02 4.5259E+01 3.7565E+00
 1.412      1.6100E+00 3.8000E-02 5.3287E+01 4.3696E+00
 1.412      1.6610E+00 3.8000E-02 5.7741E+01 4.6770E+00
 1.412      1.7110E+00 3.8500E-02 5.6590E+01 4.6969E+00
 1.412      1.7120E+00 3.8000E-02 6.4305E+01 5.1444E+00
 1.412      1.7580E+00 3.7500E-02 6.6278E+01 5.3023E+00
 1.412      1.9120E+00 3.7000E-02 8.5053E+01 7.0594E+00
 1.412      1.9140E+00 3.5000E-02 7.4881E+01 6.3649E+00
 1.412      1.9630E+00 3.7000E-02 8.2015E+01 6.9713E+00
 1.412      2.0150E+00 3.7000E-02 8.3850E+01 7.0434E+00
 1.412      2.0650E+00 3.6500E-02 8.5476E+01 7.2655E+00
 1.412      2.1150E+00 3.7500E-02 8.9885E+01 6.8800E+00
 1.412      2.1610E+00 3.7500E-02 8.9522E+01 7.4303E+00
 1.412      2.1610E+00 3.7500E-02 9.0020E+01 7.3816E+00
 1.412      2.2140E+00 3.7500E-02 9.1664E+01 7.7915E+00
 1.412      2.2140E+00 3.7500E-02 8.3133E+01 6.8169E+00
 1.482      1.5130E+00 3.6000E-02 9.6981E+00 2.3857E+00
 1.482      1.5610E+00 3.8500E-02 1.6631E+01 2.0955E+00
 1.482      1.6100E+00 3.8000E-02 1.8926E+01 1.8926E+00
 1.482      1.6610E+00 3.8000E-02 2.5918E+01 2.3844E+00
 1.482      1.7110E+00 3.8500E-02 3.3648E+01 3.3312E+00
 1.482      1.7120E+00 3.8000E-02 2.8377E+01 2.5256E+00
 1.482      1.7580E+00 3.7500E-02 3.1835E+01 2.8333E+00
 1.482      1.9120E+00 3.7000E-02 3.9164E+01 3.7989E+00
 1.482      1.9140E+00 3.5000E-02 4.4839E+01 4.2149E+00
 1.482      1.9630E+00 3.7000E-02 4.5061E+01 3.9654E+00
 1.482      2.0150E+00 3.7000E-02 4.4820E+01 4.1235E+00
 1.482      2.0650E+00 3.6500E-02 4.4548E+01 3.9203E+00
 1.482      2.1150E+00 3.7500E-02 5.0068E+01 3.8630E+00
 1.482      2.1610E+00 3.7500E-02 4.9147E+01 4.1283E+00
 1.482      2.1610E+00 3.7500E-02 5.0050E+01 4.4545E+00
 1.482      2.2140E+00 3.7500E-02 4.6014E+01 4.0493E+00
 1.482      2.2140E+00 3.7500E-02 4.9394E+01 4.3467E+00
 1.547      1.6100E+00 3.8000E-02 1.3921E+01 2.6868E+00
 1.547      1.6610E+00 3.8000E-02 2.9415E+01 2.5885E+00
 1.547      1.7110E+00 3.8500E-02 4.5893E+01 3.9009E+00
 1.547      1.7130E+00 3.8000E-02 4.3763E+01 3.8511E+00
 1.547      1.7580E+00 3.7500E-02 4.5363E+01 3.8558E+00
 1.547      1.9120E+00 3.7000E-02 5.3022E+01 4.6659E+00
 1.547      1.9140E+00 3.5000E-02 4.5635E+01 4.6548E+00
 1.547      1.9630E+00 3.7000E-02 5.3802E+01 4.9498E+00
 1.547      2.0150E+00 3.7000E-02 5.7401E+01 4.8217E+00
 1.547      2.0650E+00 3.6500E-02 6.2917E+01 5.2221E+00
 1.547      2.1150E+00 3.7500E-02 6.2173E+01 4.7970E+00
 1.547      2.1610E+00 3.7500E-02 6.3035E+01 5.1058E+00
 1.547      2.1610E+00 3.7500E-02 6.9340E+01 5.7552E+00
 1.547      2.2140E+00 3.7500E-02 7.2740E+01 5.9647E+00
 1.547      2.2140E+00 3.7500E-02 6.9887E+01 5.8705E+00
 1.623      1.6610E+00 3.8000E-02 2.6724E+00 8.2844E-01
 1.623      1.7110E+00 3.8500E-02 1.0383E+01 1.5574E+00
 1.623      1.7120E+00 3.8000E-02 1.0495E+01 1.4273E+00
 1.623      1.7580E+00 3.7500E-02 1.2817E+01 1.6919E+00
 1.623      1.9120E+00 3.7000E-02 1.4704E+01 1.8528E+00
 1.623      1.9140E+00 3.5000E-02 2.4185E+01 3.2650E+00
 1.623      1.9630E+00 3.7000E-02 1.8604E+01 2.1395E+00
 1.623      2.0150E+00 3.7000E-02 2.5969E+01 2.6229E+00
 1.623      2.0650E+00 3.6500E-02 2.3580E+01 2.5466E+00
 1.623      2.1150E+00 3.7500E-02 2.8267E+01 2.3530E+00
 1.623      2.1610E+00 3.7500E-02 2.6853E+01 2.6047E+00
 1.623      2.1610E+00 3.7500E-02 2.5259E+01 2.9047E+00
 1.623      2.2140E+00 3.7500E-02 2.4631E+01 2.6602E+00
 1.623      2.2140E+00 3.7500E-02 2.6665E+01 2.7732E+00
 1.725      1.9120E+00 3.7000E-02 1.2266E+01 2.4654E+00
 1.725      1.9140E+00 3.5000E-02 9.3341E+00 2.0722E+00
 1.725      1.9630E+00 3.7000E-02 1.6797E+01 2.6036E+00
 1.725      2.0150E+00 3.7000E-02 1.8453E+01 2.3620E+00
 1.725      2.0650E+00 3.6500E-02 1.9194E+01 2.3993E+00
 1.725      2.1150E+00 3.7500E-02 2.1950E+01 2.0740E+00
 1.725      2.1610E+00 3.7500E-02 2.2660E+01 2.4019E+00
 1.725      2.1610E+00 3.7500E-02 2.6233E+01 2.7020E+00
 1.725      2.2140E+00 3.7500E-02 1.9126E+01 2.2760E+00
 1.725      2.2140E+00 3.7500E-02 2.0422E+01 2.8386E+00
 1.861      1.9120E+00 3.7000E-02 8.0216E+00 1.6605E+00
 1.861      1.9140E+00 3.5000E-02 1.0552E+01 2.4374E+00
 1.861      1.9630E+00 3.7000E-02 1.7502E+01 2.3977E+00
 1.861      2.0150E+00 3.7000E-02 1.9147E+01 2.5083E+00
 1.861      2.0650E+00 3.6500E-02 2.3478E+01 2.4886E+00
 1.861      2.1150E+00 3.7500E-02 2.4321E+01 2.1520E+00
 1.861      2.1610E+00 3.7500E-02 2.9035E+01 2.9035E+00
 1.861      2.1610E+00 3.7500E-02 2.6589E+01 2.8184E+00
 1.861      2.2140E+00 3.7500E-02 2.8821E+01 2.8533E+00
 1.861      2.2140E+00 3.7500E-02 2.8993E+01 3.0443E+00
 2.011      2.1130E+00 3.7500E-02 6.0410E+00 1.5730E+00
 2.011      2.1610E+00 3.7500E-02 1.1949E+01 2.7961E+00
 2.011      2.1610E+00 3.7500E-02 1.2233E+01 2.7158E+00
 2.011      2.2140E+00 3.7500E-02 1.2316E+01 2.7464E+00
 2.011      2.2140E+00 3.7500E-02 1.4279E+01 2.2703E+00
 2.082      2.1610E+00 3.7500E-02 5.2629E+00 1.0999E+00
ENDDATA            329
ENDSUBENT          401
SUBENT        12869006   20220903   20230600   20230528       1504
BIB                  8         10
REACTION   (29-CU-0(N,INL)29-CU-0,PAR,DA,G,REL)
SAMPLE     Metallic Cu cylinder.
DETECTOR   (GELI)
CORRECTION Data were corrected for multiple-scattering.
ANALYSIS   Data are fully corrected but unnormalized.
ERR-ANALYS (ERR-S) Statistical uncertainty.
STATUS     (TABLE) Data received in private comm., 1985/9/23.
HISTORY    (19860324A) BIB update.
           (20091005A) Reaction product added.
           (20220903U) On. STATUS moved from 001.
ENDBIB              10
NOCOMMON             0          0
DATA                 5        715
E          EN         ANG        DATA       ERR-S
MEV        MEV        ADEG       ARB-UNITS  ARB-UNITS
 0.450      1.713       39.28     0.4967     0.07058
 0.450      1.713       49.03     0.4299     0.06827
 0.450      1.713       58.84     0.4573     0.05986
 0.450      1.713       68.72     0.5055     0.05677
 0.450      1.713       78.65     0.4639     0.05901
 0.450      1.713       88.63     0.4532     0.06422
 0.450      1.713       98.65     0.4554     0.05005
 0.450      1.713      108.70     0.5951     0.0613
 0.450      1.713      118.80     0.4909     0.05577
 0.450      1.713      128.90     0.5308     0.05286
 0.450      1.713      133.90     0.582      0.06926
 0.450      1.913       39.29     0.6333     0.07574
 0.450      1.913       49.03     0.5906     0.06892
 0.450      1.913       58.84     0.658      0.1209
 0.450      1.913       68.72     0.7105     0.1129
 0.450      1.913       78.65     0.5420     0.1027
 0.450      1.913       88.63     0.6203     0.09919
 0.450      1.913       98.65     0.5872     0.06647
 0.450      1.913      108.70     0.6634     0.07961
 0.450      1.913      118.80     0.7336     0.08803
 0.450      1.913      128.90     0.8207     0.09948
 0.450      1.913      133.90     0.8571     0.1029
 0.450      2.117       39.28     0.4546     0.08696
 0.450      2.117       49.03     0.5752     0.06488
 0.450      2.117       58.84     0.6659     0.07232
 0.450      2.117       68.72     0.6044     0.05905
 0.450      2.117       78.65     0.5189     0.06606
 0.450      2.117       88.63     0.4956     0.06473
 0.450      2.117       98.65     0.5527     0.06931
 0.450      2.117      108.70     0.5646     0.06002
 0.450      2.117      118.80     0.6052     0.0544
 0.450      2.117      128.90     0.5599     0.06433
 0.450      2.117      133.90     0.6813     0.05486
 0.450      2.217       39.26     0.2107     0.02674
 0.450      2.217       48.98     0.3273     0.03839
 0.450      2.217       58.79     0.2563     0.02945
 0.450      2.217       68.65     0.3293     0.0298
 0.450      2.217       78.58     0.2615     0.03705
 0.450      2.217       88.55     0.2742     0.02062
 0.450      2.217       98.58     0.2418     0.02464
 0.450      2.217      108.60     0.2755     0.02553
 0.450      2.217      118.70     0.2545     0.02454
 0.450      2.217      128.80     0.2826     0.02073
 0.450      2.217      133.90     0.2762     0.02323
 0.585      1.914       29.78     0.2693     0.05978
 0.585      1.914       39.47     0.2855     0.06024
 0.585      1.914       49.24     0.3842     0.07415
 0.585      1.914       59.07     0.3752     0.08892
 0.585      1.914       68.95     0.3103     0.07137
 0.585      1.914       78.87     0.6156     0.1071
 0.585      1.914       88.83     0.4385     0.09384
 0.585      1.914       98.83     0.3767     0.0825
 0.585      1.914      108.90     0.2207     0.06621
 0.585      1.914      118.90     0.4794     0.09588
 0.585      1.914      129.00     0.5786     0.1157
 0.585      1.914      134.00     0.3733     0.07466
 0.585      2.117       29.78     0.3694     0.07573
 0.585      2.117       39.47     0.4005     0.06728
 0.585      2.117       49.24     0.4444     0.06043
 0.585      2.117       59.07     0.2693     0.07406
 0.585      2.117       68.94     0.2671     0.05663
 0.585      2.117       78.87     0.4307     0.05642
 0.585      2.117       88.83     0.2492     0.07725
 0.585      2.117       98.83     0.3550     0.06781
 0.585      2.117      108.90     0.4329     0.05498
 0.585      2.117      118.90     0.3402     0.05579
 0.585      2.117      129.00     0.4939     0.08446
 0.585      2.117      134.00     0.4114     0.04690
 0.585      2.217       29.79     0.1975     0.03279
 0.585      2.217       39.45     0.2114     0.02854
 0.585      2.217       49.21     0.196      0.02842
 0.585      2.217       59.02     0.1997     0.02876
 0.585      2.217       68.89     0.2008     0.03313
 0.585      2.217       78.80     0.206      0.02987
 0.585      2.217       88.76     0.2836     0.02751
 0.585      2.217       98.76     0.1915     0.027
 0.585      2.217      108.00     0.2342     0.02319
 0.585      2.217      118.90     0.1985     0.02541
 0.585      2.217      128.90     0.2147     0.02598
 0.585      2.217      134.00     0.2092     0.03033
 0.670      1.107       29.84     0.3267     0.00838
 0.670      1.107       39.54     0.3271     0.008184
 0.670      1.107       49.32     0.3299     0.008831
 0.670      1.107       59.16     0.3416     0.00867
 0.670      1.107       69.03     0.3468     0.008791
 0.670      1.107       78.96     0.3393     0.008666
 0.670      1.107       88.91     0.3391     0.008155
 0.670      1.107       98.91     0.3551     0.008174
 0.670      1.107      108.90     0.3484     0.007926
 0.670      1.107      119.00     0.3456     0.008536
 0.670      1.107      129.00     0.3418     0.008477
 0.670      1.107      134.10     0.3597     0.008234
 0.670      1.309       29.83     0.3402     0.007597
 0.670      1.309       39.54     0.3725     0.008180
 0.670      1.309       49.32     0.3541     0.007716
 0.670      1.309       59.15     0.3438     0.007821
 0.670      1.309       69.03     0.3683     0.007863
 0.670      1.309       78.95     0.3639     0.007438
 0.670      1.309       88.91     0.3715     0.008058
 0.670      1.309       98.91     0.3722     0.007477
 0.670      1.309      108.90     0.3813     0.008
 0.670      1.309      119.00     0.3651     0.008113
 0.670      1.309      129.00     0.3755     0.007615
 0.670      1.309      134.10     0.3836     0.007883
 0.670      1.511       29.83     0.3617     0.008518
 0.670      1.511       39.53     0.3533     0.007758
 0.670      1.511       49.31     0.354      0.009147
 0.670      1.511       59.14     0.3591     0.007753
 0.670      1.511       69.02     0.3598     0.007919
 0.670      1.511       78.94     0.361      0.007852
 0.670      1.511       88.90     0.3698     0.008221
 0.670      1.511       98.90     0.3906     0.007714
 0.670      1.511      108.90     0.3806     0.007601
 0.670      1.511      119.00     0.3897     0.008051
 0.670      1.511      129.00     0.38       0.00817
 0.670      1.511      134.00     0.3838     0.008482
 0.670      1.713       29.82     0.3498     0.008717
 0.670      1.713       39.52     0.3613     0.01003
 0.670      1.713       49.30     0.3387     0.009677
 0.670      1.713       59.13     0.3397     0.008785
 0.670      1.713       69.01     0.3377     0.008733
 0.670      1.713       78.93     0.3716     0.009041
 0.670      1.713       88.90     0.3592     0.008438
 0.670      1.713       98.90     0.3458     0.009036
 0.670      1.713      108.90     0.3360     0.008948
 0.670      1.713      119.00     0.3630     0.008505
 0.670      1.713      129.00     0.3430     0.008242
 0.670      1.713      134.10     0.3686     0.008515
 0.670      1.913       29.82     0.3372     0.008497
 0.670      1.913       39.52     0.3388     0.01002
 0.670      1.913       49.30     0.3111     0.009261
 0.670      1.913       59.13     0.3293     0.01005
 0.670      1.913       69.01     0.3562     0.01066
 0.670      1.913       78.93     0.3376     0.009939
 0.670      1.913       88.90     0.3271     0.009594
 0.670      1.913       98.89     0.3288     0.009098
 0.670      1.913      108.90     0.3498     0.01049
 0.670      1.913      119.00     0.3642     0.01093
 0.670      1.913      129.00     0.3566     0.01070
 0.670      1.913      134.10     0.3539     0.01062
 0.670      2.117       29.82     0.3070     0.009560
 0.670      2.117       39.52     0.2983     0.008621
 0.670      2.117       49.30     0.3076     0.009130
 0.670      2.117       59.13     0.3042     0.008612
 0.670      2.117       69.01     0.2983     0.008770
 0.670      2.117       78.93     0.2993     0.008255
 0.670      2.117       88.89     0.3117     0.009962
 0.670      2.117       98.89     0.3071     0.008448
 0.670      2.117      108.90     0.3301     0.008635
 0.670      2.117      119.00     0.3037     0.008558
 0.670      2.117      129.00     0.3208     0.008517
 0.670      2.117      134.10     0.3074     0.008094
 0.670      2.217       29.83     0.1497     0.005001
 0.670      2.217       39.50     0.1419     0.003977
 0.670      2.217       49.26     0.1443     0.004049
 0.670      2.217       59.08     0.1434     0.004279
 0.670      2.217       68.95     0.1474     0.004224
 0.670      2.217       78.87     0.1505     0.004650
 0.670      2.217       88.63     0.1515     0.003978
 0.670      2.217       98.83     0.1376     0.004833
 0.670      2.217      108.90     0.1552     0.003996
 0.670      2.217      118.90     0.1511     0.003794
 0.670      2.217      129.00     0.1504     0.004289
 0.670      2.217      134.00     0.1563     0.003973
 0.771      1.107       29.87     0.1154     0.006544
 0.771      1.107       39.59     0.1192     0.005570
 0.771      1.107       49.38     0.1151     0.005335
 0.771      1.107       59.21     0.1233     0.006309
 0.771      1.107       69.10     0.1274     0.006142
 0.771      1.107       79.02     0.1153     0.005435
 0.771      1.107       88.98     0.1236     0.005578
 0.771      1.107       98.97     0.1177     0.005324
 0.771      1.107      109.00     0.1291     0.005888
 0.771      1.107      119.00     0.1189     0.005189
 0.771      1.107      129.10     0.1292     0.005727
 0.771      1.107      134.10     0.1264     0.006793
 0.771      1.309       29.87     0.1392     0.005781
 0.771      1.309       39.58     0.1430     0.006803
 0.771      1.309       49.37     0.1446     0.006670
 0.771      1.309       59.21     0.1426     0.006182
 0.771      1.309       69.09     0.1550     0.006437
 0.771      1.309       79.01     0.1544     0.006525
 0.771      1.309       88.97     0.1433     0.005706
 0.771      1.309       98.97     0.1482     0.006792
 0.771      1.309      109.00     0.1525     0.005804
 0.771      1.309      119.00     0.1509     0.005831
 0.771      1.309      129.10     0.1526     0.005626
 0.771      1.309      134.10     0.1512     0.005685
 0.771      1.511       29.86     0.1432     0.006198
 0.771      1.511       39.57     0.1605     0.007483
 0.771      1.511       49.36     0.1465     0.007529
 0.771      1.511       59.20     0.1438     0.007629
 0.771      1.511       69.08     0.1432     0.007431
 0.771      1.511       79.01     0.1628     0.007023
 0.771      1.511       88.97     0.1572     0.006918
 0.771      1.511       98.96     0.1628     0.006383
 0.771      1.511      109.00     0.1449     0.007106
 0.771      1.511      119.00     0.1695     0.006156
 0.771      1.511      129.10     0.1504     0.006318
 0.771      1.511      134.10     0.1536     0.005837
 0.771      1.713       29.86     0.1477     0.007587
 0.771      1.713       39.57     0.1424     0.006757
 0.771      1.713       49.35     0.1471     0.006016
 0.771      1.713       59.19     0.1552     0.007383
 0.771      1.713       69.07     0.1569     0.007566
 0.771      1.713       79.00     0.1556     0.008043
 0.771      1.713       88.96     0.1509     0.007101
 0.771      1.713       98.96     0.1525     0.006989
 0.771      1.713      109.00     0.1595     0.006881
 0.771      1.713      119.00     0.1631     0.006695
 0.771      1.713      129.00     0.1616     0.007068
 0.771      1.713      134.10     0.1709     0.006238
 0.771      1.913       29.85     0.1477     0.008339
 0.771      1.913       39.57     0.1567     0.009239
 0.771      1.913       49.35     0.1539     0.009302
 0.771      1.913       59.19     0.1375     0.008434
 0.771      1.913       69.07     0.1478     0.008871
 0.771      1.913       79.00     0.1391     0.008375
 0.771      1.913       88.96     0.1615     0.008144
 0.771      1.913       98.96     0.1433     0.007826
 0.771      1.913      109.00     0.1464     0.008784
 0.771      1.913      119.00     0.1590     0.00954
 0.771      1.913      129.10     0.1742     0.01045
 0.771      1.913      134.10     0.1562     0.01
 0.771      2.117       29.85     0.1224     0.006831
 0.771      2.117       39.56     0.1427     0.007462
 0.771      2.117       49.35     0.1388     0.008465
 0.771      2.117       59.19     0.1369     0.007876
 0.771      2.117       69.07     0.1568     0.008044
 0.771      2.117       79.00     0.1251     0.007014
 0.771      2.117       88.96     0.1236     0.007855
 0.771      2.117       98.96     0.1388     0.006814
 0.771      2.117      109.00     0.1365     0.007049
 0.771      2.117      119.00     0.1414     0.007501
 0.771      2.117      129.10     0.1308     0.007827
 0.771      2.117      134.10     0.1516     0.008264
 0.771      2.217       29.86     0.4610     0.03826
 0.771      2.217       39.55     0.6117     0.04990
 0.771      2.217       49.32     0.5948     0.04192
 0.771      2.217       59.15     0.5458     0.045
 0.771      2.217       69.02     0.6398     0.04150
 0.771      2.217       78.94     0.5967     0.04779
 0.771      2.217       88.90     0.6481     0.03922
 0.771      2.217       98.89     0.6138     0.03632
 0.771      2.217      108.90     0.6301     0.03841
 0.771      2.217      119.00     0.5726     0.03836
 0.771      2.217      129.00     0.6340     0.03577
 0.771      2.217      134.10     0.6689     0.03665
 0.899      2.118       29.89     0.4812     0.06496
 0.899      2.118       39.61     0.6250     0.07688
 0.899      2.118       49.41     0.5086     0.07883
 0.899      2.118       59.25     0.5726     0.06986
 0.899      2.118       69.14     0.4858     0.06315
 0.899      2.118       79.07     0.5535     0.07694
 0.899      2.118       89.03     0.7078     0.07432
 0.899      2.118       99.02     0.5499     0.06269
 0.899      2.118      109.00     0.4561     0.06568
 0.899      2.118      119.00     0.6373     0.08540
 0.899      2.118      129.10     0.6709     0.09393
 0.899      2.118      134.20     0.6416     0.08277
 0.899      2.218       29.90     0.2191     0.03615
 0.899      2.218       39.60     0.2907     0.03198
 0.899      2.218       49.38     0.2822     0.03189
 0.899      2.218       59.21     0.3419     0.03590
 0.899      2.218       69.09     0.2787     0.03623
 0.899      2.218       79.01     0.3373     0.03913
 0.899      2.218       88.97     0.2980     0.03606
 0.899      2.218       98.97     0.3165     0.03956
 0.899      2.218      109.00     0.2844     0.03100
 0.899      2.218      119.00     0.3255     0.02897
 0.899      2.218      129.10     0.2034     0.03112
 0.899      2.218      134.10     0.2896     0.03388
 0.962      1.107       29.85     0.2903     0.008317
 0.962      1.107       39.56     0.3158     0.007980
 0.962      1.107       49.35     0.3426     0.009637
 0.962      1.107       59.20     0.3634     0.01022
 0.962      1.107       69.09     0.3721     0.01011
 0.962      1.107       79.03     0.3909     0.009702
 0.962      1.107       89.00     0.3801     0.01005
 0.962      1.107       99.01     0.3761     0.009527
 0.962      1.107      109.00     0.3715     0.008637
 0.962      1.107      119.10     0.3623     0.009036
 0.962      1.107      129.10     0.34       0.008507
 0.962      1.107      134.20     0.3249     0.00859
 0.962      1.309       29.85     0.4484     0.008591
 0.962      1.309       39.56     0.4676     0.009408
 0.962      1.309       49.35     0.5341     0.009133
 0.962      1.309       59.20     0.5419     0.01011
 0.962      1.309       69.09     0.5660     0.009611
 0.962      1.309       79.03     0.5895     0.01022
 0.962      1.309       89.00     0.6199     0.009683
 0.962      1.309       99.01     0.6135     0.01013
 0.962      1.309      109.00     0.5709     0.009426
 0.962      1.309      119.10     0.5582     0.009255
 0.962      1.309      129.10     0.5079     0.009340
 0.962      1.309      134.20     0.5014     0.008579
 0.962      1.511       29.85     0.5506     0.01041
 0.962      1.511       39.57     0.6019     0.01044
 0.962      1.511       49.36     0.6233     0.01095
 0.962      1.511       59.20     0.6599     0.01114
 0.962      1.511       69.10     0.707      0.01095
 0.962      1.511       79.03     0.7419     0.01148
 0.962      1.511       89.00     0.7317     0.01171
 0.962      1.511       99.01     0.7337     0.01099
 0.962      1.511      109.00     0.7281     0.01099
 0.962      1.511      119.10     0.6864     0.01143
 0.962      1.511      129.10     0.6301     0.01067
 0.962      1.511      134.20     0.6268     0.01026
 0.962      1.713       29.86     0.5511     0.01082
 0.962      1.713       39.57     0.5689     0.01234
 0.962      1.713       49.36     0.6520     0.01187
 0.962      1.713       59.20     0.6711     0.01190
 0.962      1.713       69.10     0.7124     0.01225
 0.962      1.713       79.03     0.7362     0.01133
 0.962      1.713       89.01     0.7672     0.01157
 0.962      1.713       99.01     0.7291     0.01169
 0.962      1.713      109.00     0.7143     0.01124
 0.962      1.713      119.10     0.6817     0.0105
 0.962      1.713      129.10     0.6459     0.01028
 0.962      1.713      134.20     0.6238     0.01134
 0.962      1.913       29.86     0.6321     0.01171
 0.962      1.913       39.57     0.6453     0.01112
 0.962      1.913       49.36     0.6985     0.01375
 0.962      1.913       59.20     0.7642     0.01387
 0.962      1.913       69.10     0.8007     0.01432
 0.962      1.913       79.03     0.7779     0.01508
 0.962      1.913       89.01     0.7927     0.01463
 0.962      1.913       99.01     0.8051     0.01384
 0.962      1.913      109.00     0.7642     0.01528
 0.962      1.913      119.10     0.7562     0.01512
 0.962      1.913      129.10     0.6948     0.0139
 0.962      1.913      134.20     0.675      0.0135
 0.962      2.117       29.86     0.5816     0.01165
 0.962      2.117       39.57     0.6346     0.01265
 0.962      2.117       49.36     0.6871     0.01157
 0.962      2.117       59.20     0.7384     0.0127
 0.962      2.117       69.10     0.7514     0.01386
 0.962      2.117       79.03     0.7555     0.01225
 0.962      2.117       89.01     0.8034     0.013
 0.962      2.117       99.01     0.7714     0.01245
 0.962      2.117      109.00     0.7591     0.01256
 0.962      2.117      119.10     0.7283     0.01162
 0.962      2.117      129.10     0.6745     0.01157
 0.962      2.117      134.20     0.6560     0.01096
 0.962      2.217       29.87     0.2789     0.005405
 0.962      2.217       39.56     0.3057     0.005983
 0.962      2.217       49.33     0.3249     0.005699
 0.962      2.217       59.17     0.3519     0.00588
 0.962      2.217       69.05     0.3745     0.006127
 0.962      2.217       78.98     0.3820     0.006288
 0.962      2.217       88.95     0.3835     0.006512
 0.962      2.217       98.95     0.3883     0.006182
 0.962      2.217      109.00     0.3647     0.005784
 0.962      2.217      119.00     0.3508     0.00563
 0.962      2.217      129.10     0.3268     0.005454
 0.962      2.217      134.10     0.3263     0.005182
 1.116      1.309       29.89     0.1327     0.005873
 1.116      1.309       39.61     0.1336     0.006091
 1.116      1.309       49.41     0.1574     0.006567
 1.116      1.309       59.26     0.1712     0.006144
 1.116      1.309       69.15     0.1860     0.006387
 1.116      1.309       79.09     0.1683     0.007015
 1.116      1.309       89.06     0.1962     0.005939
 1.116      1.309       99.06     0.1762     0.006629
 1.116      1.309      109.10     0.1807     0.006259
 1.116      1.309      119.10     0.1781     0.005637
 1.116      1.309      129.20     0.1704     0.006409
 1.116      1.511       29.89     0.1988     0.007366
 1.116      1.511       39.61     0.2139     0.007091
 1.116      1.511       49.41     0.2266     0.008232
 1.116      1.511       59.26     0.2270     0.006844
 1.116      1.511       69.16     0.2584     0.007863
 1.116      1.511       79.09     0.2728     0.007578
 1.116      1.511       89.06     0.2470     0.006842
 1.116      1.511       99.07     0.2503     0.007522
 1.116      1.511      109.10     0.2423     0.008105
 1.116      1.511      119.10     0.2283     0.008102
 1.116      1.511      129.20     0.2295     0.007876
 1.116      1.511      134.20     0.2063     0.007072
 1.116      1.713       29.89     0.2296     0.008702
 1.116      1.713       39.61     0.2422     0.01013
 1.116      1.713       49.41     0.2705     0.01152
 1.116      1.713       59.26     0.2622     0.008938
 1.116      1.713       69.16     0.2833     0.009284
 1.116      1.713       79.09     0.3132     0.009819
 1.116      1.713       89.07     0.2928     0.008963
 1.116      1.713       99.07     0.2932     0.01015
 1.116      1.713      109.10     0.2979     0.008761
 1.116      1.713      119.10     0.2912     0.008570
 1.116      1.713      129.20     0.2470     0.008783
 1.116      1.713      134.20     0.2728     0.0112
 1.116      1.913       29.89     0.2625     0.009820
 1.116      1.913       39.61     0.2810     0.01001
 1.116      1.913       49.41     0.2759     0.01009
 1.116      1.913       59.26     0.3241     0.01293
 1.116      1.913       69.16     0.3136     0.01116
 1.116      1.913       79.09     0.3298     0.01198
 1.116      1.913       89.07     0.3539     0.01042
 1.116      1.913       99.07     0.3424     0.01052
 1.116      1.913      109.10     0.3304     0.01322
 1.116      1.913      119.10     0.3236     0.01294
 1.116      1.913      129.10     0.3023     0.01209
 1.116      1.913      134.20     0.2888     0.01
 1.116      2.117       29.89     0.2612     0.009492
 1.116      2.117       39.61     0.2745     0.009319
 1.116      2.117       49.41     0.3170     0.01023
 1.116      2.117       59.26     0.3023     0.01053
 1.116      2.117       69.16     0.3019     0.009619
 1.116      2.117       79.09     0.3245     0.009284
 1.116      2.117       89.07     0.3486     0.01053
 1.116      2.117       99.07     0.3337     0.009233
 1.116      2.117      109.10     0.3218     0.009030
 1.116      2.117      119.10     0.3083     0.009850
 1.116      2.117      129.20     0.3034     0.009657
 1.116      2.117      134.20     0.2813     0.009685
 1.116      2.217       29.91     0.1286     0.004720
 1.116      2.217       39.61     0.1338     0.004819
 1.116      2.217       49.39     0.1436     0.004486
 1.116      2.217       59.23     0.1512     0.005098
 1.116      2.217       69.12     0.1473     0.004680
 1.116      2.217       79.05     0.1695     0.004487
 1.116      2.217       89.02     0.1623     0.004460
 1.116      2.217       99.01     0.1625     0.004480
 1.116      2.217      109.00     0.1550     0.004625
 1.116      2.217      119.10     0.1546     0.004675
 1.116      2.217      129.10     0.1491     0.004327
 1.116      2.217      134.20     0.1339     0.004617
 1.327      1.511       29.93     0.1991     0.008480
 1.327      1.511       39.66     0.2017     0.007463
 1.327      1.511       49.47     0.1806     0.008308
 1.327      1.511       59.32     0.1707     0.006606
 1.327      1.511       69.22     0.1651     0.008483
 1.327      1.511       79.16     0.1554     0.006434
 1.327      1.511       89.13     0.1562     0.006629
 1.327      1.511       99.13     0.1605     0.006956
 1.327      1.511      109.20     0.1734     0.007026
 1.327      1.511      119.20     0.1780     0.006997
 1.327      1.511      129.20     0.1843     0.006753
 1.327      1.511      134.30     0.1867     0.007434
 1.327      1.713       29.93     0.2688     0.01054
 1.327      1.713       39.66     0.2716     0.009291
 1.327      1.713       49.47     0.2339     0.009761
 1.327      1.713       59.33     0.2294     0.009103
 1.327      1.713       69.23     0.2286     0.008108
 1.327      1.713       79.16     0.1994     0.008141
 1.327      1.713       89.13     0.2133     0.006843
 1.327      1.713       99.13     0.2145     0.007278
 1.327      1.713      109.20     0.2117     0.007998
 1.327      1.713      119.20     0.2333     0.007480
 1.327      1.713      129.20     0.2431     0.008783
 1.327      1.713      134.30     0.2562     0.007988
 1.327      1.913       29.93     0.3230     0.01001
 1.327      1.913       39.66     0.3241     0.009720
 1.327      1.913       49.47     0.2801     0.01069
 1.327      1.913       59.33     0.2685     0.01011
 1.327      1.913       69.23     0.2405     0.01088
 1.327      1.913       79.16     0.2373     0.0085
 1.327      1.913       89.13     0.2584     0.01108
 1.327      1.913       99.13     0.2439     0.009576
 1.327      1.913      109.20     0.2527     0.01264
 1.327      1.913      119.20     0.2752     0.01376
 1.327      1.913      129.20     0.2702     0.01351
 1.327      1.913      134.30     0.2980     0.0149
 1.327      2.117       29.93     0.3158     0.009096
 1.327      2.117       39.66     0.3094     0.009536
 1.327      2.117       49.47     0.3150     0.01043
 1.327      2.117       59.33     0.2784     0.009624
 1.327      2.117       69.23     0.2731     0.009487
 1.327      2.117       79.16     0.2596     0.008084
 1.327      2.117       89.13     0.2476     0.007787
 1.327      2.117       99.13     0.2583     0.008552
 1.327      2.117      109.20     0.2633     0.008247
 1.327      2.117      119.20     0.2560     0.008586
 1.327      2.117      129.20     0.2881     0.008620
 1.327      2.117      134.30     0.2843     0.008395
 1.327      2.217       29.95     0.1469     0.005327
 1.327      2.217       39.66     0.1505     0.004333
 1.327      2.217       49.45     0.1457     0.004480
 1.327      2.217       59.30     0.1355     0.004556
 1.327      2.217       69.19     0.1303     0.004627
 1.327      2.217       79.12     0.1286     0.005063
 1.327      2.217       89.09     0.1175     0.004446
 1.327      2.217       99.08     0.1187     0.004090
 1.327      2.217      109.10     0.1223     0.004513
 1.327      2.217      119.10     0.1259     0.004215
 1.327      2.217      129.20     0.1359     0.004481
 1.327      2.217      134.20     0.1456     0.004633
 1.412      1.511       29.95     0.1150     0.008540
 1.412      1.511       39.68     0.09762    0.006473
 1.412      1.511       49.49     0.09210    0.006355
 1.412      1.511       59.35     0.1081     0.007699
 1.412      1.511       69.25     0.09459    0.006366
 1.412      1.511       79.19     0.09499    0.007152
 1.412      1.511       89.16     0.09652    0.005039
 1.412      1.511       99.15     0.09249    0.005527
 1.412      1.511      109.20     0.09027    0.005363
 1.412      1.511      119.20     0.09913    0.006772
 1.412      1.511      129.30     0.1104     0.005888
 1.412      1.511      134.30     0.1160     0.006
 1.412      1.713       29.95     0.1797     0.008115
 1.412      1.713       39.68     0.1763     0.008776
 1.412      1.713       49.49     0.1604     0.0076
 1.412      1.713       59.35     0.1581     0.007032
 1.412      1.713       69.25     0.1369     0.007243
 1.412      1.713       79.19     0.1445     0.00653
 1.412      1.713       89.16     0.1496     0.0077
 1.412      1.713       99.15     0.1475     0.006691
 1.412      1.713      109.20     0.1536     0.006545
 1.412      1.713      119.20     0.1589     0.006572
 1.412      1.713      129.30     0.1626     0.006283
 1.412      1.713      134.30     0.1652     0.007133
 1.412      1.913       29.95     0.2179     0.007668
 1.412      1.913       39.68     0.2417     0.008701
 1.412      1.913       49.49     0.2070     0.009106
 1.412      1.913       59.35     0.2201     0.008384
 1.412      1.913       69.25     0.1970     0.008676
 1.412      1.913       79.19     0.1726     0.008663
 1.412      1.913       89.16     0.1872     0.009306
 1.412      1.913       99.15     0.1906     0.009358
 1.412      1.913      109.20     0.2146     0.01073
 1.412      1.913      119.20     0.1932     0.00966
 1.412      1.913      129.30     0.2181     0.01091
 1.412      1.913      134.30     0.2218     0.01109
 1.412      2.117       29.95     0.2117     0.007306
 1.412      2.117       39.68     0.2159     0.007518
 1.412      2.117       49.49     0.2068     0.008342
 1.412      2.117       59.35     0.1832     0.007907
 1.412      2.117       69.25     0.1814     0.007227
 1.412      2.117       79.19     0.1732     0.006911
 1.412      2.117       89.16     0.1952     0.007824
 1.412      2.117       99.15     0.1763     0.007070
 1.412      2.117      109.20     0.1880     0.007197
 1.412      2.117      119.20     0.2157     0.008313
 1.412      2.117      129.30     0.1846     0.006982
 1.412      2.117      134.30     0.2182     0.007842
 1.412      2.217       29.97     0.09298    0.003608
 1.412      2.217       39.68     0.1034     0.003826
 1.412      2.217       49.47     0.09291    0.004311
 1.412      2.217       59.32     0.09714    0.003657
 1.412      2.217       69.21     0.09208    0.003894
 1.412      2.217       79.15     0.09427    0.003799
 1.412      2.217       89.11     0.09012    0.003453
 1.412      2.217       99.11     0.08694    0.003796
 1.412      2.217      109.10     0.08275    0.003907
 1.412      2.217      119.20     0.09312    0.003554
 1.412      2.217      129.20     0.09522    0.003556
 1.412      2.217      134.20     0.09907    0.003539
 1.482      1.714       30.00     0.09164    0.007148
 1.482      1.714       39.75     0.08988    0.006292
 1.482      1.714       49.57     0.1028     0.007196
 1.482      1.714       59.43     0.06605    0.005945
 1.482      1.714       69.33     0.07577    0.006289
 1.482      1.714       79.26     0.07299    0.005328
 1.482      1.714       89.23     0.06988    0.004961
 1.482      1.714       99.21     0.07708    0.005472
 1.482      1.714      109.20     0.08272    0.005956
 1.482      1.714      119.20     0.07989    0.005033
 1.482      1.714      129.30     0.07914    0.005144
 1.482      1.714      134.30     0.09727    0.005544
 1.482      1.914       30.00     0.1227     0.006135
 1.482      1.914       39.75     0.1229     0.007128
 1.482      1.914       49.57     0.1130     0.007232
 1.482      1.914       59.43     0.09280    0.006310
 1.482      1.914       69.33     0.08912    0.007219
 1.482      1.914       79.26     0.09268    0.006853
 1.482      1.914       89.22     0.1001     0.01021
 1.482      1.914       99.21     0.089      0.006586
 1.482      1.914      109.20     0.1014     0.008112
 1.482      1.914      119.20     0.1132     0.009056
 1.482      1.914      129.30     0.1193     0.009544
 1.482      1.914      134.30     0.1316     0.01053
 1.482      2.117       30.00     0.1223     0.007460
 1.482      2.117       39.75     0.1187     0.006529
 1.482      2.117       49.56     0.1116     0.006138
 1.482      2.117       59.43     0.1009     0.006357
 1.482      2.117       69.33     0.1113     0.006344
 1.482      2.117       79.26     0.09959    0.005876
 1.482      2.117       89.22     0.1083     0.006823
 1.482      2.117       99.21     0.09090    0.005363
 1.482      2.117      109.20     0.1116     0.005915
 1.482      2.117      119.20     0.1003     0.005416
 1.482      2.117      129.30     0.1240     0.006572
 1.482      2.117      134.30     0.1228     0.007
 1.482      2.217       30.02     0.6801     0.03401
 1.482      2.217       39.75     0.5860     0.03106
 1.482      2.217       49.55     0.5268     0.03213
 1.482      2.217       59.40     0.4902     0.03186
 1.482      2.217       69.29     0.5037     0.03123
 1.482      2.217       79.22     0.5339     0.03043
 1.482      2.217       89.18     0.5366     0.03166
 1.482      2.217       99.16     0.4904     0.02648
 1.482      2.217      109.20     0.5659     0.03226
 1.482      2.217      119.20     0.4983     0.02890
 1.482      2.217      129.20     0.5343     0.03046
 1.482      2.217      134.20     0.6025     0.03133
 1.547      1.714       30.01     0.1019     0.006318
 1.547      1.714       39.76     0.08944    0.006261
 1.547      1.714       49.58     0.1056     0.006864
 1.547      1.714       59.45     0.1028     0.006065
 1.547      1.714       69.35     0.08391    0.005706
 1.547      1.714       79.28     0.1012     0.006376
 1.547      1.714       89.24     0.1071     0.006426
 1.547      1.714       99.23     0.1045     0.007629
 1.547      1.714      109.20     0.1095     0.005585
 1.547      1.714      119.30     0.09978    0.006186
 1.547      1.714      129.30     0.1046     0.006381
 1.547      1.714      134.30     0.1088     0.005549
 1.547      1.914       30.01     0.1568     0.007213
 1.547      1.914       39.76     0.1443     0.008081
 1.547      1.914       49.58     0.1347     0.007139
 1.547      1.914       59.44     0.1268     0.007862
 1.547      1.914       69.34     0.1604     0.008180
 1.547      1.914       79.28     0.1226     0.007233
 1.547      1.914       89.24     0.1384     0.007474
 1.547      1.914       99.23     0.1470     0.008085
 1.547      1.914      109.20     0.1333     0.009331
 1.547      1.914      119.30     0.1332     0.009324
 1.547      1.914      129.30     0.1329     0.009303
 1.547      1.914      134.30     0.1518     0.01063
 1.547      2.117       30.01     0.1600     0.00784
 1.547      2.117       39.76     0.1491     0.00716
 1.547      2.117       49.58     0.1474     0.006486
 1.547      2.117       59.44     0.1446     0.006796
 1.547      2.117       69.34     0.1356     0.005966
 1.547      2.117       79.27     0.1384     0.006643
 1.547      2.117       89.24     0.1574     0.007240
 1.547      2.117       99.22     0.1461     0.006721
 1.547      2.117      109.20     0.1572     0.006288
 1.547      2.117      119.30     0.1461     0.00599
 1.547      2.117      129.30     0.1554     0.006838
 1.547      2.117      134.30     0.1377     0.006885
 1.547      2.217       30.03     0.8118     0.03815
 1.547      2.217       39.76     0.7081     0.03328
 1.547      2.217       49.56     0.7974     0.04705
 1.547      2.217       59.41     0.7854     0.03691
 1.547      2.217       69.31     0.7787     0.03504
 1.547      2.217       79.24     0.7317     0.03512
 1.547      2.217       89.19     0.7894     0.03315
 1.547      2.217       99.18     0.7241     0.03331
 1.547      2.217      109.20     0.7085     0.03259
 1.547      2.217      119.20     0.7378     0.03246
 1.547      2.217      129.20     0.8193     0.03441
 1.547      2.217      134.30     0.6831     0.03006
 1.623      1.914       30.02     0.4026     0.04549
 1.623      1.914       39.77     0.5992     0.06052
 1.623      1.914       49.59     0.4920     0.07085
 1.623      1.914       59.46     0.4539     0.06763
 1.623      1.914       69.36     0.4947     0.04551
 1.623      1.914       79.29     0.5116     0.08288
 1.623      1.914       89.25     0.4876     0.05656
 1.623      1.914       99.24     0.5013     0.06517
 1.623      1.914      109.30     0.5503     0.07154
 1.623      1.914      119.30     0.5069     0.06590
 1.623      1.914      129.30     0.5317     0.06912
 1.623      1.914      134.30     0.5779     0.07513
 1.623      2.117       30.02     0.7516     0.07817
 1.623      2.117       39.77     0.6468     0.07438
 1.623      2.117       49.59     0.6823     0.05322
 1.623      2.117       59.46     0.5756     0.06792
 1.623      2.117       69.36     0.6975     0.06278
 1.623      2.117       79.29     0.5027     0.05831
 1.623      2.117       89.25     0.5091     0.04989
 1.623      2.117       99.24     0.5895     0.056
 1.623      2.117      109.20     0.5725     0.05267
 1.623      2.117      119.30     0.5952     0.05
 1.623      2.117      129.30     0.68       0.05916
 1.623      2.117      134.30     0.7916     0.05225
 1.623      2.217       30.04     0.3170     0.02758
 1.623      2.217       39.77     0.3195     0.02844
 1.623      2.217       49.58     0.2863     0.0272
 1.623      2.217       59.43     0.2980     0.0298
 1.623      2.217       69.32     0.3052     0.02594
 1.623      2.217       79.25     0.2312     0.02127
 1.623      2.217       89.21     0.2786     0.02424
 1.623      2.217       99.20     0.2956     0.02069
 1.623      2.217      109.20     0.2979     0.02294
 1.623      2.217      119.20     0.2583     0.02041
 1.623      2.217      129.30     0.2841     0.02528
 1.623      2.217      134.30     0.3094     0.02785
 1.725      2.118       30.03     0.5768     0.04499
 1.725      2.118       39.78     0.4988     0.06085
 1.725      2.118       49.61     0.4263     0.05073
 1.725      2.118       59.47     0.5083     0.05642
 1.725      2.118       69.38     0.4176     0.04552
 1.725      2.118       79.31     0.4161     0.05243
 1.725      2.118       89.27     0.5312     0.04356
 1.725      2.118       99.26     0.5205     0.05309
 1.725      2.118      109.30     0.5027     0.04273
 1.725      2.118      119.30     0.3862     0.04905
 1.725      2.118      129.30     0.5620     0.04608
 1.725      2.118      134.30     0.4571     0.04754
 1.725      2.217       30.05     0.2651     0.02571
 1.725      2.217       39.79     0.25       0.02625
 1.725      2.217       49.59     0.2906     0.02615
 1.725      2.217       59.45     0.316      0.03128
 1.725      2.217       69.35     0.2534     0.02255
 1.725      2.217       79.27     0.2434     0.02799
 1.725      2.217       89.23     0.2517     0.02064
 1.725      2.217       99.22     0.2706     0.02517
 1.725      2.217      109.20     0.2828     0.02573
 1.725      2.217      119.20     0.227      0.02225
 1.725      2.217      129.30     0.2206     0.02162
 1.725      2.217      134.30     0.2875     0.02588
 1.861      2.218       30.06     0.3997     0.03278
 1.861      2.218       39.81     0.3664     0.02601
 1.861      2.218       49.62     0.3484     0.02718
 1.861      2.218       59.48     0.2614     0.02562
 1.861      2.218       69.37     0.2612     0.02743
 1.861      2.218       79.30     0.2835     0.02665
 1.861      2.218       89.26     0.2376     0.02614
 1.861      2.218       99.24     0.2812     0.02784
 1.861      2.218      109.20     0.2543     0.02543
 1.861      2.218      119.30     0.3185     0.02612
 1.861      2.218      129.30     0.3086     0.02222
 1.861      2.218      134.30     0.3494     0.029
ENDDATA            717
ENDSUBENT          732
SUBENT        12869007   20220903   20230600   20230528       1504
BIB                  5         11
REACTION   (29-CU-0(N,INL)29-CU-0,,SIG)
ANALYSIS   Calculated by adding gamma production cross
            sections for the 0.670, 0.771, 0.962, 1.116,
            1.327, 1.412, 1.482, 1.547, 1.623, 1.725, 1.861,
            2.011, And 2.082 MeV gammas
ERR-ANALYS No errors quoted.  Errors should Be derived from the
            individual components
STATUS     (TABLE) Data received in private comm., 1985/9/23.
           (DEP,12869005) gamma production cross section
HISTORY    (20091005A) Reaction product added.
           (20220903U) On. STATUS(TABLE) moved from 001.
ENDBIB              11
NOCOMMON             0          0
DATA                 2         38
EN         DATA
MEV        MB
 0.7250       22.14
 0.7599       51.57
 0.8060       69.10
 0.8068       80.99
 0.8561      102.4
 0.9058      112.6
 0.9075      110.1
 0.9558      116.7
 1.006       177.4
 1.056       250.1
 1.107       278.1
 1.109       275.5
 1.158       331.3
 1.207       374.5
 1.258       410.4
 1.308       433.5
 1.309       428.2
 1.356       491.4
 1.408       546.2
 1.459       577.5
 1.510       638.8
 1.513       655.6
 1.561       676.1
 1.610       716.1
 1.661       745.8
 1.711       780.2
 1.712       776.8
 1.758       821.7
 1.912       918.7
 1.914       919.8
 1.963       939.2
 2.015       950.0
 2.065       981.1
 2.115      1009.3
 2.161       998.5
 2.161      1001.0
 2.214       992.1
 2.214      1020.0
ENDDATA             40
ENDSUBENT           56
SUBENT        12869008   20220903   20230600   20230528       1504
BIB                  6         12
REACTION   (29-CU-63(N,INL)29-CU-63,PAR,SIG,,,DERIV)
SAMPLE     (29-CU-63,NAT=0.692)
ANALYSIS   Calculated by drawing smooth curves through the gamma
            production cross sections, identifying gamma rays
            which feed or de-excite levels in 63Cu, and assuming
            an isotopic abundance of 69.2%.
ERR-ANALYS No errors quoted.  Errors should be derived from the
            individual components
STATUS     (TABLE) Data received in private comm., 1985/9/23.
           (DEP,12869005) gamma production cross section
HISTORY    (20091212A) Coded information on sample added.
           (20220903U) On. STATUS(TABLE) moved from 001.
ENDBIB              12
NOCOMMON             0          0
DATA                 3         86
E-LVL      EN         DATA
MEV        MEV        MB
     0.670  0.70        16.6
     0.670  0.75        59.2
     0.670  0.80       101.2
     0.670  0.85       116.6
     0.670  0.90       125.7
     0.670  0.95       134.4
     0.670  1.00       142.3
     0.670  1.05       150.3
     0.670  1.10       158.2
     0.670  1.15       165.9
     0.670  1.20       173.0
     0.670  1.25       179.9
     0.670  1.30       185.5
     0.670  1.35       189.3
     0.670  1.40       191.3
     0.670  1.45       192.3
     0.670  1.50       192.9
     0.670  1.55       192.5
     0.670  1.60       191.9
     0.670  1.65       190.0
     0.670  1.70       189.2
     0.670  1.75       187.4
     0.670  1.80       185.4
     0.670  1.85       183.2
     0.670  1.90       181.4
     0.670  1.95       178.6
     0.670  2.00       176.4
     0.962  1.00        49.9
     0.962  1.05       135.8
     0.962  1.10       170.5
     0.962  1.15       200.9
     0.962  1.20       224.0
     0.962  1.25       250.0
     0.962  1.30       274.6
     0.962  1.35       298.0
     0.962  1.40       293.4
     0.962  1.45       297.7
     0.962  1.50       299.0
     0.962  1.55       303.5
     0.962  1.60       301.2
     0.962  1.65       303.2
     0.962  1.70       307.2
     0.962  1.75       314.2
     0.962  1.80       320.8
     0.962  1.85       327.7
     0.962  1.90       328.3
     0.962  1.95       314.9
     0.962  2.00       307.7
     1.327  1.35         8.4
     1.327  1.40        78.8
     1.327  1.45       119.8
     1.327  1.50       136.8
     1.327  1.55       148.7
     1.327  1.60       158.8
     1.327  1.65       167.8
     1.327  1.70       174.9
     1.327  1.75       181.4
     1.327  1.80       187.4
     1.327  1.85       192.3
     1.327  1.90       197.7
     1.327  1.95       202.3
     1.327  2.00       206.8
     1.412  1.45         5.9
     1.412  1.50        68.9
     1.412  1.55        90.0
     1.412  1.60       102.2
     1.412  1.65       113.0
     1.412  1.70       123.1
     1.412  1.75       132.2
     1.412  1.80       140.2
     1.412  1.85       147.1
     1.412  1.90       153.9
     1.412  1.95       159.8
     1.412  2.00       164.2
     1.547  1.60        23.7
     1.547  1.65        49.1
     1.547  1.70        67.1
     1.547  1.75        77.0
     1.547  1.80        83.8
     1.547  1.85        88.4
     1.547  1.90        95.4
     1.547  1.95       101.0
     1.547  2.00       106.8
     1.861  1.90        12.4
     1.861  1.95        44.8
     1.861  2.00        54.8
ENDDATA             88
ENDSUBENT          105
SUBENT        12869009   20220903   20230600   20230528       1504
BIB                  6         12
REACTION   (29-CU-65(N,INL)29-CU-65,PAR,SIG,,,DERIV)
SAMPLE     (29-CU-65,NAT=0.308)
ANALYSIS   Calculated by drawing smooth curves through the
             gamma production cross sections, identifying
             gamma rays which feed or de-excite levels in 65Cu,
             and assuming an isotopic abundance of 30.8%.
ERR-ANALYS No errors quoted.  Errors should Be derived from the
            individual components
STATUS     (TABLE) Data received in private comm., 1985/9/23.
           (DEP,12869005) gamma production cross section
HISTORY    (20091212A) Coded information on sample added.
           (20220903U) On. STATUS(TABLE) moved from 001.
ENDBIB              12
NOCOMMON             0          0
DATA                 3         68
E-LVL      EN         DATA
MEV        MEV        MB
 0.771      0.80        20.8
 0.771      0.85        57.1
 0.771      0.90        74.0
 0.771      0.95        86.4
 0.771      1.00        97.4
 0.771      1.05       108.4
 0.771      1.10       119.5
 0.771      1.15       130.5
 0.771      1.20       140.3
 0.771      1.25       148.7
 0.771      1.30       156.5
 0.771      1.35       164.3
 0.771      1.40       171.4
 0.771      1.45       178.6
 0.771      1.50       185.1
 0.771      1.55       191.6
 0.771      1.60       196.8
 0.771      1.65       201.3
 0.771      1.70       203.2
 0.771      1.75       204.5
 0.771      1.80       203.9
 0.771      1.85       203.2
 0.771      1.90       201.3
 0.771      1.95       199.4
 0.771      2.00       197.4
 1.116      1.15        48.7
 1.116      1.20       128.2
 1.116      1.25       159.1
 1.116      1.30       181.8
 1.116      1.35       204.5
 1.116      1.40       224.0
 1.116      1.45       243.5
 1.116      1.50       261.7
 1.116      1.55       256.5
 1.116      1.60       265.3
 1.116      1.65       280.5
 1.116      1.70       294.8
 1.116      1.75       307.1
 1.116      1.80       311.0
 1.116      1.85       315.9
 1.116      1.90       322.7
 1.116      1.95       329.2
 1.116      2.00       333.1
 1.482      1.50         1.3
 1.482      1.55        73.1
 1.482      1.60       100.6
 1.482      1.65       118.8
 1.482      1.70       134.1
 1.482      1.75       145.8
 1.482      1.80       155.5
 1.482      1.85       164.3
 1.482      1.90       172.4
 1.482      1.95       180.2
 1.482      2.00       185.4
 1.623      1.65         0.0
 1.623      1.70        24.7
 1.623      1.75        37.3
 1.623      1.80        44.5
 1.623      1.85        52.9
 1.623      1.90        59.4
 1.623      1.95        65.6
 1.623      2.00        71.8
 1.725      1.75         2.6
 1.725      1.80        24.7
 1.725      1.85        41.9
 1.725      1.90        57.8
 1.725      1.95        72.7
 1.725      2.00        82.5
ENDDATA             70
ENDSUBENT           87
SUBENT        12869010   20220903   20230600   20230528       1504
BIB                  5          6
REACTION   (29-CU-0(N,EL)29-CU-0,,SIG)
ANALYSIS   Legendre fitting
ERR-ANALYS Total uncertainty estimated at less than 5%
           (DATA-ERR) No information on the source of uncertainty
STATUS     (CURVE) Fig.1 of Nucl.Phys.A448(1986)280
HISTORY    (20220903C) On
ENDBIB               6
NOCOMMON             0          0
DATA                 3         25
EN         DATA       DATA-ERR
MEV        B          B
 1.5        2.476      0.112
 1.6        2.425      0.112
 1.7        2.334      0.102
 1.8        2.278      0.102
 1.9        2.181      0.107
 2.0        2.125      0.092
 2.1        2.080      0.097
 2.2        2.065      0.102
 2.3        2.050      0.097
 2.4        2.020      0.092
 2.5        2.015      0.097
 2.6        1.995      0.102
 2.7        1.975      0.097
 2.8        1.939      0.092
 2.9        1.939      0.087
 3.0        1.960      0.087
 3.1        1.960      0.097
 3.2        1.966      0.092
 3.3        2.002      0.087
 3.4        1.976      0.092
 3.5        1.956      0.087
 3.6        2.008      0.087
 3.7        2.013      0.092
 3.8        2.003      0.087
 3.9        2.029      0.092
ENDDATA             27
ENDSUBENT           38
ENDENTRY            10
