ENTRY            O0658   19990527   20010718
SUBENT        O0658001   19990527   20010718
BIB                 18         92
TITLE      Development of a Quasi-Monoenergetic Neutron Field
           Using the Li-7(P,N)Be-7 Reaction in the 70-210 MeV
           Energy Range at Riken.
AUTHOR     (N.NAKAO,Y.UWAMINO,T.NAKAMURA,T.SHIBATA,N.NAKANISHI,
            M.TAKADA,E.KIM,T.KUROSAWA)
INSTITUTE  (2JPNJPN) High Energy Accelerator Research
           Organization -Kek-, Tanashi Branch, Tanashi, Tokyo,
           Japan.
           (2JPNJCL) The Institute of Physical and Chemical
           Research -Riken-, Wako, Saitama, Japan.
           (2JPNTOH) Cyclotron and Radioisotope Center -Cyric-
           Tohoku University, Sendai, Miyagi, Japan.
REFERENCE  (J,NIM/A,420,218,1999)
           (W,NAKAO,19980318) Data Tables.
REL-REF    (R,,Y.UWAMINO+,J,NIM/A,389,463,1997) Approximation For
           Index of the Forwardness of the Reaction.
           (R,,T.W.ARMSTRONG+,R,ORNL-4869,1973) The Code 'Spar'
           For
           Stopping Power.
           (R,,G.R.STRAKER+,R,ORNL-4585,1970) The Code 'Morse-Cg'
           Used For Attenuation and Scattering Corrections.
           (R,,R.G.ALSMILLER+,R,ORNL-TM-9801,1986) Dlc119/Hilo86
           Multi-Group Cross Section Data Set Used For
           Attenuation and Scattering Corrections.
           (R,,R.A.CECIL+,J,NIM,161,439,1979) Code Used For
           Calculations of the Scintillator Response Functions.
FACILITY   (CYCLO,2JPNJCL).
SAMPLE     10-Mm Thick Li-7 Metal Target, 99.98% Enriched.
METHOD     (EXTB,SITA) External Proton Beam with Extended
           Repetition Period. After Passing the Target, the
           Protons were Bent Towards a Beam Dump.
           (TOF) 12 or 20 Meters Neutron Flight Path. 120-Cm Long
           Neutron Collimator with 22*22 Cm Hole.
           (PHD,PSD) Neutron-Gamma Discrimination.
           (ACTIV) Measurement of be-7 Residual Activity in the
           Lithium Target.
DETECTOR  1(SCIN) Ne213 Scintillator, 12.7-Cm Diameter, 12.7-Cm
           Long, For Measurements of Neutron Spectra.
           (SCIN) Ne213 Scintillator, 5.08-Cm Diameter, 5.08-Cm
           Long, For Relative Neutron Fluence Monitoring.
           (SCIN) Ne102 Scintillator, 2-Cm Wide, 2-Cm High, 0.5-
           Cm Thick, For Relative Neutron Fluence Monitoring.
          2(HPGE) For the Residual Activity Measurement
PART-DET  1(N).
          2(DG).
EN-SEC     (E,N).
MONITOR    ((MONIT)3-LI-7(P,N)4-BE-7,PAR,DA,,,EVAL).
           The Integrated Proton Beam Current and the Monitors
           Given Under 'Detector' were not Used For Normalization
           Of the Neutron Spectra.
DECAY-MON  (4-BE-7,53.3D,EC,,,DG,478.,0.1035).
MONIT-REF  (,J.W.WATSON+,J,PR/C,40,22,1989).
CORRECTION Performed For the Peak Neutron Fluence Estimation:
           Decrease of Proton Energy in the Target; Neutron
           Attenuation in the Target, the 3-Cm-Thick Acrylic
           Window and the Air Beyond the Window; the Neutron
           Scattering at the Collimator.
           Performed For the Neutron Spectra: Counting Loss For
           The Neutron Spectrum Detector.
           Negligible: Angular Straggling of Protons in the
           Target; Admixture of Higher Excited States in the High-
           Energy Neutron Peak.
ERR-ANALYS Following are Quoted Uncertainties in the Peak Neutron
           Fluence Estimation from the Target Residual Activity,
           At 12-M Distance:
           (ERR-S) Upper Limit of Counting Statistics Error
           (MONIT-ERR) Monitor Cross Section, See 'Monit-Ref'
           (ERR-1) Gamma Detector Efficiency
           (ERR-2) Approximation For Index of the Forwardness of
           The Reaction, See 'Rel-Ref'
           (ERR-3) Angular Straggling of Protons in the Target,
           Upper Limit of Uncertainty
           (ERR-4) Correction For Neutron Attenuation in the
           Acrylic Window
           (ERR-5) Correction For Neutron Attenuation in the Air
           Beyond the Window
           (ERR-6) Correction For Neutron Scattering at the
           Collimator, Upper Limit of Uncertainty.
           Following are Quoted Uncertainties in the Relative
           Spectral Neutron Fluence:
           (ERR-7) Counting Loss Correction
           (ERR-8) Detection Efficiency
           (ERR-9) Detector Bias.
           (ERR-T) Quoted Total Uncertainty in the Relative
           Spectral Neutron Fluence. It Does not Include the
           Uncertainty in the Absolute Normalization Based on the
           Measurement of Target Residual Activity.
STATUS     (TABLE) Data are Received from Authors.
HISTORY    (19990514C) By Khlopin Radium Institute - A.P.
           (19990521A) Data and Bib Sections are Corrected by F.C.
           (19990524U) Last checking has been done.
           (19990527A) DATE is corrected
ENDBIB              92
COMMON              14          9
ANG        MONIT      MONIT-ERR  ERR-S      ERR-1      ERR-2
ERR-3      ERR-4      ERR-5      ERR-6      ERR-7      ERR-8
ERR-9      ERR-T
ADEG       MB/SR      PER-CENT   PER-CENT   PER-CENT   PER-CENT
PER-CENT   PER-CENT   PER-CENT   PER-CENT   PER-CENT   PER-CENT
PER-CENT   PER-CENT
         0.       35.5        4.2         1.         3.         6.
         1.         3.        0.5        0.1         3.        15.
         3.       15.6
ENDCOMMON            9
ENDSUBENT          105
SUBENT        O0658002   19990527   20010718
BIB                  3         14
REACTION   (3-LI-7(P,X)0-NN-1,,DA/DE)
MISC-COL   (MISC) Neutron Fluence Data from Authors' Priv. Comm.
           In Authors' Units: Neutron/Sr/MeV/Micro-Coulomb of the
           Proton Beam.
COMMENT    -By Compiler- The Contents of Column 'Data' is a
           Result of Compiler'S Conversion from Authors' Data to
           The Double Differential Cross Sections For Neutron
           Emission.
           The Converted Data are Normalized As to Obtain the
           Angular Differential Cross Section Under the High-
           Energy Peak Equal to the Value Given Under 'Monitor'.
           The Conversion Does not Take Into Account Energy
           Dependence of the Corrections For Neutron Attenuation
           In the Target, the Acrylic Window and the Air.
ENDBIB              14
NOCOMMON
DATA                 4       1078
EN         E          DATA       MISC
MEV        MEV        MB/SR/MEV  SEE TEXT
        70.         6.     0.5787 138400000.
        70.        6.5     0.6738 161100000.
        70.         7.     0.6404 153200000.
        70.        7.5     0.6674 159600000.
        70.         8.      0.601 143700000.
        70.        8.5     0.6976 166800000.
        70.         9.     0.6741 161200000.
        70.        9.5     0.6688 160000000.
        70.        10.     0.6965 166600000.
        70.       10.5     0.6958 166400000.
        70.        11.     0.6788 162300000.
        70.       11.5     0.7185 171800000.
        70.        12.     0.6923 165600000.
        70.       12.5     0.7175 171600000.
        70.        13.     0.7395 176800000.
        70.       13.5     0.7409 177200000.
        70.        14.      0.759 181500000.
        70.       14.5     0.7643 182800000.
        70.        15.     0.7522 179900000.
        70.       15.5     0.7608 181900000.
        70.        16.     0.7398 176900000.
        70.       16.5     0.7349 175700000.
        70.        17.     0.7519 179800000.
        70.       17.5     0.7331 175300000.
        70.        18.     0.7601 181800000.
        70.       18.5     0.7395 176800000.
        70.        19.     0.7984 190900000.
        70.       19.5     0.7902 189000000.
        70.        20.     0.7789 186300000.
        70.       20.5     0.7945 190000000.
        70.        21.     0.8357 199900000.
        70.       21.5     0.8385 200500000.
        70.        22.     0.8577 205100000.
        70.       22.5     0.8843 211500000.
        70.        23.     0.9077 217100000.
        70.       23.5     0.9155 219000000.
        70.        24.     0.9503 227300000.
        70.       24.5      0.977 233600000.
        70.        25.     0.9745 233100000.
        70.       25.5     0.9766 233600000.
        70.        26.     0.9986 238800000.
        70.       26.5     0.9841 235300000.
        70.        27.     1.0117 242000000.
        70.       27.5     1.0277 245800000.
        70.        28.     1.0309 246500000.
        70.       28.5     1.0192 243700000.
        70.        29.     1.0636 254400000.
        70.       29.5     1.0714 256200000.
        70.        30.     1.0618 253900000.
        70.       30.5     1.0934 261500000.
        70.        31.     1.1122 266000000.
        70.       31.5     1.0753 257200000.
        70.        32.     1.0735 256700000.
        70.       32.5     1.0891 260500000.
        70.        33.     1.0703 256000000.
        70.       33.5     1.1033 263900000.
        70.        34.     1.0749 257100000.
        70.       34.5     1.0962 262200000.
        70.        35.     1.0927 261300000.
        70.       35.5     1.0849 259500000.
        70.        36.     1.0629 254200000.
        70.       36.5     1.0977 262500000.
        70.        37.     1.0796 258200000.
        70.       37.5      1.076 257300000.
        70.        38.     1.0575 252900000.
        70.       38.5     1.0277 245800000.
        70.        39.     1.0615 253900000.
        70.       39.5     1.0203 244000000.
        70.        40.     1.0228 244600000.
        70.       40.5     1.0181 243500000.
        70.        41.     1.0054 240400000.
        70.       41.5     1.0171 243200000.
        70.        42.     1.0249 245100000.
        70.       42.5     1.0043 240200000.
        70.        43.     1.0043 240200000.
        70.       43.5     1.0064 240700000.
        70.        44.     1.0277 245800000.
        70.       44.5     1.0164 243100000.
        70.        45.     1.0267 245500000.
        70.       45.5     1.0575 252900000.
        70.        46.     1.0543 252200000.
        70.       46.5     1.0586 253200000.
        70.        47.     1.0309 246500000.
        70.       47.5     1.0643 254500000.
        70.        48.     1.0451 249900000.
        70.       48.5     1.0362 247800000.
        70.        49.     1.0462 250200000.
        70.       49.5     1.0394 248600000.
        70.        50.     1.0203 244000000.
        70.       50.5     1.0192 243700000.
        70.        51.     1.0203 244000000.
        70.       51.5      1.005 240400000.
        70.        52.     0.9912 237000000.
        70.       52.5     0.9528 227900000.
        70.        53.     0.9841 235300000.
        70.       53.5     0.9422 225300000.
        70.        54.     0.9305 222500000.
        70.       54.5      0.906 216700000.
        70.        55.     0.9102 217700000.
        70.       55.5     0.8747 209200000.
        70.        56.     0.8332 199300000.
        70.       56.5     0.8041 192300000.
        70.        57.     0.7838 187500000.
        70.       57.5     0.7199 172200000.
        70.        58.     0.6585 157500000.
        70.       58.5     0.6173 147600000.
        70.        59.      0.552 132000000.
        70.       59.5     0.4885 116800000.
        70.        60.     0.4977 119000000.
        70.       60.5     0.4927 117800000.
        70.        61.     0.4611 110300000.
        70.       61.5     0.4434 106000000.
        70.        62.     0.4459 106600000.
        70.       62.5     0.5041 120600000.
        70.        63.     0.8105 193800000.
        70.       63.5     2.3082 552000000.
        70.        64.     5.25751257000000.
        70.       64.5     7.34851757000000.
        70.        65.     8.01231916000000.
        70.       65.5     8.03361921000000.
        70.        66.      8.2361970000000.
        70.       66.5     8.14021947000000.
        70.        67.      8.0621928000000.
        70.       67.5      7.3131749000000.
        70.        68.     4.90251172000000.
        70.       68.5     1.5088 360800000.
        70.        69.     0.1022  24430000.
        70.       69.5     0.0117   2790000.
        70.        70.     0.0102   2451000.
        80.        20.     0.4633 113100000.
        80.        21.     0.4945 120800000.
        80.        22.     0.5361 130900000.
        80.        23.     0.5737 140100000.
        80.        24.     0.6007 146700000.
        80.        25.     0.6344 154900000.
        80.        26.     0.6457 157700000.
        80.        27.      0.672 164100000.
        80.        28.     0.6852 167300000.
        80.        29.     0.7171 175100000.
        80.        30.     0.7753 189400000.
        80.        31.     0.8154 199100000.
        80.        32.     0.8193 200100000.
        80.        33.     0.8492 207400000.
        80.        34.     0.8804 215000000.
        80.        35.     0.8786 214600000.
        80.        36.     0.9269 226400000.
        80.        37.     0.9109 222500000.
        80.        38.     0.9067 221400000.
        80.        39.     0.9216 225100000.
        80.        40.     0.9383 229100000.
        80.        41.     0.9486 231700000.
        80.        42.     0.9358 228500000.
        80.        43.     0.9411 229800000.
        80.        44.       0.95 232000000.
        80.        45.     0.9599 234400000.
        80.        46.     0.9454 230900000.
        80.        47.     0.9152 223500000.
        80.        48.      0.906 221300000.
        80.        49.     0.8886 217000000.
        80.        50.     0.8772 214200000.
        80.        51.     0.8644 211100000.
        80.        52.     0.8587 209700000.
        80.        53.     0.8651 211300000.
        80.        54.     0.8435 206000000.
        80.        55.     0.8705 212600000.
        80.        56.     0.8989 219500000.
        80.        57.     0.8779 214400000.
        80.        58.     0.8651 211300000.
        80.        59.     0.8864 216500000.
        80.        60.     0.8907 217500000.
        80.        61.     0.8563 209100000.
        80.        62.     0.8485 207200000.
        80.        63.     0.8151 199100000.
        80.        64.     0.7796 190400000.
        80.        65.     0.7757 189400000.
        80.        66.     0.7359 179700000.
        80.        67.      0.671 163900000.
        80.        68.     0.5911 144400000.
        80.        69.      0.502 122600000.
        80.       69.5     0.4398 107400000.
        80.        70.     0.4008  97880000.
        80.       70.5     0.3355  81930000.
        80.        71.     0.3209  78380000.
        80.       71.5     0.2602  63550000.
        80.        72.     0.2279  55660000.
        80.       72.5     0.2421  59130000.
        80.        73.     0.4647 113500000.
        80.       73.5     1.2563 306800000.
        80.        74.     2.5638 626100000.
        80.       74.5      4.6151127000000.
        80.        75.     7.02191715000000.
        80.       75.5     8.87152167000000.
        80.        76.     9.39682295000000.
        80.       76.5     9.38982293000000.
        80.        77.     8.75782139000000.
        80.       77.5     7.51531835000000.
        80.        78.     5.87531435000000.
        80.       78.5     3.4506 842700000.
        80.        79.     1.2137 296400000.
        80.       79.5     0.1328  32430000.
        80.        80.     0.0054   1311000.
        90.         8.     0.5588 138700000.
        90.         9.     0.5609 139200000.
        90.        10.     0.5453 135300000.
        90.        11.     0.5407 134200000.
        90.        12.     0.5155 127900000.
        90.        13.     0.5275 130900000.
        90.        14.     0.5336 132400000.
        90.        15.     0.5435 134900000.
        90.        16.     0.5407 134200000.
        90.        17.     0.5392 133800000.
        90.        18.     0.5655 140300000.
        90.        19.     0.5755 142800000.
        90.        20.     0.5939 147400000.
        90.        21.     0.6422 159400000.
        90.        22.     0.6887 170900000.
        90.        23.     0.6763 167800000.
        90.        24.     0.7221 179200000.
        90.        25.     0.7054 175100000.
        90.        26.     0.7356 182500000.
        90.        27.     0.7274 180500000.
        90.        28.     0.7249 179900000.
        90.        29.     0.7657 190000000.
        90.        30.      0.776 192600000.
        90.        31.     0.8126 201700000.
        90.        32.     0.8286 205600000.
        90.        33.     0.8073 200300000.
        90.        34.     0.8215 203900000.
        90.        35.      0.869 215700000.
        90.        36.       0.88 218400000.
        90.        37.     0.8541 212000000.
        90.        38.     0.8974 222700000.
        90.        39.     0.8658 214900000.
        90.        40.     0.8914 221200000.
        90.        41.     0.8783 218000000.
        90.        42.       0.88 218400000.
        90.        43.     0.8346 207100000.
        90.        44.     0.8559 212400000.
        90.        45.     0.8364 207600000.
        90.        46.     0.8541 212000000.
        90.        47.     0.8797 218300000.
        90.        48.     0.8754 217300000.
        90.        49.     0.8666 215100000.
        90.        50.     0.8694 215800000.
        90.        51.     0.8843 219500000.
        90.        52.     0.8804 218500000.
        90.        53.     0.8701 215900000.
        90.        54.     0.9003 223400000.
        90.        55.     0.9319 231300000.
        90.        56.     0.9283 230400000.
        90.        57.     0.9248 229500000.
        90.        58.     0.8879 220300000.
        90.        59.      0.901 223600000.
        90.        60.     0.8857 219800000.
        90.        61.     0.8584 213000000.
        90.        62.     0.8673 215200000.
        90.        63.     0.9035 224200000.
        90.        64.     0.8832 219200000.
        90.        65.     0.8779 217900000.
        90.        66.     0.9262 229900000.
        90.        67.     0.9234 229100000.
        90.        68.     0.9493 235600000.
        90.        69.     0.9315 231200000.
        90.        70.     0.9365 232400000.
        90.        71.     0.9688 240400000.
        90.        72.     0.9702 240800000.
        90.        73.     0.9234 229100000.
        90.        74.     0.8655 214800000.
        90.        75.     0.9152 227100000.
        90.        76.     0.8839 219400000.
        90.        77.     0.8694 215800000.
        90.        78.     0.8619 213900000.
        90.        79.     0.6901 171300000.
        90.        80.     0.6276 155800000.
        90.       80.5     0.5545 137600000.
        90.        81.      0.508 126100000.
        90.       81.5     0.5073 125900000.
        90.        82.     0.5311 131800000.
        90.       82.5     0.5826 144600000.
        90.        83.     0.6301 156400000.
        90.       83.5     0.8889 220600000.
        90.        84.     1.5577 386600000.
        90.       84.5     3.7594 933000000.
        90.        85.     6.34031573000000.
        90.       85.5     8.40642086000000.
        90.        86.     9.58852380000000.
        90.       86.5     9.77312425000000.
        90.        87.     9.27612302000000.
        90.       87.5     8.61592138000000.
        90.        88.     6.14511525000000.
        90.       88.5     3.3949 842500000.
        90.        89.     1.1246 279100000.
        90.       89.5     0.2602  64580000.
        90.        90.     0.1243  30840000.
       100.        26.     0.3788  95070000.
       100.        27.     0.4214 105800000.
       100.        28.     0.4157 104300000.
       100.        29.     0.4054 101800000.
       100.        30.     0.4256 106800000.
       100.        31.     0.4675 117300000.
       100.        32.     0.4576 114800000.
       100.        33.     0.5037 126400000.
       100.        34.     0.5194 130400000.
       100.        35.     0.5307 133200000.
       100.        36.       0.53 133000000.
       100.        37.     0.5325 133700000.
       100.        38.     0.5769 144800000.
       100.        39.     0.5463 137100000.
       100.        40.     0.6436 161500000.
       100.        41.     0.5928 148800000.
       100.        42.      0.622 156100000.
       100.        43.     0.6301 158200000.
       100.        44.     0.6266 157300000.
       100.        45.     0.6408 160800000.
       100.        46.      0.573 143800000.
       100.        47.     0.6028 151300000.
       100.        48.     0.6642 166700000.
       100.        49.     0.6379 160100000.
       100.        50.     0.6557 164600000.
       100.        51.     0.6472 162400000.
       100.        52.     0.6145 154200000.
       100.        53.     0.6379 160100000.
       100.        54.     0.6724 168800000.
       100.        55.     0.7054 177000000.
       100.        56.     0.7004 175800000.
       100.        57.     0.6695 168000000.
       100.        58.      0.667 167400000.
       100.        59.     0.6908 173400000.
       100.        60.     0.7061 177200000.
       100.        61.     0.7192 180500000.
       100.        62.     0.7427 186400000.
       100.        63.     0.7462 187300000.
       100.        64.     0.7707 193400000.
       100.        65.     0.7629 191500000.
       100.        66.     0.7246 181900000.
       100.        67.      0.775 194500000.
       100.        68.     0.7544 189300000.
       100.        69.     0.7877 197700000.
       100.        70.     0.7306 183400000.
       100.        71.     0.7505 188400000.
       100.        72.     0.7583 190300000.
       100.        73.      0.749 188000000.
       100.        74.     0.7192 180500000.
       100.        75.     0.7473 187600000.
       100.        76.     0.7409 186000000.
       100.        77.     0.7824 196400000.
       100.        78.     0.7199 180700000.
       100.        79.     0.7288 182900000.
       100.        80.      0.716 179700000.
       100.        81.     0.6812 171000000.
       100.        82.     0.7263 182300000.
       100.        83.     0.7096 178100000.
       100.        84.     0.7565 189900000.
       100.        85.     0.7487 187900000.
       100.        86.     0.7086 177800000.
       100.        87.     0.7001 175700000.
       100.        88.     0.6532 163900000.
       100.        89.     0.5204 130600000.
       100.        90.     0.3894  97740000.
       100.        91.     0.2982  74840000.
       100.        92.     0.2631  66020000.
       100.       92.5     0.5247 131700000.
       100.        93.     1.3497 338800000.
       100.       93.5     2.4175 606800000.
       100.        94.     3.3153 832100000.
       100.       94.5     4.83161213000000.
       100.        95.     6.89761731000000.
       100.       95.5     8.57322152000000.
       100.        96.     8.59452157000000.
       100.       96.5     8.77912203000000.
       100.        97.     8.14722045000000.
       100.       97.5     7.17811802000000.
       100.        98.      4.8671222000000.
       100.       98.5     3.0282 760000000.
       100.        99.     1.6912 424500000.
       100.       99.5     0.4491 112700000.
       100.       100.     0.0898  22540000.
       110.        20.      0.257  65090000.
       110.        21.     0.2762  69940000.
       110.        22.     0.3035  76860000.
       110.        23.     0.2993  75790000.
       110.        24.     0.3223  81630000.
       110.        25.     0.3419  86570000.
       110.        26.     0.3443  87200000.
       110.        27.     0.3536  89540000.
       110.        28.     0.3724  94310000.
       110.        29.     0.3287  83250000.
       110.        30.      0.383  97000000.
       110.        31.     0.4225 107000000.
       110.        32.     0.4225 107000000.
       110.        33.     0.4107 104000000.
       110.        34.      0.426 107900000.
       110.        35.     0.4686 118700000.
       110.        36.     0.4927 124800000.
       110.        37.      0.492 124600000.
       110.        38.      0.513 129900000.
       110.        39.     0.5172 131000000.
       110.        40.     0.5481 138800000.
       110.        41.     0.5435 137600000.
       110.        42.     0.5616 142200000.
       110.        43.     0.5573 141100000.
       110.        44.     0.5716 144700000.
       110.        45.     0.5755 145700000.
       110.        46.     0.5478 138700000.
       110.        47.     0.5556 140700000.
       110.        48.     0.5716 144700000.
       110.        49.     0.5645 142900000.
       110.        50.     0.5879 148900000.
       110.        51.     0.5982 151500000.
       110.        52.     0.5957 150900000.
       110.        53.     0.5904 149500000.
       110.        54.     0.5857 148300000.
       110.        55.     0.5985 151600000.
       110.        56.     0.5676 143800000.
       110.        57.     0.5964 151000000.
       110.        58.     0.6209 157200000.
       110.        59.     0.6205 157100000.
       110.        60.     0.6117 154900000.
       110.        61.     0.6056 153400000.
       110.        62.     0.6394 161900000.
       110.        63.     0.6489 164300000.
       110.        64.      0.645 163300000.
       110.        65.     0.6649 168400000.
       110.        66.     0.6461 163600000.
       110.        67.     0.6766 171300000.
       110.        68.     0.6841 173200000.
       110.        69.     0.6887 174400000.
       110.        70.      0.678 171700000.
       110.        71.     0.7349 186100000.
       110.        72.     0.7483 189500000.
       110.        73.     0.7256 183800000.
       110.        74.     0.7615 192800000.
       110.        75.     0.7952 201400000.
       110.        76.     0.7743 196100000.
       110.        77.     0.7924 200700000.
       110.        78.      0.743 188200000.
       110.        79.     0.7203 182400000.
       110.        80.     0.7547 191100000.
       110.        81.     0.7494 189800000.
       110.        82.     0.6944 175800000.
       110.        83.     0.7139 180800000.
       110.        84.     0.7153 181100000.
       110.        85.     0.7132 180600000.
       110.        86.     0.7302 184900000.
       110.        87.     0.7331 185600000.
       110.        88.     0.7214 182700000.
       110.        89.     0.7093 179600000.
       110.        90.     0.7267 184000000.
       110.        91.     0.7118 180200000.
       110.        92.      0.694 175800000.
       110.        93.     0.6983 176800000.
       110.        94.     0.6791 172000000.
       110.        95.     0.7231 183100000.
       110.        96.     0.7235 183200000.
       110.        97.     0.7072 179100000.
       110.        98.     0.6099 154400000.
       110.        99.     0.4665 118100000.
       110.       100.     0.3667  92870000.
       110.       101.     0.3688  93410000.
       110.      101.5     0.3749  94930000.
       110.       102.     0.4274 108200000.
       110.      102.5     0.5783 146400000.
       110.       103.     0.9173 232300000.
       110.      103.5     1.5492 392300000.
       110.       104.      3.108 787100000.
       110.      104.5     5.41381371000000.
       110.       105.     8.14372062000000.
       110.      105.5    10.21692587000000.
       110.       106.     10.8312743000000.
       110.      106.5    10.17082576000000.
       110.       107.     8.63362186000000.
       110.      107.5     6.12021550000000.
       110.       108.     3.3658 852300000.
       110.      108.5     1.2418 314500000.
       110.       109.       0.24  60770000.
       110.      109.5      0.038   9619000.
       110.       110.     0.0056   1408000.
       120.        22.     0.1637  41810000.
       120.        23.      0.159  40630000.
       120.        24.     0.1771  45260000.
       120.        25.     0.1789  45710000.
       120.        26.      0.202  51610000.
       120.        27.      0.202  51610000.
       120.        28.     0.1818  46440000.
       120.        29.     0.2063  52700000.
       120.        30.     0.2119  54150000.
       120.        31.     0.2428  62040000.
       120.        32.     0.2354  60130000.
       120.        33.     0.2503  63940000.
       120.        34.     0.2112  53970000.
       120.        35.     0.2868  73290000.
       120.        36.     0.2751  70290000.
       120.        37.     0.2961  75640000.
       120.        38.     0.3057  78090000.
       120.        39.     0.3124  79820000.
       120.        40.     0.3273  83630000.
       120.        41.     0.3337  85260000.
       120.        42.     0.3568  91150000.
       120.        43.     0.3692  94330000.
       120.        44.     0.3486  89070000.
       120.        45.     0.3657  93420000.
       120.        46.     0.3713  94870000.
       120.        47.     0.3561  90970000.
       120.        48.     0.3802  97140000.
       120.        49.     0.3866  98770000.
       120.        50.     0.3962 101200000.
       120.        51.     0.4093 104600000.
       120.        52.     0.4111 105000000.
       120.        53.     0.4043 103300000.
       120.        54.     0.4154 106100000.
       120.        55.     0.4178 106800000.
       120.        56.     0.4125 105400000.
       120.        57.     0.4132 105600000.
       120.        58.     0.4242 108400000.
       120.        59.     0.4203 107400000.
       120.        60.     0.4139 105800000.
       120.        61.     0.4235 108200000.
       120.        62.     0.4349 111100000.
       120.        63.     0.4217 107800000.
       120.        64.     0.4423 113000000.
       120.        65.     0.4413 112700000.
       120.        66.     0.4288 109600000.
       120.        67.     0.4523 115600000.
       120.        68.     0.4576 116900000.
       120.        69.     0.4721 120600000.
       120.        70.     0.4768 121800000.
       120.        71.     0.4931 126000000.
       120.        72.     0.4952 126500000.
       120.        73.     0.5084 129900000.
       120.        74.     0.5279 134900000.
       120.        75.     0.5208 133100000.
       120.        76.     0.5194 132700000.
       120.        77.      0.529 135100000.
       120.        78.     0.5428 138700000.
       120.        79.     0.5705 145800000.
       120.        80.     0.5652 144400000.
       120.        81.     0.6067 155000000.
       120.        82.     0.5857 149700000.
       120.        83.     0.6113 156200000.
       120.        84.     0.6099 155800000.
       120.        85.     0.6042 154400000.
       120.        86.      0.611 156100000.
       120.        87.     0.6152 157200000.
       120.        88.      0.617 157600000.
       120.        89.     0.5953 152100000.
       120.        90.     0.5928 151500000.
       120.        91.     0.5847 149400000.
       120.        92.      0.568 145100000.
       120.        93.     0.5648 144300000.
       120.        94.     0.5829 148900000.
       120.        95.     0.5755 147000000.
       120.        96.     0.5822 148700000.
       120.        97.     0.5989 153000000.
       120.        98.     0.6134 156700000.
       120.        99.     0.5914 151100000.
       120.       100.     0.5975 152600000.
       120.       101.      0.606 154800000.
       120.       102.     0.5936 151700000.
       120.       103.     0.5758 147100000.
       120.       104.     0.6007 153500000.
       120.       105.     0.6205 158500000.
       120.      105.5     0.6493 165900000.
       120.       106.     0.6898 176200000.
       120.      106.5     0.7022 179400000.
       120.       107.     0.7118 181900000.
       120.      107.5     0.6752 172500000.
       120.       108.     0.6603 168700000.
       120.      108.5     0.5829 148900000.
       120.       109.     0.4661 119100000.
       120.      109.5     0.4008 102400000.
       120.       110.     0.3358  85800000.
       120.      110.5     0.2844  72650000.
       120.       111.     0.2205  56320000.
       120.      111.5     0.1928  49250000.
       120.       112.     0.1761  44990000.
       120.      112.5      0.159  40630000.
       120.       113.     0.1697  43350000.
       120.      113.5     0.1878  47980000.
       120.       114.     0.4523 115600000.
       120.      114.5     1.9227 491200000.
       120.       115.     6.37221628000000.
       120.      115.5    11.12222842000000.
       120.       116.    12.95753311000000.
       120.      116.5    12.98593318000000.
       120.       117.    12.31853147000000.
       120.      117.5     8.51652176000000.
       120.       118.     3.2944 841700000.
       120.      118.5     0.4665 119200000.
       120.       119.     0.0401  10250000.
       120.      119.5     0.0213   5447000.
       120.       120.     0.0125   3206000.
       135.         8.     0.2435  62490000.
       135.         9.     0.2528  64860000.
       135.        10.     0.2442  62680000.
       135.        11.     0.2439  62590000.
       135.        12.     0.2432  62400000.
       135.        13.     0.2403  61670000.
       135.        14.      0.245  62860000.
       135.        15.     0.2531  64950000.
       135.        16.     0.2471  63410000.
       135.        17.     0.2492  63950000.
       135.        18.      0.246  63130000.
       135.        19.     0.2506  64320000.
       135.        20.     0.2631  67510000.
       135.        21.     0.2609  66960000.
       135.        22.     0.2741  70330000.
       135.        23.     0.2765  70970000.
       135.        24.     0.2762  70880000.
       135.        25.     0.2868  73610000.
       135.        26.     0.2833  72700000.
       135.        27.     0.2872  73700000.
       135.        28.     0.2886  74060000.
       135.        29.     0.2904  74520000.
       135.        30.     0.3067  78710000.
       135.        31.     0.3007  77160000.
       135.        32.      0.301  77250000.
       135.        33.     0.3042  78070000.
       135.        34.     0.3025  77620000.
       135.        35.      0.311  79800000.
       135.        36.     0.3067  78710000.
       135.        37.     0.3227  82810000.
       135.        38.     0.3167  81260000.
       135.        39.     0.3319  85180000.
       135.        40.     0.3341  85730000.
       135.        41.     0.3369  86450000.
       135.        42.     0.3383  86820000.
       135.        43.     0.3433  88090000.
       135.        44.     0.3465  88910000.
       135.        45.     0.3536  90740000.
       135.        46.     0.3585  92010000.
       135.        47.     0.3557  91280000.
       135.        48.     0.3678  94380000.
       135.        49.      0.372  95470000.
       135.        50.     0.3724  95560000.
       135.        51.     0.3749  96200000.
       135.        52.      0.382  98020000.
       135.        53.     0.3912 100400000.
       135.        54.     0.3926 100800000.
       135.        55.     0.4068 104400000.
       135.        56.     0.3972 101900000.
       135.        57.     0.4097 105100000.
       135.        58.     0.4143 106300000.
       135.        59.     0.4136 106100000.
       135.        60.     0.4182 107300000.
       135.        61.     0.4193 107600000.
       135.        62.     0.4182 107300000.
       135.        63.     0.4114 105600000.
       135.        64.     0.4164 106900000.
       135.        65.     0.4239 108800000.
       135.        66.     0.4097 105100000.
       135.        67.     0.4146 106400000.
       135.        68.     0.4097 105100000.
       135.        69.       0.41 105200000.
       135.        70.     0.4203 107900000.
       135.        71.     0.4235 108700000.
       135.        72.     0.4256 109200000.
       135.        73.     0.4214 108100000.
       135.        74.     0.4235 108700000.
       135.        75.     0.4477 114900000.
       135.        76.     0.4406 113100000.
       135.        77.     0.4345 111500000.
       135.        78.     0.4445 114100000.
       135.        79.     0.4374 112200000.
       135.        80.     0.4551 116800000.
       135.        81.     0.4558 117000000.
       135.        82.     0.4643 119200000.
       135.        83.     0.4725 121300000.
       135.        84.     0.4732 121400000.
       135.        85.     0.4803 123300000.
       135.        86.     0.4832 124000000.
       135.        87.     0.4942 126800000.
       135.        88.     0.5062 129900000.
       135.        89.     0.5059 129800000.
       135.        90.     0.5119 131400000.
       135.        91.     0.5261 135000000.
       135.        92.     0.5321 136600000.
       135.        93.     0.5396 138500000.
       135.        94.      0.552 141700000.
       135.        95.     0.5563 142800000.
       135.        96.      0.568 145800000.
       135.        97.     0.5815 149200000.
       135.        98.     0.5829 149600000.
       135.        99.     0.5879 150900000.
       135.       100.     0.5897 151300000.
       135.       101.     0.5783 148400000.
       135.       102.     0.5801 148900000.
       135.       103.     0.5733 147100000.
       135.       104.     0.5666 145400000.
       135.       105.      0.552 141700000.
       135.       106.     0.5417 139000000.
       135.       107.     0.5382 138100000.
       135.       108.     0.5375 137900000.
       135.       109.       0.54 138600000.
       135.       110.     0.5375 137900000.
       135.       111.     0.5396 138500000.
       135.       112.     0.5417 139000000.
       135.       113.     0.5357 137500000.
       135.       114.     0.5361 137600000.
       135.       115.       0.54 138600000.
       135.       116.      0.541 138800000.
       135.       117.     0.5435 139500000.
       135.       118.     0.5339 137000000.
       135.       119.     0.5297 135900000.
       135.       120.     0.5463 140200000.
       135.       121.     0.5726 146900000.
       135.      121.5      0.612 157100000.
       135.       122.     0.6592 169200000.
       135.      122.5     0.6518 167300000.
       135.       123.     0.6252 160400000.
       135.      123.5     0.5623 144300000.
       135.       124.     0.5179 132900000.
       135.      124.5       0.42 107800000.
       135.       125.     0.3717  95380000.
       135.      125.5     0.2971  76250000.
       135.       126.     0.2393  61400000.
       135.      126.5     0.1878  48190000.
       135.       127.     0.1729  44370000.
       135.      127.5     0.1573  40360000.
       135.       128.     0.1406  36080000.
       135.      128.5     0.1409  36170000.
       135.       129.      0.175  44910000.
       135.      129.5     0.4004 102800000.
       135.       130.     1.5482 397300000.
       135.      130.5     5.38531382000000.
       135.       131.     9.59922463000000.
       135.      131.5    12.35053169000000.
       135.       132.    13.25933403000000.
       135.      132.5    12.53153216000000.
       135.       133.     9.33652396000000.
       135.      133.5     4.14641064000000.
       135.       134.     1.5141 388500000.
       135.      134.5     0.4104 105300000.
       135.       135.     0.0554  14210000.
       150.        23.      0.147  37840000.
       150.        24.     0.1558  40120000.
       150.        25.     0.1729  44510000.
       150.        26.     0.1931  49720000.
       150.        27.     0.1669  42960000.
       150.        28.      0.185  47620000.
       150.        29.     0.1853  47710000.
       150.        30.     0.1917  49360000.
       150.        31.     0.2194  56490000.
       150.        32.     0.1921  49450000.
       150.        33.     0.1722  44330000.
       150.        34.      0.202  52010000.
       150.        35.     0.1988  51180000.
       150.        36.      0.229  58950000.
       150.        37.     0.2265  58310000.
       150.        38.     0.2134  54930000.
       150.        39.     0.2549  65630000.
       150.        40.     0.2457  63250000.
       150.        41.     0.2471  63610000.
       150.        42.     0.2645  68090000.
       150.        43.     0.2719  70010000.
       150.        44.     0.2805  72210000.
       150.        45.      0.268  69010000.
       150.        46.     0.2712  69830000.
       150.        47.     0.2737  70470000.
       150.        48.     0.2765  71200000.
       150.        49.     0.2712  69830000.
       150.        50.     0.3007  77420000.
       150.        51.     0.2911  74950000.
       150.        52.     0.2925  75310000.
       150.        53.     0.2954  76040000.
       150.        54.     0.3064  78880000.
       150.        55.     0.3174  81710000.
       150.        56.     0.3085  79430000.
       150.        57.      0.322  82900000.
       150.        58.     0.3319  85460000.
       150.        59.     0.3493  89940000.
       150.        60.     0.3433  88380000.
       150.        61.     0.3564  91770000.
       150.        62.     0.3515  90490000.
       150.        63.     0.3678  94690000.
       150.        64.     0.3539  91130000.
       150.        65.     0.3735  96150000.
       150.        66.     0.3664  94320000.
       150.        67.     0.3788  97520000.
       150.        68.     0.3767  96980000.
       150.        69.     0.3774  97160000.
       150.        70.     0.3788  97520000.
       150.        71.     0.3909 100600000.
       150.        72.     0.4107 105700000.
       150.        73.     0.3862  99440000.
       150.        74.     0.3923 101000000.
       150.        75.      0.399 102700000.
       150.        76.     0.3781  97340000.
       150.        77.     0.3969 102200000.
       150.        78.     0.3728  95970000.
       150.        79.      0.377  97070000.
       150.        80.     0.3649  93960000.
       150.        81.     0.3806  97980000.
       150.        82.     0.3852  99170000.
       150.        83.     0.3809  98070000.
       150.        84.      0.382  98350000.
       150.        85.     0.3703  95330000.
       150.        86.     0.3912 100700000.
       150.        87.     0.3859  99350000.
       150.        88.     0.3855  99260000.
       150.        89.     0.3823  98440000.
       150.        90.     0.3838  98800000.
       150.        91.     0.3685  94870000.
       150.        92.     0.4026 103600000.
       150.        93.      0.398 102500000.
       150.        94.      0.404 104000000.
       150.        95.     0.4093 105400000.
       150.        96.     0.4139 106600000.
       150.        97.     0.4111 105800000.
       150.        98.     0.4327 111400000.
       150.        99.     0.4029 103700000.
       150.       100.     0.4143 106700000.
       150.       101.     0.4171 107400000.
       150.       102.     0.4317 111100000.
       150.       103.     0.4327 111400000.
       150.       104.     0.4633 119300000.
       150.       105.     0.4643 119600000.
       150.       106.     0.4611 118700000.
       150.       107.     0.4647 119600000.
       150.       108.     0.4945 127300000.
       150.       109.     0.4913 126500000.
       150.       110.     0.4796 123500000.
       150.       111.     0.5048 130000000.
       150.       112.     0.5204 134000000.
       150.       113.     0.5332 137300000.
       150.       114.       0.54 139000000.
       150.       115.     0.5446 140200000.
       150.       116.     0.5304 136600000.
       150.       117.     0.5499 141600000.
       150.       118.     0.5542 142700000.
       150.       119.     0.5485 141200000.
       150.       120.     0.5733 147600000.
       150.       121.     0.5254 135300000.
       150.       122.     0.5155 132700000.
       150.       123.      0.524 134900000.
       150.       124.     0.4888 125900000.
       150.       125.     0.4782 123100000.
       150.       126.     0.4803 123700000.
       150.       127.     0.5126 132000000.
       150.       128.     0.5045 129900000.
       150.       129.     0.5151 132600000.
       150.       130.     0.5119 131800000.
       150.       131.     0.5286 136100000.
       150.       132.     0.5435 139900000.
       150.       133.     0.5158 132800000.
       150.       134.     0.5119 131800000.
       150.      134.5     0.5382 138600000.
       150.       135.     0.5719 147200000.
       150.      135.5     0.5659 145700000.
       150.       136.     0.5936 152800000.
       150.      136.5     0.6046 155700000.
       150.       137.     0.6433 165600000.
       150.      137.5     0.6333 163100000.
       150.       138.     0.5804 149400000.
       150.      138.5     0.5968 153600000.
       150.       139.     0.5467 140800000.
       150.      139.5     0.4569 117600000.
       150.       140.     0.3877  99810000.
       150.      140.5     0.3312  85280000.
       150.       141.     0.2393  61600000.
       150.      141.5     0.2144  55210000.
       150.       142.     0.2552  65720000.
       150.      142.5     0.3135  80710000.
       150.       143.     0.3703  95330000.
       150.      143.5     0.5357 137900000.
       150.       144.     0.9727 250400000.
       150.      144.5     2.0558 529300000.
       150.       145.     3.95471018000000.
       150.      145.5     6.64561711000000.
       150.       146.     9.06672334000000.
       150.      146.5    10.68912752000000.
       150.       147.    10.94472818000000.
       150.      147.5     9.49272444000000.
       150.       148.      7.0611818000000.
       150.      148.5     4.59011182000000.
       150.       149.     2.5173 648100000.
       150.      149.5     1.1463 295100000.
       150.       150.     0.3919 100900000.
       150.      150.5     0.0966  24860000.
       150.       151.     0.0347   8943000.
       210.        28.     0.1527  39650000.
       210.        29.     0.1612  41860000.
       210.        30.     0.1768  45920000.
       210.        31.     0.1828  47480000.
       210.        32.     0.1853  48130000.
       210.        33.     0.1661  43150000.
       210.        34.     0.1715  44530000.
       210.        35.     0.1889  49050000.
       210.        36.     0.1807  46930000.
       210.        37.     0.1942  50430000.
       210.        38.     0.1952  50710000.
       210.        39.     0.1935  50250000.
       210.        40.     0.2024  52550000.
       210.        41.     0.1935  50250000.
       210.        42.     0.2031  52740000.
       210.        43.     0.2066  53660000.
       210.        44.      0.218  56610000.
       210.        45.     0.2247  58360000.
       210.        46.     0.2244  58270000.
       210.        47.      0.213  55320000.
       210.        48.     0.2237  58090000.
       210.        49.     0.2286  59380000.
       210.        50.     0.2276  59100000.
       210.        51.     0.2435  63250000.
       210.        52.      0.218  56610000.
       210.        53.     0.2435  63250000.
       210.        54.     0.2478  64360000.
       210.        55.     0.2481  64450000.
       210.        56.     0.2506  65090000.
       210.        57.     0.2457  63800000.
       210.        58.     0.2503  65000000.
       210.        59.     0.2552  66290000.
       210.        60.     0.2705  70260000.
       210.        61.     0.2631  68320000.
       210.        62.     0.2819  73210000.
       210.        63.     0.2826  73390000.
       210.        64.     0.2702  70160000.
       210.        65.     0.2808  72930000.
       210.        66.     0.2861  74310000.
       210.        67.     0.2939  76340000.
       210.        68.     0.2968  77080000.
       210.        69.     0.2922  75880000.
       210.        70.     0.2932  76160000.
       210.        71.     0.3128  81230000.
       210.        72.     0.3053  79290000.
       210.        73.     0.3191  82890000.
       210.        74.      0.317  82330000.
       210.        75.     0.3202  83160000.
       210.        76.     0.3355  87130000.
       210.        77.     0.3191  82890000.
       210.        78.     0.3294  85560000.
       210.        79.     0.3323  86300000.
       210.        80.     0.3443  89430000.
       210.        81.     0.3309  85930000.
       210.        82.     0.3486  90540000.
       210.        83.      0.355  92200000.
       210.        84.      0.339  88050000.
       210.        85.     0.3458  89800000.
       210.        86.     0.3504  91000000.
       210.        87.     0.3546  92110000.
       210.        88.     0.3479  90360000.
       210.        89.     0.3408  88510000.
       210.        90.     0.3483  90450000.
       210.        91.     0.3472  90170000.
       210.        92.     0.3468  90080000.
       210.        93.     0.3649  94780000.
       210.        94.     0.3443  89430000.
       210.        95.     0.3458  89800000.
       210.        96.     0.3341  86760000.
       210.        97.     0.3628  94230000.
       210.        98.     0.3543  92020000.
       210.        99.     0.3518  91370000.
       210.       100.      0.344  89340000.
       210.       101.     0.3355  87130000.
       210.       102.     0.3319  86210000.
       210.       103.     0.3397  88240000.
       210.       104.     0.3312  86020000.
       210.       105.     0.3262  84730000.
       210.       106.     0.3412  88600000.
       210.       107.     0.3319  86210000.
       210.       108.     0.3326  86390000.
       210.       109.     0.3234  83990000.
       210.       110.     0.3316  86110000.
       210.       111.     0.3362  87310000.
       210.       112.     0.3188  82800000.
       210.       113.     0.3273  85010000.
       210.       114.     0.3234  83990000.
       210.       115.     0.3149  81780000.
       210.       116.     0.3262  84730000.
       210.       117.      0.338  87770000.
       210.       118.     0.3117  80950000.
       210.       119.      0.311  80770000.
       210.       120.     0.3259  84640000.
       210.       121.     0.3181  82610000.
       210.       122.     0.3309  85930000.
       210.       123.     0.3255  84550000.
       210.       124.     0.3149  81780000.
       210.       125.     0.3206  83260000.
       210.       126.     0.3231  83900000.
       210.       127.     0.2978  77360000.
       210.       128.     0.3323  86300000.
       210.       129.     0.3191  82890000.
       210.       130.     0.3348  86940000.
       210.       131.     0.3117  80950000.
       210.       132.     0.3181  82610000.
       210.       133.     0.3152  81870000.
       210.       134.     0.3184  82700000.
       210.       135.     0.3238  84090000.
       210.       136.     0.3248  84360000.
       210.       137.     0.3362  87310000.
       210.       138.     0.3202  83160000.
       210.       139.     0.3358  87220000.
       210.       140.     0.3387  87960000.
       210.       141.     0.3397  88240000.
       210.       142.     0.3458  89800000.
       210.       143.     0.3504  91000000.
       210.       144.     0.3546  92110000.
       210.       145.     0.3554  92290000.
       210.       146.     0.3479  90360000.
       210.       147.     0.3429  89070000.
       210.       148.     0.3436  89250000.
       210.       149.     0.3447  89530000.
       210.       150.     0.3667  95240000.
       210.       151.     0.3596  93400000.
       210.       152.     0.3678  95520000.
       210.       153.     0.3646  94690000.
       210.       154.     0.3653  94870000.
       210.       155.     0.3916 101700000.
       210.       156.      0.393 102100000.
       210.       157.     0.3848  99940000.
       210.       158.     0.3877 100700000.
       210.       159.     0.4246 110300000.
       210.       160.      0.409 106200000.
       210.       161.     0.4214 109400000.
       210.       162.     0.4349 112900000.
       210.       163.     0.4356 113100000.
       210.       164.     0.4466 116000000.
       210.       165.     0.4409 114500000.
       210.       166.     0.4569 118700000.
       210.       167.       0.47 122100000.
       210.       168.     0.4785 124300000.
       210.       169.     0.4924 127900000.
       210.       170.     0.5087 132100000.
       210.       171.      0.519 134800000.
       210.       172.     0.5116 132900000.
       210.       173.     0.5073 131800000.
       210.       174.     0.5148 133700000.
       210.       175.     0.5364 139300000.
       210.       176.     0.5364 139300000.
       210.       177.     0.5396 140100000.
       210.       178.     0.5094 132300000.
       210.       179.     0.5432 141100000.
       210.       180.     0.5307 137800000.
       210.       181.     0.5204 135200000.
       210.       182.     0.5112 132800000.
       210.       183.     0.4981 129400000.
       210.       184.     0.4899 127200000.
       210.       185.     0.5155 133900000.
       210.       186.     0.5336 138600000.
       210.       187.     0.5545 144000000.
       210.       188.     0.5978 155300000.
       210.       189.     0.5982 155400000.
       210.       190.     0.6031 156600000.
       210.       191.     0.6262 162600000.
       210.       192.     0.6209 161300000.
       210.       193.     0.5985 155400000.
       210.       194.     0.6528 169600000.
       210.       195.     0.6578 170800000.
       210.       196.     0.6468 168000000.
       210.       197.     0.6397 166100000.
       210.       198.     0.5808 150800000.
       210.      198.5     0.5943 154300000.
       210.       199.     0.5723 148600000.
       210.      199.5     0.4864 126300000.
       210.       200.      0.454 117900000.
       210.      200.5     0.4026 104600000.
       210.       201.      0.387 100500000.
       210.      201.5     0.3667  95240000.
       210.       202.     0.3962 102900000.
       210.      202.5     0.4796 124600000.
       210.       203.     0.7338 190600000.
       210.      203.5     1.1704 304000000.
       210.       204.     2.1616 561400000.
       210.      204.5     3.1055 806600000.
       210.       205.     4.93811283000000.
       210.      205.5     6.14861597000000.
       210.       206.      7.4551936000000.
       210.      206.5     7.87042044000000.
       210.       207.     8.13312112000000.
       210.      207.5     7.67511993000000.
       210.       208.     6.45041675000000.
       210.      208.5     5.00191299000000.
       210.       209.     3.7488 973600000.
       210.      209.5      2.348 609800000.
       210.       210.     1.4385 373600000.
       210.      210.5     0.8208 213200000.
       210.       211.     0.2744  71270000.
       210.      211.5     0.2247  58360000.
       210.       212.     0.0614  15950000.
ENDDATA           1080
ENDSUBENT         1099
ENDENTRY             2
